ALV-7004/USB-FAST
Date :	"3/14/2024"
Time :	"12:34:51 PM"
Samplename : 	""
SampMemo(0) : 	""
SampMemo(1) : 	""
SampMemo(2) : 	""
SampMemo(3) : 	""
SampMemo(4) : 	""
SampMemo(5) : 	""
SampMemo(6) : 	""
SampMemo(7) : 	""
SampMemo(8) : 	""
SampMemo(9) : 	""
Temperature [K] :	     298.16000
Viscosity [cp]  :	       0.89000
Refractive Index:	       1.33200
Wavelength [nm] :	       0.00000
Angle [°]       :	       0.00000
Duration [s]    :	         1
FloatDur [ms]   :	          944
Stop TP [ms]   :	      3668
Runs            :	         1
Mode            :	"A-CH0+1  A-CH2+3 "
MeanCR0 [kHz]   :	     111.34784
MeanCR1 [kHz]   :	     105.58658
MeanCR2 [kHz]   :	     103.45353
MeanCR3 [kHz]   :	      99.88043

"Correlation"
  3.12500E-006	 -1.00000E+000	 -1.00000E+000	 -1.00000E+000	 -1.00000E+000
  6.25000E-006	 -1.00000E+000	 -1.00000E+000	 -1.00000E+000	 -1.00000E+000
  9.37500E-006	 -1.00000E+000	 -1.00000E+000	 -1.00000E+000	 -1.00000E+000
  1.25000E-005	 -1.00000E+000	 -1.00000E+000	 -1.00000E+000	 -1.00000E+000
  1.56250E-005	 -1.00000E+000	 -1.00000E+000	 -1.00000E+000	 -1.00000E+000
  1.87500E-005	 -1.00000E+000	 -1.00000E+000	 -1.00000E+000	 -1.00000E+000
  2.18750E-005	 -8.08556E-001	 -3.91697E-001	 -3.02989E-001	 -8.98031E-001
  2.50000E-005	  5.72789E+000	  7.48583E+000	  6.54039E+000	  1.34116E+001
  2.81250E-005	  1.43408E+000	  1.58529E+000	  1.34449E+000	  5.62798E+000
  3.12500E-005	  8.32394E-001	  8.85740E-001	  9.64303E-001	  3.38467E+000
  3.43750E-005	  1.24263E+000	  9.76985E-001	  9.64303E-001	  2.87482E+000
  3.75000E-005	  4.22156E-001	  9.76985E-001	  3.94022E-001	  2.50093E+000
  4.06250E-005	  1.24263E+000	  9.46570E-001	  3.94022E-001	  1.48124E+000
  4.37500E-005	  4.49505E-001	  7.03249E-001	  4.25704E-001	  2.16104E+000
  4.68750E-005	  6.13600E-001	  7.33664E-001	  8.69257E-001	  1.82114E+000
  5.00000E-005	  1.02384E+000	  9.16155E-001	  7.26686E-001	  1.66819E+000
  5.62500E-005	  6.68299E-001	  7.79287E-001	  7.74209E-001	  1.29430E+000
  6.25000E-005	  5.86251E-001	  6.27211E-001	  5.52433E-001	  9.88395E-001
  6.87500E-005	  5.99926E-001	  5.51173E-001	  6.31639E-001	  9.03420E-001
  7.50000E-005	  6.54624E-001	  5.05550E-001	  6.15798E-001	  8.18446E-001
  8.12500E-005	  7.36672E-001	  3.53474E-001	  6.15798E-001	  9.20415E-001
  8.75000E-005	  6.27275E-001	  5.51173E-001	  5.52433E-001	  9.37410E-001
  9.37500E-005	  3.26434E-001	  6.88041E-001	  5.20751E-001	  6.48498E-001
  1.00000E-004	  5.11041E-001	  7.10852E-001	  5.60354E-001	  6.31503E-001
  1.12500E-004	  6.75136E-001	  4.67531E-001	  3.78180E-001	  6.48498E-001
  1.25000E-004	  4.83692E-001	  5.20758E-001	  4.89069E-001	  5.29534E-001
  1.37500E-004	  6.27275E-001	  4.90342E-001	  3.62339E-001	  5.46529E-001
  1.50000E-004	  5.38390E-001	  5.51173E-001	  5.99957E-001	  4.10570E-001
  1.62500E-004	  5.52065E-001	  4.82739E-001	  4.57386E-001	  6.14508E-001
  1.75000E-004	  5.24715E-001	  5.05550E-001	  6.55401E-001	  6.65493E-001
  1.87500E-004	  5.11041E-001	  4.97946E-001	  4.01942E-001	  4.27565E-001
  2.00000E-004	  4.76854E-001	  6.53824E-001	  4.89068E-001	  4.19067E-001
  2.25000E-004	  6.37530E-001	  4.97946E-001	  3.90061E-001	  5.42280E-001
  2.50000E-004	  5.45227E-001	  5.28361E-001	  5.40552E-001	  6.48498E-001
  2.75000E-004	  4.56342E-001	  4.90342E-001	  5.48473E-001	  5.72021E-001
  3.00000E-004	  3.53783E-001	  4.44719E-001	  5.88075E-001	  4.78549E-001
  3.25000E-004	  4.59761E-001	  4.67531E-001	  5.64314E-001	  6.14508E-001
  3.50000E-004	  5.31552E-001	  3.72483E-001	  4.93029E-001	  3.25596E-001
  3.75000E-004	  5.17878E-001	  5.47371E-001	  5.64314E-001	  4.70052E-001
  4.00000E-004	  5.21296E-001	  5.47370E-001	  5.30651E-001	  4.70051E-001
  4.50000E-004	  4.80272E-001	  6.04398E-001	  4.73226E-001	  5.65647E-001
  5.00000E-004	  4.52923E-001	  5.34063E-001	  5.94015E-001	  4.53056E-001
  5.50000E-004	  4.88819E-001	  4.54224E-001	  4.65306E-001	  5.35906E-001
  6.00000E-004	  5.16168E-001	  4.33313E-001	  4.87087E-001	  5.40155E-001
  6.50000E-004	  5.16168E-001	  5.22658E-001	  5.34611E-001	  5.04041E-001
  7.00000E-004	  5.69157E-001	  5.85389E-001	  5.60353E-001	  3.87202E-001
  7.50000E-004	  5.45226E-001	  4.65629E-001	  4.29663E-001	  4.50932E-001
  8.00000E-004	  5.09329E-001	  5.10300E-001	  4.52434E-001	  4.55195E-001
  9.00000E-004	  5.02492E-001	  5.03647E-001	  5.56391E-001	  3.94650E-001
  1.00000E-003	  5.47789E-001	  4.95093E-001	  4.71245E-001	  4.63693E-001
  1.10000E-003	  5.20440E-001	  4.61826E-001	  4.97977E-001	  4.47760E-001
  1.20000E-003	  5.36678E-001	  5.01746E-001	  4.12831E-001	  4.52008E-001
  1.30000E-003	  4.79416E-001	  4.65628E-001	  4.77185E-001	  4.25454E-001
  1.40000E-003	  4.76852E-001	  5.35012E-001	  5.25699E-001	  5.02993E-001
  1.50000E-003	  4.60614E-001	  5.22656E-001	  4.96987E-001	  4.39262E-001
  1.60000E-003	  4.90980E-001	  4.98417E-001	  5.24706E-001	  4.56801E-001
  1.80000E-003	  4.97390E-001	  4.56121E-001	  4.98469E-001	  4.58395E-001
  2.00000E-003	  5.44397E-001	  4.31884E-001	  4.88074E-001	  5.30093E-001
  2.20000E-003	  5.19184E-001	  4.64675E-001	  5.11835E-001	  4.44571E-001
  2.40000E-003	  5.11492E-001	  4.73229E-001	  4.63322E-001	  4.31293E-001
  2.60000E-003	  4.94399E-001	  5.10773E-001	  5.37577E-001	  4.43509E-001
  2.80000E-003	  4.96108E-001	  4.90338E-001	  4.81143E-001	  4.61035E-001
  3.00000E-003	  5.26022E-001	  4.39963E-001	  4.76193E-001	  4.39791E-001
  3.20000E-003	  5.72000E-001	  4.96526E-001	  5.04668E-001	  4.61607E-001
  3.60000E-003	  5.17727E-001	  4.64685E-001	  4.89074E-001	  4.52844E-001
  4.00000E-003	  5.01260E-001	  4.87259E-001	  5.13578E-001	  4.45674E-001
  4.40000E-003	  5.43552E-001	  4.59220E-001	  5.14816E-001	  4.70105E-001
  4.80000E-003	  4.82656E-001	  5.17436E-001	  4.85609E-001	  4.47533E-001
  5.20000E-003	  5.02314E-001	  5.04367E-001	  5.06400E-001	  4.38504E-001
  5.60000E-003	  4.86288E-001	  4.80130E-001	  5.00212E-001	  4.70620E-001
  6.00000E-003	  5.09365E-001	  4.77041E-001	  5.07143E-001	  4.52032E-001
  6.40000E-003	  4.73849E-001	  4.84783E-001	  4.96056E-001	  4.58309E-001
  7.20000E-003	  4.90302E-001	  4.85986E-001	  4.83432E-001	  4.60449E-001
  8.00000E-003	  5.05794E-001	  4.83981E-001	  4.87887E-001	  4.44500E-001
  8.80000E-003	  4.93279E-001	  4.83878E-001	  5.15595E-001	  4.49147E-001
  9.60000E-003	  4.99049E-001	  4.67125E-001	  4.92451E-001	  4.35869E-001
  1.04000E-002	  5.01171E-001	  4.58332E-001	  4.47402E-001	  4.50342E-001
  1.12000E-002	  4.64939E-001	  4.80907E-001	  4.81189E-001	  4.54724E-001
  1.20000E-002	  4.86841E-001	  4.60233E-001	  4.79951E-001	  4.22576E-001
  1.28000E-002	  4.72001E-001	  4.77709E-001	  4.95447E-001	  4.27081E-001
  1.44000E-002	  5.05656E-001	  4.90585E-001	  4.92229E-001	  4.54168E-001
  1.60000E-002	  4.82924E-001	  4.73832E-001	  4.79898E-001	  4.35977E-001
  1.76000E-002	  4.77329E-001	  4.54882E-001	  4.93792E-001	  4.40492E-001
  1.92000E-002	  4.63387E-001	  4.50901E-001	  4.83643E-001	  4.40359E-001
  2.08000E-002	  4.82632E-001	  4.65456E-001	  4.75103E-001	  4.25472E-001
  2.24000E-002	  4.91699E-001	  4.65530E-001	  4.75892E-001	  4.41140E-001
  2.40000E-002	  4.75164E-001	  4.78318E-001	  4.72675E-001	  4.38286E-001
  2.56000E-002	  4.66169E-001	  4.69693E-001	  4.76437E-001	  4.37140E-001
  2.88000E-002	  4.77054E-001	  4.47356E-001	  4.70619E-001	  4.20391E-001
  3.20000E-002	  4.70658E-001	  4.53935E-001	  4.72306E-001	  4.16108E-001
  3.52000E-002	  4.65969E-001	  4.46909E-001	  4.61523E-001	  4.22202E-001
  3.84000E-002	  4.76119E-001	  4.44904E-001	  4.54221E-001	  4.24079E-001
  4.16000E-002	  4.69200E-001	  4.47696E-001	  4.53463E-001	  4.17587E-001
  4.48000E-002	  4.53441E-001	  4.61598E-001	  4.57006E-001	  4.19878E-001
  4.80000E-002	  4.65286E-001	  4.30572E-001	  4.78744E-001	  4.05673E-001
  5.12000E-002	  4.58151E-001	  4.36091E-001	  4.59241E-001	  4.11184E-001
  5.76000E-002	  4.56814E-001	  4.29480E-001	  4.53717E-001	  4.07950E-001
  6.40000E-002	  4.58056E-001	  4.30965E-001	  4.41045E-001	  4.07713E-001
  7.04000E-002	  4.45728E-001	  4.27311E-001	  4.44434E-001	  4.04094E-001
  7.68000E-002	  4.38021E-001	  4.18220E-001	  4.31716E-001	  4.01484E-001
  8.32000E-002	  4.41935E-001	  4.12932E-001	  4.31424E-001	  3.88984E-001
  8.96000E-002	  4.34869E-001	  4.16362E-001	  4.29506E-001	  3.90013E-001
  9.60000E-002	  4.31116E-001	  4.09898E-001	  4.25408E-001	  3.85778E-001
  1.02400E-001	  4.28880E-001	  4.11478E-001	  4.12198E-001	  3.86024E-001
  1.15200E-001	  4.22667E-001	  4.04259E-001	  4.07229E-001	  3.83054E-001
  1.28000E-001	  4.21431E-001	  3.90512E-001	  4.01552E-001	  3.73435E-001
  1.40800E-001	  4.07598E-001	  3.88272E-001	  3.89527E-001	  3.60909E-001
  1.53600E-001	  4.00257E-001	  3.82345E-001	  3.87756E-001	  3.42760E-001
  1.66400E-001	  3.96697E-001	  3.75984E-001	  3.75602E-001	  3.44541E-001
  1.79200E-001	  3.88174E-001	  3.62403E-001	  3.76053E-001	  3.36901E-001
  1.92000E-001	  3.75136E-001	  3.60550E-001	  3.68775E-001	  3.30730E-001
  2.04800E-001	  3.74411E-001	  3.51757E-001	  3.61469E-001	  3.22237E-001
  2.30400E-001	  3.56901E-001	  3.38175E-001	  3.46053E-001	  3.07323E-001
  2.56000E-001	  3.51955E-001	  3.18463E-001	  3.33360E-001	  2.94805E-001
  2.81600E-001	  3.31832E-001	  3.08709E-001	  3.21778E-001	  2.80532E-001
  3.07200E-001	  3.17300E-001	  2.93048E-001	  3.06023E-001	  2.69546E-001
  3.32800E-001	  3.07444E-001	  2.81036E-001	  2.94960E-001	  2.60466E-001
  3.58400E-001	  2.99391E-001	  2.70628E-001	  2.84285E-001	  2.43349E-001
  3.84000E-001	  2.80141E-001	  2.56868E-001	  2.70432E-001	  2.30837E-001
  4.09600E-001	  2.75435E-001	  2.44118E-001	  2.57951E-001	  2.23252E-001
  4.60800E-001	  2.56541E-001	  2.26535E-001	  2.36205E-001	  2.07258E-001
  5.12000E-001	  2.33961E-001	  2.03192E-001	  2.11632E-001	  1.86495E-001
  5.63200E-001	  2.15344E-001	  1.82627E-001	  1.96679E-001	  1.71138E-001
  6.14400E-001	  1.99474E-001	  1.66513E-001	  1.81002E-001	  1.53572E-001
  6.65600E-001	  1.83516E-001	  1.52762E-001	  1.61949E-001	  1.40163E-001
  7.16800E-001	  1.70969E-001	  1.42319E-001	  1.51274E-001	  1.25082E-001
  7.68000E-001	  1.56616E-001	  1.32620E-001	  1.37273E-001	  1.16883E-001
  8.19200E-001	  1.46014E-001	  1.19718E-001	  1.30367E-001	  1.04636E-001
  9.21600E-001	  1.27794E-001	  1.00430E-001	  1.08051E-001	  8.19642E-002
  1.02400E+000	  1.08782E-001	  8.52831E-002	  9.00584E-002	  6.52394E-002
  1.12640E+000	  9.18236E-002	  7.20817E-002	  7.43258E-002	  5.09185E-002
  1.22880E+000	  8.12380E-002	  5.40510E-002	  6.60279E-002	  3.89497E-002
  1.33120E+000	  7.04644E-002	  4.50726E-002	  5.64815E-002	  2.61863E-002
  1.43360E+000	  6.44004E-002	  3.59391E-002	  5.01662E-002	  1.95378E-002
  1.53600E+000	  5.77496E-002	  2.99216E-002	  4.07108E-002	  1.54846E-002
  1.63840E+000	  5.07221E-002	  2.65364E-002	  3.19503E-002	  1.51804E-002
  1.84320E+000	  3.78767E-002	  2.71718E-002	  1.69665E-002	  8.30981E-003
  2.04800E+000	  2.90510E-002	  2.26807E-002	  5.47473E-003	  8.98406E-003
  2.25280E+000	  2.44344E-002	  2.13744E-002	 -3.33501E-003	  8.77019E-003
  2.45760E+000	  1.93687E-002	  1.71500E-002	 -5.99438E-003	  6.16502E-003
  2.66240E+000	  1.33826E-002	  2.27347E-002	 -6.73226E-003	  2.47104E-003
  2.86720E+000	  4.49564E-003	  2.30289E-002	 -8.64120E-003	  6.31533E-003
  3.07200E+000	 -3.54423E-003	  1.96539E-002	 -1.68019E-003	  3.32331E-003
  3.27680E+000	 -9.31783E-003	  2.14644E-002	 -1.59053E-003	 -2.73638E-004
  3.68640E+000	 -1.24626E-002	  1.84529E-002	  3.75534E-003	 -8.52798E-003
  4.09600E+000	 -7.29164E-003	  1.14646E-002	  1.35302E-002	 -8.94833E-003
  4.50560E+000	 -4.72072E-003	  4.96853E-003	  1.67646E-002	 -1.60598E-002
  4.91520E+000	  1.64148E-003	  7.02994E-003	  1.24705E-002	 -1.48579E-002
  5.32480E+000	  6.92690E-003	  2.31146E-002	  8.57425E-003	 -4.52932E-003
  5.73440E+000	  5.77877E-003	  2.72061E-002	 -6.75289E-003	  5.58040E-003
  6.14400E+000	  1.11199E-003	  3.73756E-002	 -2.26958E-002	  4.83203E-003
  6.55360E+000	  1.90684E-003	  3.42029E-002	 -1.86182E-002	  1.06567E-003
  7.37280E+000	 -2.84878E-003	  1.48164E-002	 -8.73588E-003	 -7.47356E-003
  8.19200E+000	 -8.24481E-003	 -9.53497E-004	  5.29581E-003	 -6.04578E-003
  9.01120E+000	 -5.73065E-003	 -1.28377E-003	 -3.01784E-004	  1.50927E-002
  9.83040E+000	 -1.54086E-002	  8.02657E-003	  4.40118E-003	  5.07203E-003
  1.06496E+001	 -2.04454E-002	  1.08399E-002	 -7.54792E-004	  1.27962E-003
  1.14688E+001	 -2.09619E-002	  1.67246E-002	 -8.39913E-004	  1.62736E-003
  1.22880E+001	  2.45585E-003	  2.26334E-002	 -1.49729E-003	  1.08233E-002
  1.31072E+001	  1.32792E-002	  1.76422E-002	 -4.04741E-004	  8.97390E-003
  1.47456E+001	  2.98435E-003	 -7.99892E-003	  3.52257E-003	  8.49691E-003
  1.63840E+001	 -1.01240E-002	  4.53383E-003	  1.90833E-003	  7.77935E-003
  1.80224E+001	  3.21176E-003	 -2.88342E-003	 -1.87526E-002	 -1.93074E-002
  1.96608E+001	 -1.31215E-002	 -5.60859E-003	 -7.38334E-003	 -4.96915E-003
  2.12992E+001	 -2.12152E-002	 -3.77992E-003	  9.18702E-004	 -3.01462E-003
  2.29376E+001	 -1.25288E-003	 -5.83664E-004	  7.85826E-003	  6.65977E-003
  2.45760E+001	 -1.21642E-002	 -8.05864E-003	  1.43899E-002	  6.84218E-004
  2.62144E+001	 -1.11696E-002	 -5.54365E-003	  7.07789E-003	 -1.63610E-003
  2.94912E+001	  3.40544E-004	 -1.03197E-002	  3.82883E-003	  2.91119E-003
  3.27680E+001	 -2.47003E-002	  4.78133E-003	  1.25977E-002	 -2.98494E-003
  3.60448E+001	 -7.35531E-003	 -6.04638E-003	 -1.34190E-002	 -4.20224E-003
  3.93216E+001	  3.17262E-003	 -4.69492E-004	  2.03840E-003	 -1.66332E-003
  4.25984E+001	  4.46967E-003	  8.74727E-003	  4.09207E-003	  4.26540E-003
  4.58752E+001	  9.10214E-003	  2.71360E-003	  7.29229E-003	 -3.40529E-003
  4.91520E+001	  7.97010E-003	  9.19293E-003	 -1.73316E-003	 -1.68476E-003
  5.24288E+001	 -8.94395E-003	  1.32238E-002	 -3.95054E-003	 -8.01159E-003
  5.89824E+001	 -1.62330E-002	 -5.53218E-003	 -1.45795E-003	 -7.97810E-003
  6.55360E+001	 -9.60435E-003	  5.57293E-003	 -6.37984E-004	 -1.40301E-003
  7.20896E+001	 -3.12568E-003	 -4.11595E-003	  8.18491E-004	 -2.18222E-003
  7.86432E+001	  1.88100E-002	 -1.34685E-002	 -8.67422E-003	  2.01494E-003
  8.51968E+001	  8.29789E-003	  6.22269E-004	 -7.05874E-005	  1.78881E-003
  9.17504E+001	  9.65108E-003	 -8.31882E-004	  7.58987E-004	  7.93522E-003
  9.83040E+001	 -7.06493E-003	  4.66561E-003	  8.30741E-003	  4.02938E-004
  1.04858E+002	 -3.58021E-003	  1.07983E-002	 -2.77949E-003	 -2.92490E-003
  1.17965E+002	 -3.46788E-003	  3.16218E-003	  1.11737E-003	 -4.23816E-004
  1.31072E+002	 -9.06166E-003	 -1.19670E-002	  1.46569E-003	  2.88319E-003
  1.44179E+002	 -3.41683E-003	 -6.59711E-003	 -8.62433E-003	 -7.93161E-003
  1.57286E+002	  1.22301E-002	  1.27890E-002	 -2.42340E-003	 -2.36858E-003
  1.70394E+002	  9.70729E-005	 -6.14954E-004	 -9.23728E-004	  6.89748E-003
  1.83501E+002	 -1.52078E-003	 -1.33959E-002	  2.15882E-003	 -3.75962E-003
  1.96608E+002	 -1.13393E-003	 -7.03649E-003	  2.09741E-004	 -2.58566E-003
  2.09715E+002	 -1.05990E-002	 -4.19386E-003	 -3.04895E-003	 -7.07643E-003
  2.35930E+002	  3.45165E-003	 -4.87113E-003	  3.25339E-003	 -5.96096E-003
  2.62144E+002	  1.44811E-002	 -4.85484E-003	 -2.84273E-004	 -9.25719E-004
  2.88358E+002	 -8.29263E-003	 -1.72619E-002	 -2.30357E-003	  3.72963E-003
  3.14573E+002	 -1.21483E-002	 -9.51665E-004	  1.70362E-003	  4.41307E-003
  3.40787E+002	  9.56594E-003	 -5.80315E-003	  3.64106E-004	  1.21390E-003
  3.67002E+002	 -6.33223E-003	 -1.44060E-002	 -8.12857E-004	  2.49852E-003
  3.93216E+002	  4.17630E-004	  1.36078E-003	 -5.63156E-003	  6.77965E-004

"Count Rate"
       0.01311	      82.16858	      99.94507	      80.10864	      94.98596
       0.02621	     109.10034	      98.11401	      88.04321	     126.49536
       0.03932	     138.24463	     150.14648	     134.35364	     100.32654
       0.05243	      86.82251	      70.19043	     146.71326	     132.06482
       0.06554	     127.94495	      82.85522	     137.55798	      77.20947
       0.07864	     112.22839	      89.11133	      75.22583	      84.22852
       0.09175	      77.66724	     112.53357	     118.40820	      99.10583
       0.10486	     208.81653	     143.28003	      93.38379	      93.00232
       0.11796	     102.00500	     106.20117	     104.44641	     127.10571
       0.13107	      80.56641	      94.75708	     103.45459	      92.92603
       0.14418	     146.71326	     102.99683	      62.48474	     122.90955
       0.15729	     115.12756	      83.31299	     101.77612	      97.73254
       0.17039	      91.09497	     144.88220	      78.35388	      84.53369
       0.18350	     111.99951	     123.67249	     104.52271	     102.00500
       0.19661	      95.82520	     102.46277	      70.80078	     104.52271
       0.20972	     113.83057	     112.30469	      97.57996	      93.68896
       0.22282	      95.82520	      95.59631	      81.78711	     109.48181
       0.23593	     130.76782	     112.22839	     111.92322	     109.93958
       0.24904	     114.66980	      88.95874	     102.76794	      82.16858
       0.26214	     129.85229	     113.44910	     126.03760	      96.43555
       0.27525	      73.24219	     106.58264	     112.22839	     105.74341
       0.28836	     102.08130	      93.84155	     133.43811	      87.73804
       0.30147	      99.18213	     144.65332	     100.63171	      73.16589
       0.31457	     103.91235	     155.10559	     126.49536	     122.07031
       0.32768	     131.22559	     135.42175	      94.60449	      81.25305
       0.34079	     136.41357	     106.73523	      74.84436	      80.64270
       0.35389	     130.76782	      87.35657	      80.71899	     123.97766
       0.36700	      84.91516	     126.87683	     129.77600	      94.45190
       0.38011	     108.48999	     100.93689	     105.97229	      89.11133
       0.39322	      93.46008	      82.01599	     117.26379	     101.54724
       0.40632	     100.32654	      78.73535	      91.78162	      98.72437
       0.41943	     115.05127	      89.64539	     108.41370	     104.75159
       0.43254	      81.02417	      88.19580	      90.63721	      96.96960
       0.44564	      92.01050	      77.59094	     108.10852	     104.59900
       0.45875	     105.59082	      64.62097	     101.16577	      94.45190
       0.47186	      63.78174	      75.22583	      69.88525	      94.90967
       0.48497	      93.46008	     108.10852	     172.11914	     152.81677
       0.49807	     198.44055	      87.35657	      93.99414	      83.00781
       0.51118	     107.04041	      72.86072	      85.37292	     108.48999
       0.52429	     102.61536	     105.28564	      98.72437	     108.48999
       0.53740	     103.98865	     128.32642	     114.74609	     119.09485
       0.55050	      83.61816	      82.77893	     124.96948	     106.96411
       0.56361	     111.16028	      94.37561	      82.77893	      81.32935
       0.57672	     107.87964	     116.95862	     118.71338	     101.08948
       0.58982	     158.99658	      91.32385	     109.32922	      71.02966
       0.60293	     115.89050	      76.21765	      95.82520	     102.76794
       0.61604	     126.03760	     100.32654	     121.76514	      88.50098
       0.62915	      95.52002	      94.22302	      93.07861	      75.68359
       0.64225	      77.36206	     168.83850	     116.72974	     109.78699
       0.65536	     110.09216	     106.35376	      86.13586	      91.24756
       0.66847	      93.07861	      81.10046	     131.91223	      92.23938
       0.68157	     114.51721	      67.21497	      97.42737	      90.63721
       0.69468	     100.40283	     150.29907	      90.02686	      77.43835
       0.70779	     117.34009	      78.04871	      97.27478	     108.79517
       0.72090	      76.21765	      80.18494	     120.39185	     117.87415
       0.73400	     123.36731	     104.44641	     110.62622	      74.23401
       0.74711	     157.69958	     118.86597	      76.29395	      89.41650
