ALV-7004/USB-FAST
Date :	"3/14/2024"
Time :	"12:32:33 PM"
Samplename : 	""
SampMemo(0) : 	""
SampMemo(1) : 	""
SampMemo(2) : 	""
SampMemo(3) : 	""
SampMemo(4) : 	""
SampMemo(5) : 	""
SampMemo(6) : 	""
SampMemo(7) : 	""
SampMemo(8) : 	""
SampMemo(9) : 	""
Temperature [K] :	     298.16000
Viscosity [cp]  :	       0.89000
Refractive Index:	       1.33200
Wavelength [nm] :	       0.00000
Angle [°]       :	       0.00000
Duration [s]    :	         1
FloatDur [ms]   :	          944
Stop TP [ms]   :	      3211
Runs            :	         1
Mode            :	"A-CH0+1  A-CH2+3 "
MeanCR0 [kHz]   :	     145.67375
MeanCR1 [kHz]   :	     138.26688
MeanCR2 [kHz]   :	     138.93128
MeanCR3 [kHz]   :	     139.16545

"Correlation"
  3.12500E-006	 -1.00000E+000	 -1.00000E+000	 -1.00000E+000	 -1.00000E+000
  6.25000E-006	 -1.00000E+000	 -1.00000E+000	 -1.00000E+000	 -1.00000E+000
  9.37500E-006	 -1.00000E+000	 -1.00000E+000	 -1.00000E+000	 -1.00000E+000
  1.25000E-005	 -1.00000E+000	 -1.00000E+000	 -1.00000E+000	 -1.00000E+000
  1.56250E-005	 -1.00000E+000	 -1.00000E+000	 -1.00000E+000	 -1.00000E+000
  1.87500E-005	 -1.00000E+000	 -1.00000E+000	 -1.00000E+000	 -1.00000E+000
  2.18750E-005	 -9.68042E-001	 -3.61481E-001	 -2.27034E-001	 -9.82492E-001
  2.50000E-005	  5.19979E+000	  5.63350E+000	  5.32426E+000	  1.02929E+001
  2.81250E-005	  2.11587E+000	  1.21708E+000	  1.74051E+000	  3.51715E+000
  3.12500E-005	  8.37565E-001	  9.15556E-001	  7.39173E-001	  1.97642E+000
  3.43750E-005	  6.45819E-001	  6.14034E-001	  6.16201E-001	  2.29157E+000
  3.75000E-005	  9.65396E-001	  7.55927E-001	  4.05392E-001	  1.85386E+000
  4.06250E-005	  7.57671E-001	  1.07519E+000	  8.09442E-001	  1.31110E+000
  4.37500E-005	  7.41692E-001	  4.54404E-001	  9.85116E-001	  1.52120E+000
  4.68750E-005	  6.77777E-001	  4.01194E-001	  5.63499E-001	  1.03097E+000
  5.00000E-005	  6.05872E-001	  5.43087E-001	  7.04038E-001	  9.08408E-001
  5.62500E-005	  6.05872E-001	  4.81009E-001	  8.00658E-001	  1.16228E+000
  6.25000E-005	  6.93756E-001	  5.34219E-001	  5.98633E-001	  8.90899E-001
  6.87500E-005	  4.70052E-001	  5.43087E-001	  5.45931E-001	  7.50833E-001
  7.50000E-005	  6.37830E-001	  5.34219E-001	  2.82420E-001	  6.54537E-001
  8.12500E-005	  5.73914E-001	  4.01194E-001	  6.60119E-001	  8.55883E-001
  8.75000E-005	  5.65925E-001	  6.05165E-001	  3.96608E-001	  6.54537E-001
  9.37500E-005	  6.05872E-001	  4.63272E-001	  5.02013E-001	  7.50833E-001
  1.00000E-004	  4.26110E-001	  5.43087E-001	  5.45931E-001	  5.27601E-001
  1.12500E-004	  4.54073E-001	  4.76575E-001	  5.28364E-001	  6.98307E-001
  1.25000E-004	  5.29973E-001	  5.16482E-001	  4.27351E-001	  5.23224E-001
  1.37500E-004	  6.29840E-001	  5.65258E-001	  4.84445E-001	  5.93257E-001
  1.50000E-004	  5.97883E-001	  4.36667E-001	  4.97621E-001	  5.14470E-001
  1.62500E-004	  4.66057E-001	  6.00731E-001	  5.15188E-001	  5.66995E-001
  1.75000E-004	  5.41957E-001	  4.54404E-001	  4.44918E-001	  5.53864E-001
  1.87500E-004	  5.21983E-001	  6.05165E-001	  6.20592E-001	  6.19520E-001
  2.00000E-004	  5.61930E-001	  5.98514E-001	  6.16200E-001	  5.56052E-001
  2.25000E-004	  3.92155E-001	  4.74357E-001	  5.10796E-001	  4.94773E-001
  2.50000E-004	  5.71917E-001	  5.36435E-001	  4.64681E-001	  4.68510E-001
  2.75000E-004	  5.49946E-001	  3.87891E-001	  5.54714E-001	  5.93257E-001
  3.00000E-004	  6.73782E-001	  4.81008E-001	  5.92045E-001	  5.05716E-001
  3.25000E-004	  4.74046E-001	  4.98745E-001	  4.40526E-001	  4.92584E-001
  3.50000E-004	  5.53940E-001	  4.41101E-001	  5.04208E-001	  5.36355E-001
  3.75000E-004	  5.47948E-001	  4.21147E-001	  5.48127E-001	  4.61945E-001
  4.00000E-004	  5.20983E-001	  4.21147E-001	  5.40440E-001	  4.83830E-001
  4.50000E-004	  5.09998E-001	  4.55511E-001	  4.59191E-001	  5.03526E-001
  5.00000E-004	  5.49945E-001	  4.67705E-001	  5.68987E-001	  4.34587E-001
  5.50000E-004	  4.80038E-001	  5.08721E-001	  4.86640E-001	  4.56473E-001
  6.00000E-004	  4.83034E-001	  4.90985E-001	  4.37232E-001	  4.18173E-001
  6.50000E-004	  4.47081E-001	  4.65488E-001	  5.16285E-001	  4.95867E-001
  7.00000E-004	  5.02009E-001	  4.67705E-001	  4.80052E-001	  5.80125E-001
  7.50000E-004	  5.74912E-001	  3.94542E-001	  4.49309E-001	  4.91489E-001
  8.00000E-004	  5.18485E-001	  4.11723E-001	  4.87188E-001	  5.42919E-001
  9.00000E-004	  5.18485E-001	  4.27242E-001	  4.95971E-001	  4.94224E-001
  1.00000E-003	  5.41954E-001	  4.27242E-001	  4.97069E-001	  4.72338E-001
  1.10000E-003	  4.97513E-001	  5.05394E-001	  5.31655E-001	  4.88752E-001
  1.20000E-003	  4.68052E-001	  4.37219E-001	  4.82247E-001	  4.81640E-001
  1.30000E-003	  4.95017E-001	  4.71030E-001	  4.52602E-001	  4.63584E-001
  1.40000E-003	  4.73545E-001	  4.43870E-001	  4.79502E-001	  4.11059E-001
  1.50000E-003	  5.14990E-001	  5.15371E-001	  4.92678E-001	  4.51547E-001
  1.60000E-003	  4.93516E-001	  4.81281E-001	  4.82793E-001	  4.70706E-001
  1.80000E-003	  5.00257E-001	  4.94861E-001	  4.78402E-001	  4.84931E-001
  2.00000E-003	  4.67051E-001	  4.69919E-001	  4.81146E-001	  5.12015E-001
  2.20000E-003	  5.05750E-001	  4.48025E-001	  5.02557E-001	  4.81101E-001
  2.40000E-003	  4.96262E-001	  4.57448E-001	  4.78676E-001	  4.97789E-001
  2.60000E-003	  5.16735E-001	  4.43314E-001	  4.74570E-001	  4.80828E-001
  2.80000E-003	  4.72045E-001	  4.77401E-001	  5.00098E-001	  4.82196E-001
  3.00000E-003	  5.00507E-001	  4.80727E-001	  4.76491E-001	  4.70159E-001
  3.20000E-003	  5.02499E-001	  4.62997E-001	  4.56723E-001	  4.72901E-001
  3.60000E-003	  4.80154E-001	  4.69371E-001	  4.88701E-001	  4.96701E-001
  4.00000E-003	  4.92013E-001	  4.50803E-001	  4.96524E-001	  4.52509E-001
  4.40000E-003	  4.71790E-001	  4.21426E-001	  4.74290E-001	  4.54697E-001
  4.80000E-003	  4.58433E-001	  4.46230E-001	  4.80055E-001	  4.64819E-001
  5.20000E-003	  4.87644E-001	  4.51495E-001	  4.75388E-001	  4.63725E-001
  5.60000E-003	  4.78531E-001	  4.49833E-001	  4.81713E-001	  4.65777E-001
  6.00000E-003	  4.75285E-001	  4.41934E-001	  4.84469E-001	  4.67692E-001
  6.40000E-003	  4.72591E-001	  4.43124E-001	  4.69019E-001	  4.59770E-001
  7.20000E-003	  4.78271E-001	  4.54071E-001	  4.64970E-001	  4.64216E-001
  8.00000E-003	  4.74401E-001	  4.37363E-001	  4.73685E-001	  4.36038E-001
  8.80000E-003	  4.67411E-001	  4.46439E-001	  4.64009E-001	  4.21265E-001
  9.60000E-003	  4.64228E-001	  4.61058E-001	  4.75744E-001	  4.47186E-001
  1.04000E-002	  4.74152E-001	  4.30157E-001	  4.76430E-001	  4.35412E-001
  1.12000E-002	  4.76836E-001	  4.27802E-001	  4.58451E-001	  4.49706E-001
  1.20000E-002	  4.79332E-001	  4.17628E-001	  4.50971E-001	  4.24332E-001
  1.28000E-002	  4.65487E-001	  4.25007E-001	  4.51820E-001	  4.36611E-001
  1.44000E-002	  4.65113E-001	  4.18390E-001	  4.53742E-001	  4.29840E-001
  1.60000E-002	  4.55605E-001	  4.10827E-001	  4.45747E-001	  4.27162E-001
  1.76000E-002	  4.57602E-001	  4.09649E-001	  4.50688E-001	  4.25110E-001
  1.92000E-002	  4.46523E-001	  4.10412E-001	  4.44592E-001	  4.11671E-001
  2.08000E-002	  4.40157E-001	  3.97687E-001	  4.50699E-001	  4.13791E-001
  2.24000E-002	  4.46024E-001	  4.05066E-001	  4.17119E-001	  4.13689E-001
  2.40000E-002	  4.47720E-001	  3.88334E-001	  4.26726E-001	  4.06871E-001
  2.56000E-002	  4.29341E-001	  3.89282E-001	  4.13229E-001	  3.98797E-001
  2.88000E-002	  4.19620E-001	  3.75112E-001	  4.07773E-001	  3.98061E-001
  3.20000E-002	  4.14434E-001	  3.67948E-001	  4.01258E-001	  3.81520E-001
  3.52000E-002	  4.04754E-001	  3.66684E-001	  3.93257E-001	  3.68591E-001
  3.84000E-002	  3.89591E-001	  3.54842E-001	  3.81872E-001	  3.65633E-001
  4.16000E-002	  3.85409E-001	  3.36679E-001	  3.76965E-001	  3.42822E-001
  4.48000E-002	  3.75557E-001	  3.42517E-001	  3.70422E-001	  3.49997E-001
  4.80000E-002	  3.61507E-001	  3.34989E-001	  3.58000E-001	  3.32432E-001
  5.12000E-002	  3.61443E-001	  3.24074E-001	  3.45432E-001	  3.32414E-001
  5.76000E-002	  3.40436E-001	  3.10936E-001	  3.38295E-001	  3.09402E-001
  6.40000E-002	  3.24441E-001	  2.87099E-001	  3.17512E-001	  3.00778E-001
  7.04000E-002	  3.15209E-001	  2.69664E-001	  3.07652E-001	  2.85154E-001
  7.68000E-002	  2.99021E-001	  2.61158E-001	  2.94749E-001	  2.70892E-001
  8.32000E-002	  2.78929E-001	  2.53181E-001	  2.78684E-001	  2.56983E-001
  8.96000E-002	  2.79855E-001	  2.36431E-001	  2.67753E-001	  2.45809E-001
  9.60000E-002	  2.64986E-001	  2.26384E-001	  2.57169E-001	  2.39107E-001
  1.02400E-001	  2.51661E-001	  2.17990E-001	  2.47876E-001	  2.28325E-001
  1.15200E-001	  2.33022E-001	  1.94713E-001	  2.23776E-001	  2.03537E-001
  1.28000E-001	  2.14614E-001	  1.79196E-001	  2.11430E-001	  1.90618E-001
  1.40800E-001	  1.95819E-001	  1.63234E-001	  2.00115E-001	  1.76100E-001
  1.53600E-001	  1.89520E-001	  1.45536E-001	  1.84175E-001	  1.62312E-001
  1.66400E-001	  1.67095E-001	  1.40465E-001	  1.73718E-001	  1.52702E-001
  1.79200E-001	  1.63870E-001	  1.29015E-001	  1.61793E-001	  1.37844E-001
  1.92000E-001	  1.51354E-001	  1.21800E-001	  1.55128E-001	  1.31574E-001
  2.04800E-001	  1.43402E-001	  1.09081E-001	  1.48172E-001	  1.18636E-001
  2.30400E-001	  1.24447E-001	  9.31934E-002	  1.28934E-001	  1.01629E-001
  2.56000E-001	  1.12471E-001	  8.07440E-002	  1.16145E-001	  8.72684E-002
  2.81600E-001	  1.05759E-001	  6.92264E-002	  1.04345E-001	  7.86516E-002
  3.07200E-001	  9.62835E-002	  6.31966E-002	  9.18229E-002	  6.82125E-002
  3.32800E-001	  8.95663E-002	  5.77942E-002	  7.94228E-002	  6.32399E-002
  3.58400E-001	  8.54457E-002	  5.30446E-002	  7.07996E-002	  5.87656E-002
  3.84000E-001	  7.85933E-002	  4.91321E-002	  6.49350E-002	  5.73381E-002
  4.09600E-001	  7.24240E-002	  4.51304E-002	  6.15708E-002	  5.34690E-002
  4.60800E-001	  5.78244E-002	  3.68362E-002	  5.19622E-002	  4.82155E-002
  5.12000E-001	  5.09936E-002	  3.37994E-002	  4.01830E-002	  4.18047E-002
  5.63200E-001	  4.58396E-002	  2.94311E-002	  3.18969E-002	  3.73522E-002
  6.14400E-001	  3.54157E-002	  2.28320E-002	  3.18480E-002	  2.95294E-002
  6.65600E-001	  3.12262E-002	  1.68783E-002	  2.46796E-002	  2.16106E-002
  7.16800E-001	  3.02051E-002	  1.58037E-002	  2.20642E-002	  1.84722E-002
  7.68000E-001	  2.76000E-002	  1.37166E-002	  1.85113E-002	  1.85115E-002
  8.19200E-001	  2.50658E-002	  9.51185E-003	  1.35939E-002	  1.90797E-002
  9.21600E-001	  1.69221E-002	  7.94472E-003	  7.98753E-003	  2.39305E-002
  1.02400E+000	  1.44742E-002	  1.12217E-002	  2.38971E-003	  2.48873E-002
  1.12640E+000	  9.29149E-003	  1.05486E-002	 -4.77154E-003	  1.90871E-002
  1.22880E+000	  3.36690E-003	  8.56413E-003	 -1.15387E-003	  1.45504E-002
  1.33120E+000	  3.41600E-003	  2.45246E-003	 -6.38949E-003	  1.08802E-002
  1.43360E+000	  4.86303E-003	  4.25965E-003	 -1.01014E-004	  7.97879E-003
  1.53600E+000	 -6.59439E-004	  8.65990E-003	  4.19713E-003	  7.59947E-003
  1.63840E+000	 -4.42843E-003	  9.10192E-003	  4.75886E-003	  8.22862E-003
  1.84320E+000	 -1.08199E-002	  4.58257E-004	 -5.84319E-004	  4.88841E-003
  2.04800E+000	 -9.14490E-003	 -7.90046E-004	  1.54546E-003	  6.72712E-003
  2.25280E+000	 -1.09632E-002	  2.64458E-003	  5.76573E-003	  8.23028E-003
  2.45760E+000	 -1.86765E-002	  1.65912E-003	  6.08906E-003	  4.43943E-003
  2.66240E+000	 -1.85035E-002	  1.78171E-003	  7.07925E-003	  1.14784E-003
  2.86720E+000	 -5.99944E-003	  2.00463E-003	  1.57754E-002	 -4.78200E-004
  3.07200E+000	  8.71606E-004	  8.32433E-004	  1.17446E-002	  4.91111E-003
  3.27680E+000	  2.28787E-003	  7.61867E-004	  2.92888E-003	  3.07420E-003
  3.68640E+000	 -2.72294E-003	 -1.77447E-003	 -4.77014E-005	 -6.72238E-003
  4.09600E+000	 -8.88084E-003	  3.47980E-003	 -5.05079E-003	 -1.90658E-003
  4.50560E+000	  2.63481E-004	 -5.48186E-003	 -3.90772E-003	 -1.04157E-002
  4.91520E+000	 -5.81121E-003	 -9.59442E-004	 -4.09036E-003	 -6.95620E-003
  5.32480E+000	  2.60381E-003	  2.29449E-003	 -5.67901E-003	 -6.91989E-003
  5.73440E+000	 -8.25317E-004	  8.43064E-003	 -1.38829E-003	 -1.65428E-002
  6.14400E+000	  3.60942E-003	 -3.38128E-003	 -3.49774E-003	 -1.03625E-002
  6.55360E+000	  1.03035E-002	 -1.28369E-003	 -7.88362E-003	 -4.16382E-003
  7.37280E+000	  7.47200E-003	  4.88716E-003	 -1.13904E-002	 -1.19242E-003
  8.19200E+000	  8.40749E-003	 -5.64660E-003	 -5.61893E-003	  2.46541E-003
  9.01120E+000	  4.70535E-003	  1.88343E-003	 -1.11659E-003	  1.13972E-002
  9.83040E+000	  2.61832E-003	 -7.89927E-003	 -2.81101E-003	  1.07801E-002
  1.06496E+001	 -9.23085E-003	 -7.79222E-003	 -9.19579E-003	  6.92966E-004
  1.14688E+001	 -6.25774E-004	 -5.02556E-003	  1.34722E-003	  4.05492E-003
  1.22880E+001	 -1.42390E-003	  1.87392E-003	 -1.57785E-003	 -9.96816E-004
  1.31072E+001	  3.41276E-003	  7.47867E-004	  2.85789E-003	 -4.10187E-003
  1.47456E+001	  7.20222E-003	  3.24945E-003	  5.31212E-003	  7.28707E-005
  1.63840E+001	  1.21476E-004	  4.50746E-003	  2.12448E-003	 -1.10827E-002
  1.80224E+001	 -5.44830E-003	  1.47422E-003	 -4.70280E-004	 -1.16715E-003
  1.96608E+001	 -3.25014E-003	 -1.52584E-003	  2.39067E-003	 -3.40167E-004
  2.12992E+001	  3.28739E-003	 -2.17082E-003	 -1.05048E-002	  2.23753E-003
  2.29376E+001	  3.81513E-003	 -6.13647E-003	 -8.44038E-004	 -6.77957E-003
  2.45760E+001	 -7.41571E-003	 -1.27280E-003	  2.14548E-003	 -8.23051E-003
  2.62144E+001	 -8.02875E-004	 -1.22046E-003	  4.54410E-005	 -1.53432E-003
  2.94912E+001	  1.55039E-003	 -2.60116E-003	  2.26120E-003	  3.80092E-004
  3.27680E+001	  2.26508E-004	  2.23989E-003	 -2.96317E-003	  2.97848E-004
  3.60448E+001	  5.75425E-003	 -2.63982E-003	 -1.87177E-003	  3.75952E-003
  3.93216E+001	 -2.77942E-003	  5.12475E-003	 -1.51436E-003	  4.90957E-003
  4.25984E+001	  7.67771E-003	 -4.43287E-004	 -1.68869E-003	  2.95520E-003
  4.58752E+001	  1.76917E-004	  4.82985E-004	 -7.90944E-004	  2.73698E-004
  4.91520E+001	  9.28121E-003	 -3.61659E-003	  3.32092E-003	  4.48885E-003
  5.24288E+001	  3.22913E-003	 -3.44648E-004	  3.30465E-005	 -2.57282E-003
  5.89824E+001	  2.96362E-003	 -1.16090E-003	 -4.23700E-003	  3.49062E-004
  6.55360E+001	 -4.78176E-003	  1.64770E-003	  1.13639E-003	 -1.90686E-003
  7.20896E+001	  3.83705E-003	 -2.72386E-003	  5.50441E-003	  2.37225E-003
  7.86432E+001	  2.38541E-003	  2.02730E-003	 -1.86606E-003	  1.29740E-003
  8.51968E+001	 -2.25626E-003	  1.30161E-003	 -1.12009E-003	  1.86727E-003
  9.17504E+001	  1.06390E-003	  2.59972E-004	 -1.13442E-003	 -1.05925E-003
  9.83040E+001	 -1.15388E-003	  1.19873E-003	  4.39133E-003	 -2.43809E-003
  1.04858E+002	  2.63210E-003	 -1.46748E-003	 -1.48036E-004	 -1.36641E-004
  1.17965E+002	 -1.53825E-003	  8.27849E-004	  8.84160E-004	 -3.86602E-004
  1.31072E+002	 -1.29756E-003	  5.28492E-005	  1.36068E-003	  1.21392E-003
  1.44179E+002	  5.63254E-004	 -7.90571E-005	 -4.79737E-004	 -1.07350E-003
  1.57286E+002	  3.82483E-003	  5.72747E-004	 -2.16859E-003	 -2.72195E-003
  1.70394E+002	 -7.73697E-004	  1.95263E-003	 -8.71063E-004	 -5.61737E-004
  1.83501E+002	 -3.37426E-003	  1.09941E-003	 -1.28544E-003	  3.03316E-003
  1.96608E+002	  2.22236E-003	 -7.32580E-004	  3.65245E-004	 -3.98803E-003
  2.09715E+002	  3.76678E-004	 -1.08306E-003	  2.03958E-003	 -5.50158E-004
  2.35930E+002	 -8.85148E-004	 -7.15279E-004	 -2.47355E-003	 -1.12242E-003
  2.62144E+002	  3.23805E-004	 -3.34547E-003	  6.48208E-004	  2.75655E-003
  2.88358E+002	  7.58958E-005	  3.69879E-003	  3.54460E-004	  8.02335E-004
  3.14573E+002	 -1.81270E-003	  5.25925E-004	  4.20278E-004	  2.40135E-003
  3.40787E+002	 -1.51254E-004	 -1.76196E-003	  9.34461E-004	 -1.98457E-003
  3.67002E+002	 -1.75209E-003	  1.64855E-003	 -2.54116E-003	  1.96081E-003
  3.93216E+002	 -2.17940E-003	 -7.12768E-004	 -2.18915E-004	  4.40216E-004

"Count Rate"
       0.01311	     139.38904	     127.25830	     128.70789	     134.35364
       0.02621	     144.11926	     119.55261	     117.87415	     104.90417
       0.03932	     118.17932	     153.65601	     110.16846	     130.00488
       0.05243	     142.89856	     146.56067	     152.43530	     146.02661
       0.06554	     169.14368	     154.26636	     133.89587	     129.39453
       0.07864	     124.81689	     117.72156	     152.13013	     116.04309
       0.09175	     165.86304	     139.23645	     116.72974	     158.00476
       0.10486	     138.93127	     161.81946	     145.64514	     145.26367
       0.11796	     126.03760	     144.19556	     121.84143	     168.99109
       0.13107	     130.61523	     123.74878	     131.07300	     117.87415
       0.14418	     156.70776	     144.95850	     129.39453	     129.08936
       0.15729	     123.97766	     173.11096	     133.81958	     155.94482
       0.17039	     156.93665	     114.82239	     170.74585	     133.05664
       0.18350	     139.69421	     133.43811	     154.34265	     156.09741
       0.19661	     153.57971	     126.19019	     123.44360	     155.94482
       0.20972	     177.23083	     128.09753	     124.05396	     123.90137
       0.22282	     168.76221	     157.24182	     132.44629	     159.53064
       0.23593	     178.37524	     142.66968	     155.25818	     163.11646
       0.24904	     143.12744	     128.70789	     131.91223	     124.13025
       0.26214	     162.73499	     116.57715	     137.40540	     136.41357
       0.27525	     158.76770	     125.73242	     149.61243	     149.23096
       0.28836	     178.75671	     114.21204	     133.66699	     127.33459
       0.30147	     155.79224	     162.88757	     167.61780	     141.60156
       0.31457	     145.26367	     107.95593	     139.16016	     132.82776
       0.32768	     147.78137	     153.35083	     134.20105	     145.87402
       0.34079	     135.95581	     156.17371	     127.33459	     145.03479
       0.35389	     104.29382	     139.61792	     148.23914	     138.62610
       0.36700	     155.86853	     128.32642	     116.65344	     135.34546
       0.38011	     172.19543	     165.78674	     141.67786	     116.11938
       0.39322	     131.14929	     151.82495	     153.96118	     121.30737
       0.40632	     131.37817	     113.44910	     137.02393	     119.70520
       0.41943	     159.45435	     124.43542	     121.91772	     147.78137
       0.43254	     187.45422	     134.12476	     148.69690	     106.96411
       0.44564	     117.72156	     126.80054	     134.04846	     147.85767
       0.45875	     144.95850	     156.47888	     149.53613	     158.00476
       0.47186	     118.71338	     130.38635	     109.86328	     144.34814
       0.48497	     172.19543	     122.29919	     136.48987	     121.91772
       0.49807	     121.07849	     125.88501	     164.26086	     145.79773
       0.51118	     134.88770	     145.18738	     125.73242	     149.61243
       0.52429	     135.72693	     158.00476	     180.05371	     135.34546
       0.53740	     156.17371	     119.01855	     127.33459	     144.27185
       0.55050	     126.95313	     136.48987	     129.01306	     182.11365
       0.56361	     139.84680	     127.41089	     143.89038	      99.94507
       0.57672	     148.08655	     108.94775	     158.53882	     105.66711
       0.58982	     152.81677	     131.53076	     155.41077	     158.08105
       0.60293	     111.46545	     118.40820	     163.04016	     134.65881
       0.61604	     129.85229	     137.10022	     132.52258	     124.66431
       0.62915	     112.60986	     154.41895	     128.63159	     156.02112
       0.64225	     145.95032	     126.49536	     133.05664	     118.02673
       0.65536	     140.76233	     121.23108	     117.49268	     124.74060
       0.66847	     135.95581	     134.50623	     121.15479	     117.26379
       0.68157	     138.39722	     139.08386	     141.14380	     125.04578
       0.69468	     158.15735	     134.27734	     152.43530	     124.35913
       0.70779	     128.02124	     130.23376	     143.35632	     144.50073
       0.72090	     146.56067	     130.31006	     147.24731	     119.78149
       0.73400	     158.38623	     134.65881	     120.08667	     147.24731
       0.74711	     141.90674	     115.50903	     118.56079	     126.95313
