ALV-7004/USB-FAST
Date :	"3/14/2024"
Time :	"12:34:08 PM"
Samplename : 	""
SampMemo(0) : 	""
SampMemo(1) : 	""
SampMemo(2) : 	""
SampMemo(3) : 	""
SampMemo(4) : 	""
SampMemo(5) : 	""
SampMemo(6) : 	""
SampMemo(7) : 	""
SampMemo(8) : 	""
SampMemo(9) : 	""
Temperature [K] :	     298.16000
Viscosity [cp]  :	       0.89000
Refractive Index:	       1.33200
Wavelength [nm] :	       0.00000
Angle [°]       :	       0.00000
Duration [s]    :	         1
FloatDur [ms]   :	          944
Stop TP [ms]   :	      3430
Runs            :	         1
Mode            :	"A-CH0+1  A-CH2+3 "
MeanCR0 [kHz]   :	     114.09759
MeanCR1 [kHz]   :	     112.99663
MeanCR2 [kHz]   :	     109.72659
MeanCR3 [kHz]   :	     108.79198

"Correlation"
  3.12500E-006	 -1.00000E+000	 -1.00000E+000	 -1.00000E+000	 -1.00000E+000
  6.25000E-006	 -1.00000E+000	 -1.00000E+000	 -1.00000E+000	 -1.00000E+000
  9.37500E-006	 -1.00000E+000	 -1.00000E+000	 -1.00000E+000	 -1.00000E+000
  1.25000E-005	 -1.00000E+000	 -1.00000E+000	 -1.00000E+000	 -1.00000E+000
  1.56250E-005	 -1.00000E+000	 -1.00000E+000	 -1.00000E+000	 -1.00000E+000
  1.87500E-005	 -1.00000E+000	 -1.00000E+000	 -1.00000E+000	 -1.00000E+000
  2.18750E-005	 -9.21860E-001	 -4.68863E-001	 -1.42840E-002	 -9.42701E-001
  2.50000E-005	  6.26706E+000	  6.09068E+000	  5.90001E+000	  1.20354E+001
  2.81250E-005	  2.15166E+000	  1.62913E+000	  1.36572E+000	  4.90175E+000
  3.12500E-005	  1.16189E+000	  1.01832E+000	  8.02452E-001	  2.63846E+000
  3.43750E-005	  1.13584E+000	  1.01832E+000	  1.33756E+000	  2.32332E+000
  3.75000E-005	  8.23277E-001	  9.38650E-001	  6.61636E-001	  2.03682E+000
  4.06250E-005	  8.75370E-001	  5.93411E-001	  6.89799E-001	  1.95088E+000
  4.37500E-005	  6.14902E-001	  7.79309E-001	  9.71432E-001	  2.12277E+000
  4.68750E-005	  4.32575E-001	  8.05866E-001	  6.89799E-001	  1.17735E+000
  5.00000E-005	  6.40949E-001	  6.99638E-001	  8.86942E-001	  1.20599E+000
  5.62500E-005	  6.80019E-001	  3.01286E-001	  8.44697E-001	  1.29194E+000
  6.25000E-005	  7.84206E-001	  6.06689E-001	  5.06737E-001	  9.05177E-001
  6.87500E-005	  5.62809E-001	  3.67678E-001	  9.29187E-001	  1.00545E+000
  7.50000E-005	  2.89317E-001	  4.47348E-001	  6.75717E-001	  1.06275E+000
  8.12500E-005	  6.14902E-001	  4.47348E-001	  5.34901E-001	  4.89762E-001
  8.75000E-005	  6.93043E-001	  6.99638E-001	  7.32044E-001	  8.19229E-001
  9.37500E-005	  5.49785E-001	  1.95058E-001	  7.03880E-001	  6.18684E-001
  1.00000E-004	  4.32574E-001	  5.66854E-001	  5.27860E-001	  8.19229E-001
  1.12500E-004	  4.13039E-001	  4.67266E-001	  5.48982E-001	  5.54223E-001
  1.25000E-004	  6.14902E-001	  5.66854E-001	  6.96840E-001	  5.32736E-001
  1.37500E-004	  4.78156E-001	  4.40709E-001	  5.27860E-001	  4.96925E-001
  1.50000E-004	  3.60946E-001	  3.47760E-001	  4.36329E-001	  8.47878E-001
  1.62500E-004	  5.10715E-001	  6.26607E-001	  4.64492E-001	  7.33281E-001
  1.75000E-004	  4.32574E-001	  5.53575E-001	  3.94084E-001	  4.75438E-001
  1.87500E-004	  4.00016E-001	  5.73493E-001	  4.71533E-001	  4.39626E-001
  2.00000E-004	  4.84668E-001	  5.23699E-001	  4.99696E-001	  4.68275E-001
  2.25000E-004	  4.39086E-001	  3.94234E-001	  5.17298E-001	  4.39626E-001
  2.50000E-004	  4.58621E-001	  4.93822E-001	  4.53931E-001	  5.79291E-001
  2.75000E-004	  5.23738E-001	  5.27018E-001	  4.50410E-001	  4.39626E-001
  3.00000E-004	  3.90248E-001	  5.90091E-001	  4.71533E-001	  5.14830E-001
  3.25000E-004	  4.58621E-001	  5.76812E-001	  4.39849E-001	  4.43207E-001
  3.50000E-004	  4.39086E-001	  4.10832E-001	  5.52502E-001	  5.57804E-001
  3.75000E-004	  5.10714E-001	  5.20379E-001	  4.32808E-001	  4.89762E-001
  4.00000E-004	  5.72575E-001	  3.84275E-001	  5.20818E-001	  4.02023E-001
  4.50000E-004	  4.79783E-001	  4.67265E-001	  5.12017E-001	  4.98714E-001
  5.00000E-004	  4.99318E-001	  5.76812E-001	  4.71532E-001	  4.93343E-001
  5.50000E-004	  4.56992E-001	  4.77224E-001	  4.96175E-001	  4.55740E-001
  6.00000E-004	  4.66760E-001	  4.50667E-001	  4.46889E-001	  4.19929E-001
  6.50000E-004	  4.11410E-001	  4.47347E-001	  4.43369E-001	  4.50369E-001
  7.00000E-004	  4.71644E-001	  5.22038E-001	  5.96507E-001	  5.11248E-001
  7.50000E-004	  4.76527E-001	  3.75976E-001	  3.67680E-001	  5.43479E-001
  8.00000E-004	  4.86294E-001	  4.19959E-001	  4.60970E-001	  5.08561E-001
  9.00000E-004	  4.86294E-001	  4.76392E-001	  5.02334E-001	  4.79912E-001
  1.00000E-003	  4.59433E-001	  4.68093E-001	  5.55141E-001	  4.28881E-001
  1.10000E-003	  5.31062E-001	  4.06681E-001	  4.87373E-001	  5.48849E-001
  1.20000E-003	  4.84666E-001	  4.78052E-001	  4.91773E-001	  5.08561E-001
  1.30000E-003	  4.48038E-001	  4.63114E-001	  4.77692E-001	  4.88865E-001
  1.40000E-003	  5.41643E-001	  4.82202E-001	  4.87373E-001	  4.71854E-001
  1.50000E-003	  4.35014E-001	  5.31996E-001	  5.13776E-001	  4.54844E-001
  1.60000E-003	  4.39895E-001	  5.01702E-001	  4.99692E-001	  4.71404E-001
  1.80000E-003	  4.54140E-001	  4.71825E-001	  5.03652E-001	  5.09902E-001
  2.00000E-003	  5.04605E-001	  4.84274E-001	  4.82090E-001	  4.70509E-001
  2.20000E-003	  4.65128E-001	  4.97552E-001	  4.94411E-001	  5.15721E-001
  2.40000E-003	  4.92396E-001	  4.50248E-001	  5.23894E-001	  5.28255E-001
  2.60000E-003	  4.91989E-001	  5.31578E-001	  4.75489E-001	  5.23331E-001
  2.80000E-003	  4.81000E-001	  4.70581E-001	  5.32255E-001	  4.91996E-001
  3.00000E-003	  4.79373E-001	  4.97552E-001	  4.97491E-001	  5.13035E-001
  3.20000E-003	  4.71024E-001	  4.65804E-001	  5.17288E-001	  5.04749E-001
  3.60000E-003	  5.00937E-001	  4.73895E-001	  5.02327E-001	  4.98034E-001
  4.00000E-003	  4.59222E-001	  4.97755E-001	  4.79224E-001	  5.01615E-001
  4.40000E-003	  4.51693E-001	  4.58750E-001	  4.68883E-001	  4.85052E-001
  4.80000E-003	  4.58408E-001	  4.79704E-001	  4.81644E-001	  4.75428E-001
  5.20000E-003	  4.87100E-001	  4.89248E-001	  4.68443E-001	  4.65580E-001
  5.60000E-003	  4.39687E-001	  4.40699E-001	  4.55682E-001	  4.82814E-001
  6.00000E-003	  4.78554E-001	  4.72858E-001	  4.82745E-001	  4.64475E-001
  6.40000E-003	  4.73918E-001	  4.68712E-001	  4.75694E-001	  4.81587E-001
  7.20000E-003	  4.43509E-001	  4.75766E-001	  5.04957E-001	  4.83938E-001
  8.00000E-003	  4.40253E-001	  4.83858E-001	  5.13758E-001	  5.09453E-001
  8.80000E-003	  4.64469E-001	  4.89771E-001	  4.75694E-001	  5.10237E-001
  9.60000E-003	  4.64367E-001	  4.29499E-001	  4.79874E-001	  4.83057E-001
  1.04000E-002	  4.74949E-001	  4.63940E-001	  4.81854E-001	  4.90891E-001
  1.12000E-002	  4.68946E-001	  4.77011E-001	  4.73714E-001	  4.68172E-001
  1.20000E-002	  4.58466E-001	  4.84584E-001	  4.60072E-001	  4.73768E-001
  1.28000E-002	  4.40938E-001	  4.57699E-001	  4.82949E-001	  4.80687E-001
  1.44000E-002	  4.54329E-001	  4.67541E-001	  4.72663E-001	  4.85275E-001
  1.60000E-002	  4.48414E-001	  4.61316E-001	  4.56326E-001	  4.64236E-001
  1.76000E-002	  4.48973E-001	  4.65984E-001	  4.82069E-001	  4.71454E-001
  1.92000E-002	  4.19059E-001	  4.60538E-001	  4.83829E-001	  4.63117E-001
  2.08000E-002	  4.46735E-001	  4.43525E-001	  4.54841E-001	  4.60822E-001
  2.24000E-002	  4.47091E-001	  4.58308E-001	  4.58389E-001	  4.82589E-001
  2.40000E-002	  4.32846E-001	  4.68422E-001	  4.60329E-001	  4.62389E-001
  2.56000E-002	  4.34596E-001	  4.53152E-001	  4.61336E-001	  4.62966E-001
  2.88000E-002	  4.34138E-001	  4.44191E-001	  4.65269E-001	  4.63945E-001
  3.20000E-002	  4.39404E-001	  4.51685E-001	  4.42949E-001	  4.63945E-001
  3.52000E-002	  4.17017E-001	  4.39054E-001	  4.52865E-001	  4.68869E-001
  3.84000E-002	  4.09066E-001	  4.40196E-001	  4.67607E-001	  4.59665E-001
  4.16000E-002	  4.27228E-001	  4.41738E-001	  4.42881E-001	  4.50963E-001
  4.48000E-002	  4.20894E-001	  4.35462E-001	  4.54735E-001	  4.47270E-001
  4.80000E-002	  4.20283E-001	  4.25814E-001	  4.33021E-001	  4.54223E-001
  5.12000E-002	  4.10857E-001	  4.29360E-001	  4.38884E-001	  4.54803E-001
  5.76000E-002	  4.14024E-001	  4.24185E-001	  4.33906E-001	  4.46675E-001
  6.40000E-002	  4.06353E-001	  4.16637E-001	  4.31981E-001	  4.32812E-001
  7.04000E-002	  4.05309E-001	  4.06081E-001	  4.26329E-001	  4.22418E-001
  7.68000E-002	  4.02878E-001	  4.16144E-001	  4.20773E-001	  4.28027E-001
  8.32000E-002	  3.85437E-001	  4.02151E-001	  4.17843E-001	  4.22474E-001
  8.96000E-002	  3.88579E-001	  3.97560E-001	  4.12548E-001	  4.23117E-001
  9.60000E-002	  3.86237E-001	  3.97405E-001	  4.10581E-001	  4.14569E-001
  1.02400E-001	  3.81006E-001	  3.95804E-001	  4.08833E-001	  4.08670E-001
  1.15200E-001	  3.69628E-001	  3.85435E-001	  3.98649E-001	  4.04487E-001
  1.28000E-001	  3.59937E-001	  3.74975E-001	  3.87838E-001	  3.97016E-001
  1.40800E-001	  3.53829E-001	  3.72816E-001	  3.81010E-001	  3.94252E-001
  1.53600E-001	  3.47995E-001	  3.61650E-001	  3.70171E-001	  3.78948E-001
  1.66400E-001	  3.43014E-001	  3.54537E-001	  3.73464E-001	  3.68177E-001
  1.79200E-001	  3.33662E-001	  3.44869E-001	  3.62322E-001	  3.70935E-001
  1.92000E-001	  3.24520E-001	  3.39533E-001	  3.48404E-001	  3.58133E-001
  2.04800E-001	  3.14675E-001	  3.30623E-001	  3.45371E-001	  3.49077E-001
  2.30400E-001	  3.01356E-001	  3.16303E-001	  3.29160E-001	  3.37563E-001
  2.56000E-001	  2.86258E-001	  3.03993E-001	  3.13860E-001	  3.20153E-001
  2.81600E-001	  2.67525E-001	  2.89336E-001	  2.94999E-001	  3.06439E-001
  3.07200E-001	  2.58317E-001	  2.72666E-001	  2.88745E-001	  2.91091E-001
  3.32800E-001	  2.45776E-001	  2.57963E-001	  2.72237E-001	  2.76567E-001
  3.58400E-001	  2.28178E-001	  2.44150E-001	  2.62444E-001	  2.66496E-001
  3.84000E-001	  2.14353E-001	  2.29663E-001	  2.48341E-001	  2.57750E-001
  4.09600E-001	  2.07013E-001	  2.17995E-001	  2.37063E-001	  2.42972E-001
  4.60800E-001	  1.86990E-001	  1.96805E-001	  2.13117E-001	  2.13541E-001
  5.12000E-001	  1.65599E-001	  1.77736E-001	  1.96567E-001	  1.89923E-001
  5.63200E-001	  1.51339E-001	  1.58885E-001	  1.80267E-001	  1.75462E-001
  6.14400E-001	  1.35327E-001	  1.44844E-001	  1.65782E-001	  1.54755E-001
  6.65600E-001	  1.20375E-001	  1.32901E-001	  1.47581E-001	  1.41082E-001
  7.16800E-001	  1.08330E-001	  1.22597E-001	  1.36287E-001	  1.26805E-001
  7.68000E-001	  9.67819E-002	  1.12982E-001	  1.23520E-001	  1.11645E-001
  8.19200E-001	  8.42370E-002	  1.04559E-001	  1.12013E-001	  1.00030E-001
  9.21600E-001	  6.82131E-002	  8.54129E-002	  9.07571E-002	  7.80160E-002
  1.02400E+000	  5.10122E-002	  6.81836E-002	  7.71302E-002	  5.91612E-002
  1.12640E+000	  4.06826E-002	  5.27977E-002	  6.58717E-002	  4.90493E-002
  1.22880E+000	  2.97045E-002	  4.35272E-002	  5.41385E-002	  4.30575E-002
  1.33120E+000	  2.26623E-002	  3.56305E-002	  4.44953E-002	  3.83875E-002
  1.43360E+000	  1.22187E-002	  2.71437E-002	  3.84712E-002	  3.15110E-002
  1.53600E+000	  8.56619E-003	  1.93827E-002	  3.46000E-002	  2.90099E-002
  1.63840E+000	  6.56844E-003	  1.00161E-002	  3.12551E-002	  2.54807E-002
  1.84320E+000	  5.28779E-003	 -2.52111E-003	  2.57084E-002	  1.72438E-002
  2.04800E+000	  4.65648E-003	 -5.99225E-003	  1.95183E-002	  7.96355E-003
  2.25280E+000	  4.00434E-003	  5.41392E-003	  1.06435E-002	  5.10398E-003
  2.45760E+000	  3.66650E-003	  6.89342E-003	  2.66852E-003	 -2.02423E-003
  2.66240E+000	  6.29476E-003	  4.05939E-003	 -3.84081E-005	 -8.26712E-003
  2.86720E+000	  4.41412E-003	 -4.27631E-003	  7.38602E-003	 -8.11624E-003
  3.07200E+000	  3.16373E-003	 -1.04493E-002	  4.71089E-003	 -6.19453E-003
  3.27680E+000	  6.12985E-003	 -1.29082E-002	  4.54689E-004	 -3.85646E-003
  3.68640E+000	  1.51077E-002	 -1.44033E-002	 -6.79861E-003	 -1.81418E-003
  4.09600E+000	  1.38655E-002	 -1.17175E-002	 -1.06062E-002	  1.26127E-003
  4.50560E+000	  8.13609E-003	 -1.48495E-002	  6.33674E-003	  5.27215E-003
  4.91520E+000	 -2.72559E-003	 -6.73328E-003	  2.34429E-002	  2.33106E-003
  5.32480E+000	 -5.67337E-003	 -2.84925E-003	  2.64297E-002	  4.13358E-003
  5.73440E+000	 -8.75796E-003	 -5.68616E-003	  2.50495E-002	 -4.88623E-003
  6.14400E+000	 -3.79007E-004	 -1.26209E-002	  1.95164E-002	 -3.71257E-003
  6.55360E+000	  5.44121E-003	 -2.11979E-002	  1.21229E-002	  2.68148E-003
  7.37280E+000	  1.16558E-002	 -2.55158E-002	  5.96403E-003	 -5.91848E-003
  8.19200E+000	  1.15814E-002	 -6.54014E-003	 -3.45119E-003	 -2.48009E-002
  9.01120E+000	  7.36943E-003	 -1.07120E-003	 -1.27055E-002	 -1.91405E-002
  9.83040E+000	 -2.52244E-003	 -9.23034E-003	 -2.06891E-002	 -1.60864E-002
  1.06496E+001	  1.07803E-002	 -2.10223E-002	 -1.19033E-002	 -6.75762E-004
  1.14688E+001	  1.35512E-002	 -5.28116E-003	 -9.18797E-003	  1.47409E-002
  1.22880E+001	  5.18859E-003	 -7.69779E-003	  6.07847E-004	  5.58628E-003
  1.31072E+001	  8.72539E-004	  8.56631E-004	  8.82860E-004	 -4.11471E-003
  1.47456E+001	  8.58773E-003	  4.17113E-003	 -7.70301E-003	 -1.24411E-002
  1.63840E+001	 -9.19609E-004	 -1.42603E-002	 -4.14020E-003	 -1.15018E-002
  1.80224E+001	  6.68034E-003	 -1.54369E-003	 -5.97353E-003	  1.39623E-003
  1.96608E+001	  1.21262E-003	 -1.51977E-002	 -9.87558E-003	 -8.40050E-003
  2.12992E+001	  3.63388E-003	 -1.24280E-002	 -1.41002E-002	 -1.42001E-002
  2.29376E+001	  1.19147E-002	 -1.60898E-002	 -5.96550E-003	  5.77074E-003
  2.45760E+001	 -1.03764E-002	 -2.40639E-004	  8.56418E-003	  7.75191E-003
  2.62144E+001	 -8.32433E-003	  5.27956E-003	  4.73661E-003	 -7.87094E-003
  2.94912E+001	  7.63738E-003	  3.16760E-003	  9.04118E-003	  4.49075E-003
  3.27680E+001	 -6.18502E-003	  2.44505E-003	  1.79307E-002	  4.45241E-003
  3.60448E+001	 -1.19133E-002	 -1.17132E-002	 -2.69565E-003	  2.81835E-003
  3.93216E+001	 -5.36773E-003	 -1.37995E-002	 -2.01913E-003	 -4.26527E-003
  4.25984E+001	 -7.96947E-003	 -1.71887E-004	 -8.46791E-003	  1.64503E-003
  4.58752E+001	 -1.22078E-002	 -2.55639E-003	  9.57739E-003	  2.44241E-003
  4.91520E+001	 -3.52853E-003	  1.28475E-004	 -2.35881E-003	 -2.88470E-003
  5.24288E+001	  2.29994E-003	 -1.20016E-003	 -8.35728E-003	 -6.06742E-003
  5.89824E+001	 -1.42439E-003	  1.20704E-002	  4.56037E-003	 -4.93245E-003
  6.55360E+001	  1.38366E-003	 -7.04634E-003	  5.44751E-003	 -5.83533E-003
  7.20896E+001	  1.25217E-002	  1.32279E-003	 -9.81489E-003	 -3.86255E-003
  7.86432E+001	  5.47170E-003	  8.10802E-003	 -9.04147E-003	  5.15057E-003
  8.51968E+001	  2.85445E-003	  5.58277E-003	  3.21101E-004	  1.42881E-002
  9.17504E+001	  1.00652E-002	 -9.52118E-003	  5.03403E-003	 -9.51551E-003
  9.83040E+001	  1.45459E-003	 -3.90252E-003	 -1.33001E-002	  3.63438E-003
  1.04858E+002	  4.87795E-003	 -2.19865E-003	 -3.10335E-003	  1.44843E-003
  1.17965E+002	  1.43002E-003	  2.74697E-004	 -6.66940E-003	  1.35769E-002
  1.31072E+002	  6.06323E-004	 -5.72966E-003	  3.13025E-003	 -1.31329E-002
  1.44179E+002	  6.18786E-003	  6.83443E-004	 -1.11033E-002	  3.27314E-003
  1.57286E+002	 -2.20533E-003	  1.05691E-002	  2.11157E-003	  2.41813E-003
  1.70394E+002	 -4.60234E-003	  2.93996E-004	 -7.44935E-004	 -7.53833E-003
  1.83501E+002	 -6.68126E-003	 -8.80305E-003	 -8.25636E-003	 -4.03069E-003
  1.96608E+002	  9.00014E-003	  2.59329E-004	  1.33275E-002	  6.19957E-003
  2.09715E+002	  2.68334E-003	 -3.07371E-003	  7.60483E-003	 -2.16687E-003
  2.35930E+002	 -3.76484E-003	  1.50988E-005	 -1.22329E-004	  4.40391E-003
  2.62144E+002	  4.39376E-003	  3.24779E-003	  2.46370E-003	 -4.75831E-003
  2.88358E+002	  2.45288E-003	 -6.55958E-003	  3.83775E-003	 -1.19204E-002
  3.14573E+002	 -3.40802E-003	  5.14091E-003	 -1.98555E-003	 -7.72486E-004
  3.40787E+002	  3.19155E-003	 -1.23264E-003	  1.76651E-003	  7.09294E-003
  3.67002E+002	 -2.73895E-003	 -2.28898E-003	 -1.26500E-003	 -9.70303E-003
  3.93216E+002	  2.11594E-003	  2.01672E-003	 -1.41333E-003	  3.54385E-003

"Count Rate"
       0.01311	      94.68079	      92.54456	     134.88770	     126.11389
       0.02621	      90.02686	     117.03491	      76.90430	     105.74341
       0.03932	     106.65894	     106.81152	      71.56372	     134.50623
       0.05243	     139.16016	     113.67798	     105.74341	      69.65637
       0.06554	     131.91223	     101.16577	      97.80884	     129.24194
       0.07864	     147.09473	     103.53088	     176.92566	     103.68347
       0.09175	     109.25293	     112.68616	     102.15759	      94.45190
       0.10486	      89.87427	     106.81152	     116.88232	      74.00513
       0.11796	      76.75171	     124.05396	     115.05127	     105.81970
       0.13107	      98.03772	      94.29932	      94.60449	      97.04590
       0.14418	     113.22021	     130.15747	     126.49536	      88.19580
       0.15729	     121.76514	     104.75159	     108.87146	     133.36182
       0.17039	     149.68872	     115.73792	      95.67261	      89.49280
       0.18350	      91.01868	      92.62085	      89.41650	      90.02686
       0.19661	      88.04321	      92.62085	      89.49280	     105.66711
       0.20972	      97.96143	     107.26929	      94.37561	     112.91504
       0.22282	     100.78430	     130.08118	      80.10864	     109.48181
       0.23593	      84.60999	     109.86328	     121.53625	      94.75708
       0.24904	     106.43005	     116.88232	     116.50085	     111.92322
       0.26214	      98.95325	      81.71082	      99.10583	     143.35632
       0.27525	     140.22827	     123.74878	     136.71875	      96.74072
       0.28836	     106.73523	     140.83862	      94.52820	      92.54456
       0.30147	     116.65344	     111.77063	      99.94507	     118.02673
       0.31457	     103.75977	      98.72437	     105.89600	     117.64526
       0.32768	     107.57446	     116.42456	     108.87146	      93.99414
       0.34079	      96.96960	      91.70532	     102.00500	      84.76257
       0.35389	     107.42188	     100.63171	      91.40015	     111.54175
       0.36700	     122.90955	     121.38367	      73.92883	      86.89880
       0.38011	     132.29370	      99.25842	      91.40015	      99.18213
       0.39322	     103.30200	     123.51990	     117.72156	      87.35657
       0.40632	      62.17957	      75.60730	     109.17664	     108.56628
       0.41943	     108.26111	     116.80603	     105.36194	      83.46558
       0.43254	     121.61255	     139.69421	     143.20374	     145.72144
       0.44564	     116.11938	     110.54993	     118.86597	     114.36462
       0.45875	      67.44385	     144.19556	     117.79785	     108.79517
       0.47186	     106.96411	     104.06494	     124.28284	     164.56604
       0.48497	     110.16846	      95.67261	      96.28296	      74.08142
       0.49807	      93.84155	     105.13306	     109.48181	     112.22839
       0.51118	     133.89587	     119.78149	     113.60168	      97.27478
       0.52429	      98.26660	      91.55273	     178.14636	     102.46277
       0.53740	      98.57178	     170.66956	      94.07043	      96.96960
       0.55050	      96.51184	      97.73254	     105.66711	     180.43518
       0.56361	     132.44629	      65.30762	     137.86316	      99.25842
       0.57672	     149.68872	     102.92053	      98.49548	      96.35925
       0.58982	     146.56067	     142.36450	      99.56360	     130.92041
       0.60293	      96.74072	      95.67261	      74.69177	     105.81970
       0.61604	     112.38098	     137.71057	     110.16846	     105.74341
       0.62915	      91.01868	     130.31006	      95.21484	     106.65894
       0.64225	     141.14380	     106.81152	      94.98596	     107.19299
       0.65536	     116.50085	     101.31836	     126.19019	     111.69434
       0.66847	     128.32642	     128.55530	     102.00500	     128.02124
       0.68157	     124.13025	     104.67529	     109.17664	      95.29114
       0.69468	     132.59888	     130.38635	      94.52820	     117.41638
       0.70779	      99.63989	     115.73792	      79.72717	     125.65613
       0.72090	     135.19287	      65.23132	     160.52246	      81.32935
       0.73400	     137.63428	     140.60974	     142.13562	      87.05139
       0.74711	     102.23389	     155.25818	      78.73535	     107.04041
