ALV-7004/USB-FAST
Date :	"3/14/2024"
Time :	"12:36:09 PM"
Samplename : 	""
SampMemo(0) : 	""
SampMemo(1) : 	""
SampMemo(2) : 	""
SampMemo(3) : 	""
SampMemo(4) : 	""
SampMemo(5) : 	""
SampMemo(6) : 	""
SampMemo(7) : 	""
SampMemo(8) : 	""
SampMemo(9) : 	""
Temperature [K] :	     298.16000
Viscosity [cp]  :	       0.89000
Refractive Index:	       1.33200
Wavelength [nm] :	       0.00000
Angle [°]       :	       0.00000
Duration [s]    :	         1
FloatDur [ms]   :	          944
Stop TP [ms]   :	      3953
Runs            :	         1
Mode            :	"A-CH0+1  A-CH2+3 "
MeanCR0 [kHz]   :	     135.36666
MeanCR1 [kHz]   :	     121.80434
MeanCR2 [kHz]   :	     123.58984
MeanCR3 [kHz]   :	     129.70713

"Correlation"
  3.12500E-006	 -1.00000E+000	 -1.00000E+000	 -1.00000E+000	 -1.00000E+000
  6.25000E-006	 -1.00000E+000	 -1.00000E+000	 -1.00000E+000	 -1.00000E+000
  9.37500E-006	 -1.00000E+000	 -1.00000E+000	 -1.00000E+000	 -1.00000E+000
  1.25000E-005	 -1.00000E+000	 -1.00000E+000	 -1.00000E+000	 -1.00000E+000
  1.56250E-005	 -1.00000E+000	 -1.00000E+000	 -1.00000E+000	 -1.00000E+000
  1.87500E-005	 -1.00000E+000	 -1.00000E+000	 -1.00000E+000	 -1.00000E+000
  2.18750E-005	 -9.25981E-001	 -3.37204E-001	 -6.76235E-002	 -8.99226E-001
  2.50000E-005	  5.66172E+000	  6.10792E+000	  5.54884E+000	  1.06898E+001
  2.81250E-005	  1.77572E+000	  1.49120E+000	  1.57514E+000	  4.44181E+000
  3.12500E-005	  7.02441E-001	  8.28403E-001	  9.31351E-001	  2.28524E+000
  3.43750E-005	  5.54402E-001	  7.82693E-001	  4.65163E-001	  2.62788E+000
  3.75000E-005	  7.94965E-001	  1.05695E+000	  6.42759E-001	  1.39843E+000
  4.06250E-005	  7.39450E-001	  5.76998E-001	  9.09152E-001	  1.68060E+000
  4.37500E-005	  7.94965E-001	  4.39867E-001	  8.86952E-001	  1.53951E+000
  4.68750E-005	  5.91412E-001	  2.57027E-001	  6.87158E-001	  1.03564E+000
  5.00000E-005	  5.45150E-001	  6.34135E-001	  5.20662E-001	  1.42866E+000
  5.62500E-005	  4.71131E-001	  5.88425E-001	  5.31761E-001	  9.14712E-001
  6.25000E-005	  7.57955E-001	  7.14128E-001	  5.98360E-001	  1.10618E+000
  6.87500E-005	  5.08140E-001	  6.68418E-001	  2.76468E-001	  1.13642E+000
  7.50000E-005	  5.08140E-001	  5.42715E-001	  5.20662E-001	  5.72079E-001
  8.12500E-005	  4.89635E-001	  6.68418E-001	  5.20662E-001	  8.34092E-001
  8.75000E-005	  3.41597E-001	  5.08433E-001	  5.31761E-001	  7.23241E-001
  9.37500E-005	  3.97112E-001	  4.97005E-001	  5.09562E-001	  6.22466E-001
  1.00000E-004	  4.24869E-001	  5.14146E-001	  7.31556E-001	  5.87195E-001
  1.12500E-004	  5.82159E-001	  5.59856E-001	  4.98462E-001	  5.51924E-001
  1.25000E-004	  6.00664E-001	  5.37001E-001	  7.48206E-001	  5.97273E-001
  1.37500E-004	  6.33047E-001	  3.88443E-001	  5.87260E-001	  5.46886E-001
  1.50000E-004	  5.26645E-001	  6.39849E-001	  4.26314E-001	  5.46886E-001
  1.62500E-004	  7.81086E-001	  3.54161E-001	  3.76365E-001	  5.82157E-001
  1.75000E-004	  4.75757E-001	  4.68436E-001	  3.98565E-001	  6.98047E-001
  1.87500E-004	  5.82159E-001	  4.97005E-001	  5.20661E-001	  6.02311E-001
  2.00000E-004	  5.45149E-001	  5.45572E-001	  5.40086E-001	  6.24985E-001
  2.25000E-004	  5.35897E-001	  4.68436E-001	  5.20661E-001	  5.14134E-001
  2.50000E-004	  4.43373E-001	  4.97005E-001	  5.37311E-001	  5.11614E-001
  2.75000E-004	  5.77533E-001	  4.54151E-001	  4.56838E-001	  4.91459E-001
  3.00000E-004	  4.50312E-001	  5.45572E-001	  4.42963E-001	  5.24211E-001
  3.25000E-004	  5.79846E-001	  5.56999E-001	  4.40188E-001	  5.46885E-001
  3.50000E-004	  3.36971E-001	  5.39858E-001	  5.42861E-001	  5.04056E-001
  3.75000E-004	  4.64191E-001	  5.11289E-001	  3.87465E-001	  5.79637E-001
  4.00000E-004	  5.31270E-001	  5.32715E-001	  4.61000E-001	  4.86420E-001
  4.50000E-004	  5.20861E-001	  4.24154E-001	  4.61000E-001	  5.40586E-001
  5.00000E-004	  4.82695E-001	  4.82720E-001	  4.76262E-001	  5.02796E-001
  5.50000E-004	  4.68817E-001	  4.52722E-001	  4.73487E-001	  5.10354E-001
  6.00000E-004	  4.56095E-001	  5.11288E-001	  4.85974E-001	  4.12099E-001
  6.50000E-004	  5.57871E-001	  4.71292E-001	  4.41575E-001	  5.14133E-001
  7.00000E-004	  5.00043E-001	  4.85576E-001	  5.23435E-001	  5.39326E-001
  7.50000E-004	  4.29494E-001	  4.25582E-001	  4.42963E-001	  4.82641E-001
  8.00000E-004	  4.31806E-001	  4.03440E-001	  4.62386E-001	  4.67524E-001
  9.00000E-004	  4.84429E-001	  4.49163E-001	  4.97072E-001	  5.01535E-001
  1.00000E-003	  5.04668E-001	  3.89882E-001	  4.86666E-001	  4.76341E-001
  1.10000E-003	  4.51467E-001	  4.64876E-001	  4.76954E-001	  5.16651E-001
  1.20000E-003	  4.82116E-001	  4.80588E-001	  4.63773E-001	  4.70673E-001
  1.30000E-003	  5.12186E-001	  4.60590E-001	  4.40186E-001	  4.44849E-001
  1.40000E-003	  4.90790E-001	  3.98453E-001	  4.72098E-001	  4.80750E-001
  1.50000E-003	  4.88477E-001	  4.86302E-001	  4.09662E-001	  4.92717E-001
  1.60000E-003	  4.78944E-001	  4.35590E-001	  4.64118E-001	  4.68151E-001
  1.80000E-003	  4.69981E-001	  4.30233E-001	  4.17638E-001	  4.96179E-001
  2.00000E-003	  4.73740E-001	  4.30233E-001	  4.70708E-001	  4.70040E-001
  2.20000E-003	  4.94269E-001	  4.12735E-001	  4.77298E-001	  4.63427E-001
  2.40000E-003	  4.44826E-001	  5.00584E-001	  4.65505E-001	  4.42013E-001
  2.60000E-003	  4.67379E-001	  4.62730E-001	  4.74870E-001	  4.54295E-001
  2.80000E-003	  4.66222E-001	  4.53445E-001	  4.84236E-001	  4.88936E-001
  3.00000E-003	  4.56391E-001	  4.67373E-001	  4.76258E-001	  4.77913E-001
  3.20000E-003	  4.75770E-001	  4.40585E-001	  4.79201E-001	  4.59498E-001
  3.60000E-003	  4.84734E-001	  4.60404E-001	  4.90127E-001	  4.67686E-001
  4.00000E-003	  4.81397E-001	  4.18087E-001	  4.43648E-001	  4.78393E-001
  4.40000E-003	  4.66506E-001	  4.53619E-001	  4.33242E-001	  4.57766E-001
  4.80000E-003	  4.72289E-001	  4.54333E-001	  4.77293E-001	  4.71465E-001
  5.20000E-003	  4.59133E-001	  4.82009E-001	  4.49544E-001	  4.71150E-001
  5.60000E-003	  4.50748E-001	  4.14337E-001	  4.72437E-001	  4.71307E-001
  6.00000E-003	  4.76927E-001	  4.53798E-001	  4.67581E-001	  4.54774E-001
  6.40000E-003	  4.67976E-001	  4.47665E-001	  4.65924E-001	  4.76857E-001
  7.20000E-003	  4.78530E-001	  4.51504E-001	  4.70867E-001	  4.49773E-001
  8.00000E-003	  4.58507E-001	  4.34988E-001	  4.74595E-001	  4.58118E-001
  8.80000E-003	  4.54387E-001	  4.31952E-001	  4.61588E-001	  4.55926E-001
  9.60000E-003	  4.74265E-001	  4.43648E-001	  4.62034E-001	  4.71030E-001
  1.04000E-002	  4.56688E-001	  4.36327E-001	  4.73914E-001	  4.53564E-001
  1.12000E-002	  4.58857E-001	  4.23649E-001	  4.64202E-001	  4.61988E-001
  1.20000E-002	  4.63339E-001	  4.35434E-001	  4.73914E-001	  4.74270E-001
  1.28000E-002	  4.59908E-001	  4.24662E-001	  4.63228E-001	  4.69035E-001
  1.44000E-002	  4.46716E-001	  4.33354E-001	  4.54817E-001	  4.51478E-001
  1.60000E-002	  4.44909E-001	  4.19146E-001	  4.60119E-001	  4.46730E-001
  1.76000E-002	  4.55643E-001	  4.15039E-001	  4.58948E-001	  4.46572E-001
  1.92000E-002	  4.60186E-001	  4.33999E-001	  4.46399E-001	  4.45470E-001
  2.08000E-002	  4.42946E-001	  4.31945E-001	  4.52079E-001	  4.51414E-001
  2.24000E-002	  4.35971E-001	  4.21500E-001	  4.39635E-001	  4.44525E-001
  2.40000E-002	  4.42874E-001	  4.30472E-001	  4.40112E-001	  4.42911E-001
  2.56000E-002	  4.37194E-001	  4.18894E-001	  4.37822E-001	  4.38486E-001
  2.88000E-002	  4.34700E-001	  4.18113E-001	  4.31426E-001	  4.32218E-001
  3.20000E-002	  4.34122E-001	  4.11952E-001	  4.28806E-001	  4.34640E-001
  3.52000E-002	  4.28177E-001	  4.11617E-001	  4.20611E-001	  4.36136E-001
  3.84000E-002	  4.21454E-001	  3.94150E-001	  4.19670E-001	  4.17750E-001
  4.16000E-002	  4.20027E-001	  3.99237E-001	  4.20363E-001	  4.20238E-001
  4.48000E-002	  4.16365E-001	  3.89962E-001	  4.11778E-001	  4.19498E-001
  4.80000E-002	  4.15263E-001	  3.84605E-001	  4.13404E-001	  4.01566E-001
  5.12000E-002	  4.09967E-001	  3.85894E-001	  4.09300E-001	  4.02586E-001
  5.76000E-002	  4.01943E-001	  3.79520E-001	  3.95404E-001	  4.01080E-001
  6.40000E-002	  3.89184E-001	  3.67769E-001	  3.89496E-001	  3.81510E-001
  7.04000E-002	  3.85669E-001	  3.62165E-001	  3.82982E-001	  3.78643E-001
  7.68000E-002	  3.81675E-001	  3.53213E-001	  3.77788E-001	  3.76427E-001
  8.32000E-002	  3.69767E-001	  3.41104E-001	  3.74830E-001	  3.68071E-001
  8.96000E-002	  3.60785E-001	  3.43470E-001	  3.62376E-001	  3.61073E-001
  9.60000E-002	  3.55245E-001	  3.33157E-001	  3.52501E-001	  3.45980E-001
  1.02400E-001	  3.55306E-001	  3.23586E-001	  3.40446E-001	  3.38536E-001
  1.15200E-001	  3.44668E-001	  3.08668E-001	  3.36224E-001	  3.25486E-001
  1.28000E-001	  3.26968E-001	  2.98768E-001	  3.16876E-001	  3.16667E-001
  1.40800E-001	  3.11920E-001	  2.82907E-001	  3.02703E-001	  3.04747E-001
  1.53600E-001	  2.99629E-001	  2.69201E-001	  2.88931E-001	  2.88400E-001
  1.66400E-001	  2.89779E-001	  2.57514E-001	  2.77570E-001	  2.83413E-001
  1.79200E-001	  2.79267E-001	  2.47525E-001	  2.72741E-001	  2.73740E-001
  1.92000E-001	  2.66876E-001	  2.36056E-001	  2.58173E-001	  2.58567E-001
  2.04800E-001	  2.55398E-001	  2.26595E-001	  2.47751E-001	  2.53045E-001
  2.30400E-001	  2.39573E-001	  2.06476E-001	  2.31995E-001	  2.33988E-001
  2.56000E-001	  2.22784E-001	  1.97318E-001	  2.10307E-001	  2.15734E-001
  2.81600E-001	  2.06982E-001	  1.81060E-001	  1.94556E-001	  2.00001E-001
  3.07200E-001	  1.92284E-001	  1.68693E-001	  1.83146E-001	  1.83290E-001
  3.32800E-001	  1.82799E-001	  1.59050E-001	  1.69663E-001	  1.72533E-001
  3.58400E-001	  1.69681E-001	  1.46663E-001	  1.55532E-001	  1.57495E-001
  3.84000E-001	  1.60224E-001	  1.36616E-001	  1.46676E-001	  1.53039E-001
  4.09600E-001	  1.49707E-001	  1.27931E-001	  1.36494E-001	  1.39689E-001
  4.60800E-001	  1.29916E-001	  1.16666E-001	  1.16131E-001	  1.23665E-001
  5.12000E-001	  1.10625E-001	  1.06304E-001	  1.04704E-001	  1.11654E-001
  5.63200E-001	  9.27107E-002	  9.68606E-002	  9.44739E-002	  1.00570E-001
  6.14400E-001	  8.58872E-002	  8.78538E-002	  8.45030E-002	  8.82219E-002
  6.65600E-001	  7.53868E-002	  7.95465E-002	  7.78602E-002	  7.83365E-002
  7.16800E-001	  7.10281E-002	  7.25392E-002	  7.01355E-002	  6.92469E-002
  7.68000E-001	  6.51324E-002	  6.30521E-002	  6.63390E-002	  6.20304E-002
  8.19200E-001	  5.85105E-002	  6.10158E-002	  6.14778E-002	  5.81329E-002
  9.21600E-001	  4.73251E-002	  4.85841E-002	  5.41846E-002	  5.63547E-002
  1.02400E+000	  3.81853E-002	  3.65099E-002	  4.75438E-002	  4.99382E-002
  1.12640E+000	  3.46592E-002	  2.53337E-002	  3.83975E-002	  4.33701E-002
  1.22880E+000	  3.28742E-002	  2.08227E-002	  3.53918E-002	  3.12972E-002
  1.33120E+000	  3.65856E-002	  1.64366E-002	  3.31044E-002	  2.10148E-002
  1.43360E+000	  3.88413E-002	  1.36507E-002	  2.88040E-002	  1.53632E-002
  1.53600E+000	  3.69548E-002	  1.41286E-002	  2.55033E-002	  1.27740E-002
  1.63840E+000	  3.75414E-002	  1.83753E-002	  2.17463E-002	  1.24854E-002
  1.84320E+000	  4.28885E-002	  2.41821E-002	  1.25532E-002	  1.54839E-002
  2.04800E+000	  3.78353E-002	  2.36631E-002	  1.33576E-002	  7.17849E-003
  2.25280E+000	  2.66847E-002	  1.93202E-002	  1.67667E-002	  2.77867E-003
  2.45760E+000	  1.47723E-002	  2.08246E-002	  1.97463E-002	  2.72519E-004
  2.66240E+000	  9.17840E-003	  2.03578E-002	  2.04961E-002	  4.61348E-003
  2.86720E+000	  9.43964E-003	  2.20913E-002	  2.03227E-002	  7.67225E-003
  3.07200E+000	  2.57987E-003	  1.54996E-002	  2.06161E-002	  4.73929E-003
  3.27680E+000	  5.47621E-003	  1.43704E-002	  2.40092E-002	  2.54105E-003
  3.68640E+000	  1.14714E-002	  1.18526E-002	  1.73353E-002	  1.49493E-003
  4.09600E+000	  1.41506E-002	  2.36394E-002	  1.79903E-002	  1.05637E-002
  4.50560E+000	  5.71379E-003	  2.38861E-002	  1.10955E-002	  6.50418E-003
  4.91520E+000	  3.18366E-003	  2.21778E-002	  9.56824E-003	  9.16562E-003
  5.32480E+000	  6.34449E-003	  1.77054E-002	  2.04534E-003	  6.08559E-003
  5.73440E+000	  4.90198E-003	  1.13589E-002	 -3.78082E-003	  4.14029E-003
  6.14400E+000	 -2.95838E-003	  9.44939E-004	 -7.49254E-003	  8.62917E-003
  6.55360E+000	  5.89950E-003	 -8.64728E-003	 -1.91793E-003	  8.59791E-003
  7.37280E+000	  1.68902E-002	  3.45143E-003	 -6.50372E-003	  7.06445E-003
  8.19200E+000	  1.89507E-002	  8.58972E-003	 -1.51761E-002	  2.83320E-003
  9.01120E+000	  1.11124E-002	 -1.21959E-002	 -1.75811E-002	 -3.22469E-003
  9.83040E+000	  8.28673E-003	 -1.35299E-002	 -1.57073E-002	  3.36386E-003
  1.06496E+001	  1.53732E-003	 -1.05983E-002	 -2.59396E-003	  3.76583E-003
  1.14688E+001	 -6.91672E-003	 -8.58990E-003	 -5.26266E-003	 -8.48263E-003
  1.22880E+001	 -1.03017E-003	 -4.85734E-003	 -6.89780E-003	 -3.82470E-003
  1.31072E+001	  2.39789E-004	 -4.79657E-003	 -2.10254E-003	  4.32328E-003
  1.47456E+001	  2.14076E-003	 -6.16761E-003	 -7.49241E-003	  7.58748E-003
  1.63840E+001	  4.99658E-003	 -1.29853E-003	 -1.00765E-003	 -8.10420E-003
  1.80224E+001	  1.31990E-002	  7.10982E-003	 -7.31697E-003	 -1.61009E-002
  1.96608E+001	  5.82659E-003	  1.20294E-002	 -7.07768E-003	  9.12653E-003
  2.12992E+001	 -5.69035E-003	  1.32291E-002	 -2.25141E-003	  2.70670E-005
  2.29376E+001	 -9.28856E-003	  5.51477E-003	  8.91740E-004	  1.66436E-002
  2.45760E+001	 -8.31901E-005	  1.21054E-002	  5.46761E-003	  6.98256E-003
  2.62144E+001	 -1.31278E-003	  1.07567E-002	 -3.81240E-003	 -2.01398E-003
  2.94912E+001	 -5.98715E-003	  9.79365E-003	  6.59468E-004	  6.67620E-003
  3.27680E+001	  1.63787E-003	 -3.29191E-003	  5.17898E-003	 -3.85245E-003
  3.60448E+001	  2.74061E-003	 -8.71172E-003	  1.58019E-002	  8.26512E-003
  3.93216E+001	  2.04629E-003	 -1.22196E-002	  7.66863E-003	  1.30370E-003
  4.25984E+001	  5.85370E-004	  1.86861E-003	 -1.21264E-003	 -3.17794E-003
  4.58752E+001	  4.68855E-003	  9.29908E-003	 -1.32974E-003	 -1.36297E-003
  4.91520E+001	  1.83733E-003	  2.00136E-003	 -1.65276E-003	  2.27464E-003
  5.24288E+001	  7.32404E-003	  4.76167E-003	 -2.70189E-003	 -1.97872E-003
  5.89824E+001	 -5.53168E-003	 -3.70751E-003	  6.15739E-003	  4.14900E-003
  6.55360E+001	 -1.31664E-003	  7.48551E-003	 -2.30747E-003	  1.45665E-003
  7.20896E+001	  5.08746E-003	  1.27822E-002	  6.67448E-003	 -9.22937E-004
  7.86432E+001	 -1.79924E-003	  6.79758E-004	  9.99462E-003	 -7.92596E-003
  8.51968E+001	  8.88391E-004	  7.30070E-004	 -9.01068E-003	  2.48300E-004
  9.17504E+001	  5.03970E-003	  1.47129E-002	  4.16994E-003	  5.80702E-003
  9.83040E+001	 -1.16160E-003	  1.12962E-002	  6.15215E-003	 -5.27096E-004
  1.04858E+002	 -1.85483E-003	  2.74416E-003	 -1.39614E-003	 -2.66286E-004
  1.17965E+002	  2.29255E-003	  5.03336E-003	 -1.26848E-003	  1.61189E-004
  1.31072E+002	 -2.34671E-003	 -1.94932E-003	  1.60118E-002	  4.37098E-004
  1.44179E+002	  5.78953E-003	 -9.79735E-003	 -7.42546E-003	 -7.17737E-003
  1.57286E+002	 -1.85229E-003	 -2.63716E-003	 -2.66326E-003	 -2.18361E-003
  1.70394E+002	  8.82179E-004	  8.65969E-004	  5.56533E-003	 -8.10169E-003
  1.83501E+002	  9.60787E-005	  5.01982E-005	  6.98027E-004	  2.06242E-003
  1.96608E+002	 -2.34649E-006	 -9.26374E-004	  1.94394E-003	 -7.10664E-003
  2.09715E+002	 -6.61664E-003	 -5.95503E-004	  5.06485E-003	  2.35991E-003
  2.35930E+002	 -4.19681E-004	 -3.75695E-003	 -4.76699E-003	 -3.93491E-003
  2.62144E+002	  2.73812E-003	 -1.41316E-003	  1.87455E-003	 -1.67974E-003
  2.88358E+002	  1.90644E-003	 -3.11743E-003	  7.45022E-004	  1.96807E-003
  3.14573E+002	 -9.67696E-004	 -1.46985E-003	  8.59353E-004	  8.25066E-004
  3.40787E+002	 -6.51234E-003	  4.30879E-003	 -1.16467E-003	  5.39341E-003
  3.67002E+002	  3.89893E-004	 -5.38972E-003	 -7.02041E-005	  3.63734E-003
  3.93216E+002	 -3.93933E-003	  9.26664E-004	 -8.20037E-004	  8.77304E-003

"Count Rate"
       0.01311	     167.23633	     135.42175	     171.58508	     119.01855
       0.02621	     165.71045	     132.14111	      89.11133	     142.13562
       0.03932	     123.36731	     112.60986	     110.01587	     104.67529
       0.05243	     101.77612	     112.15210	     127.56348	     149.61243
       0.06554	     106.27747	     121.99402	     110.47363	     169.14368
       0.07864	     111.23657	     169.21997	     120.39185	     120.39185
       0.09175	     110.24475	     107.65076	     121.99402	     172.34802
       0.10486	     144.27185	     163.04016	     159.53064	     171.12732
       0.11796	     115.28015	     128.93677	     161.81946	     113.29651
       0.13107	      84.83887	     154.87671	     114.66980	     127.71606
       0.14418	     125.73242	     165.10010	     144.34814	     131.98853
       0.15729	     120.69702	     145.11108	     122.60437	     142.21191
       0.17039	     205.45959	     133.66699	     121.07849	     116.95862
       0.18350	     118.78967	     119.09485	     151.59607	     169.90662
       0.19661	     165.93933	      93.15491	     125.42725	     123.06213
       0.20972	     126.80054	     134.12476	      93.84155	     173.79761
       0.22282	     129.24194	     163.95569	     118.71338	     137.78687
       0.23593	     129.08936	     153.35083	     158.08105	     136.71875
       0.24904	      89.26392	     125.12207	     120.46814	     139.46533
       0.26214	     114.97498	      79.11682	     115.05127	     113.06763
       0.27525	     133.66699	      92.16309	     138.77869	      98.64807
       0.28836	     141.60156	     124.74060	      78.96423	     101.39465
       0.30147	     128.17383	     124.81689	     109.25293	      72.78442
       0.31457	     176.39160	     136.26099	     189.43787	     135.95581
       0.32768	     152.05383	     107.19299	     116.42456	      97.96143
       0.34079	     104.21753	     144.50073	     157.16553	     117.72156
       0.35389	     137.10022	      85.67810	     118.48450	     120.16296
       0.36700	     162.12463	      96.58813	     174.71313	     135.49805
       0.38011	     191.34521	      84.83887	      93.00232	     116.88232
       0.39322	     152.35901	      94.60449	     105.74341	     136.94763
       0.40632	     152.51160	     149.91760	     142.51709	     122.37549
       0.41943	     134.73511	     113.52539	     115.12756	      94.22302
       0.43254	     141.14380	     107.19299	     122.68066	     141.90674
       0.44564	     101.47095	     116.34827	     168.07556	     167.77039
       0.45875	     213.39417	     114.82239	      98.03772	     114.36462
       0.47186	     127.33459	      93.76526	     108.79517	     142.28821
       0.48497	     139.00757	      96.51184	     118.40820	      99.63989
       0.49807	     131.22559	     141.22009	     122.14661	     156.86035
       0.51118	     103.07312	     122.14661	     110.85510	     131.45447
       0.52429	     145.41626	     116.72974	     131.83594	     117.03491
       0.53740	     129.54712	     126.95313	     141.52527	     161.74316
       0.55050	     129.85229	     110.09216	     103.98865	     127.25830
       0.56361	      99.56360	     128.32642	      98.80066	     142.82227
       0.57672	     156.02112	     127.25830	     140.68604	     117.79785
       0.58982	     128.25012	     122.83325	      90.71350	     112.68616
       0.60293	     131.75964	     107.19299	     105.13306	     125.27466
       0.61604	     120.39185	     102.76794	     100.09766	     112.22839
       0.62915	     156.86035	     159.53064	     145.33997	     156.70776
       0.64225	     149.00208	     127.48718	      98.41919	     139.77051
       0.65536	     119.47632	     119.85779	     122.29919	     140.76233
       0.66847	     100.93689	     119.01855	     116.19568	     108.33740
       0.68157	     125.50354	     113.22021	     110.62622	      94.07043
       0.69468	     117.79785	     119.93408	     125.12207	      81.78711
       0.70779	     127.25830	     111.46545	      87.66174	     129.62341
       0.72090	     151.74866	     134.73511	     115.50903	     148.54431
       0.73400	     135.04028	      81.55823	     125.80872	      79.72717
       0.74711	     107.72705	     147.93396	      85.29663	     152.35901
