ALV-7004/USB-FAST
Date :	"3/14/2024"
Time :	"12:32:42 PM"
Samplename : 	""
SampMemo(0) : 	""
SampMemo(1) : 	""
SampMemo(2) : 	""
SampMemo(3) : 	""
SampMemo(4) : 	""
SampMemo(5) : 	""
SampMemo(6) : 	""
SampMemo(7) : 	""
SampMemo(8) : 	""
SampMemo(9) : 	""
Temperature [K] :	     298.16000
Viscosity [cp]  :	       0.89000
Refractive Index:	       1.33200
Wavelength [nm] :	       0.00000
Angle [°]       :	       0.00000
Duration [s]    :	         1
FloatDur [ms]   :	          944
Stop TP [ms]   :	      3214
Runs            :	         1
Mode            :	"A-CH0+1  A-CH2+3 "
MeanCR0 [kHz]   :	     146.29364
MeanCR1 [kHz]   :	     144.58444
MeanCR2 [kHz]   :	     142.53616
MeanCR3 [kHz]   :	     142.93459

"Correlation"
  3.12500E-006	 -1.00000E+000	 -1.00000E+000	 -1.00000E+000	 -1.00000E+000
  6.25000E-006	 -1.00000E+000	 -1.00000E+000	 -1.00000E+000	 -1.00000E+000
  9.37500E-006	 -1.00000E+000	 -1.00000E+000	 -1.00000E+000	 -1.00000E+000
  1.25000E-005	 -1.00000E+000	 -1.00000E+000	 -1.00000E+000	 -1.00000E+000
  1.56250E-005	 -1.00000E+000	 -1.00000E+000	 -1.00000E+000	 -1.00000E+000
  1.87500E-005	 -1.00000E+000	 -1.00000E+000	 -1.00000E+000	 -1.00000E+000
  2.18750E-005	 -9.20781E-001	 -4.97164E-001	 -4.82609E-001	 -9.50209E-001
  2.50000E-005	  5.43254E+000	  5.13135E+000	  4.62454E+000	  9.37320E+000
  2.81250E-005	  1.50330E+000	  1.44930E+000	  1.35330E+000	  3.77997E+000
  3.12500E-005	  4.89308E-001	  1.09245E+000	  7.35764E-001	  2.45220E+000
  3.43750E-005	  8.06182E-001	  4.76066E-001	  9.02665E-001	  1.70533E+000
  3.75000E-005	  5.68526E-001	  8.16697E-001	  8.02524E-001	  1.47297E+000
  4.06250E-005	  5.84370E-001	  6.38271E-001	  9.19355E-001	  1.50617E+000
  4.37500E-005	  2.83340E-001	  6.22051E-001	  8.02524E-001	  1.32360E+000
  4.68750E-005	  8.22026E-001	  3.62522E-001	  8.19214E-001	  9.75058E-001
  5.00000E-005	  7.58651E-001	  6.54491E-001	  6.94039E-001	  1.27381E+000
  5.62500E-005	  6.63589E-001	  3.86853E-001	  6.94039E-001	  1.09124E+000
  6.25000E-005	  3.62558E-001	  6.22051E-001	  6.69004E-001	  8.83774E-001
  6.87500E-005	  5.13073E-001	  5.73389E-001	  5.93899E-001	  9.16968E-001
  7.50000E-005	  6.87354E-001	  6.95043E-001	  5.93899E-001	  6.01622E-001
  8.12500E-005	  3.38793E-001	  3.54412E-001	  5.02104E-001	  8.25684E-001
  8.75000E-005	  5.68526E-001	  3.38192E-001	  4.18653E-001	  7.09504E-001
  9.37500E-005	  4.73464E-001	  3.62522E-001	  5.43829E-001	  6.26518E-001
  1.00000E-004	  4.93269E-001	  4.11184E-001	  5.06276E-001	  7.17802E-001
  1.12500E-004	  5.28917E-001	  5.61223E-001	  5.10448E-001	  5.39383E-001
  1.25000E-004	  5.01190E-001	  4.47680E-001	  5.89726E-001	  5.97473E-001
  1.37500E-004	  5.76448E-001	  5.69334E-001	  5.89726E-001	  5.97473E-001
  1.50000E-004	  6.08135E-001	  3.86853E-001	  4.14481E-001	  5.14487E-001
  1.62500E-004	  5.40800E-001	  4.92286E-001	  6.39796E-001	  5.10338E-001
  1.75000E-004	  4.53659E-001	  4.35515E-001	  5.27139E-001	  4.89592E-001
  1.87500E-004	  4.73464E-001	  5.36893E-001	  4.52033E-001	  5.51831E-001
  2.00000E-004	  5.48721E-001	  4.45652E-001	  4.89586E-001	  5.31084E-001
  2.25000E-004	  4.61581E-001	  4.74038E-001	  5.10448E-001	  5.53905E-001
  2.50000E-004	  5.68526E-001	  4.55790E-001	  5.02103E-001	  5.10338E-001
  2.75000E-004	  4.89307E-001	  4.03073E-001	  5.77208E-001	  4.52248E-001
  3.00000E-004	  5.24956E-001	  4.57817E-001	  4.95844E-001	  5.33159E-001
  3.25000E-004	  5.42780E-001	  4.65928E-001	  4.72896E-001	  5.26935E-001
  3.50000E-004	  4.12069E-001	  5.63251E-001	  5.29224E-001	  5.66353E-001
  3.75000E-004	  5.24956E-001	  3.54412E-001	  3.85273E-001	  5.39383E-001
  4.00000E-004	  5.64564E-001	  4.25376E-001	  5.01059E-001	  4.90628E-001
  4.50000E-004	  5.25945E-001	  5.14589E-001	  5.02102E-001	  5.03076E-001
  5.00000E-004	  5.02180E-001	  4.90258E-001	  5.49043E-001	  4.90628E-001
  5.50000E-004	  4.35834E-001	  4.56803E-001	  4.87499E-001	  5.94360E-001
  6.00000E-004	  4.87326E-001	  4.25376E-001	  5.84509E-001	  4.58471E-001
  6.50000E-004	  5.36838E-001	  4.39569E-001	  5.00016E-001	  5.18636E-001
  7.00000E-004	  5.42779E-001	  4.44638E-001	  4.98973E-001	  5.26934E-001
  7.50000E-004	  4.21971E-001	  4.54775E-001	  4.96887E-001	  5.57017E-001
  8.00000E-004	  4.64550E-001	  4.32471E-001	  4.65592E-001	  5.37306E-001
  9.00000E-004	  4.97227E-001	  4.61364E-001	  4.89584E-001	  4.61582E-001
  1.00000E-003	  4.73462E-001	  4.83160E-001	  4.60376E-001	  5.12929E-001
  1.10000E-003	  4.82869E-001	  5.05970E-001	  5.01058E-001	  4.92183E-001
  1.20000E-003	  4.91781E-001	  4.57816E-001	  4.85411E-001	  4.75067E-001
  1.30000E-003	  4.99703E-001	  4.82653E-001	  4.78631E-001	  4.76623E-001
  1.40000E-003	  4.54647E-001	  4.80119E-001	  5.11489E-001	  4.79216E-001
  1.50000E-003	  4.82374E-001	  4.87215E-001	  4.43165E-001	  4.52765E-001
  1.60000E-003	  4.81381E-001	  5.03687E-001	  4.79411E-001	  4.20346E-001
  1.80000E-003	  4.94007E-001	  4.45648E-001	  5.44867E-001	  4.74287E-001
  2.00000E-003	  4.67023E-001	  4.67444E-001	  4.43162E-001	  4.89846E-001
  2.20000E-003	  4.91778E-001	  4.52744E-001	  5.09922E-001	  4.87253E-001
  2.40000E-003	  4.66775E-001	  4.68458E-001	  4.77585E-001	  4.58468E-001
  2.60000E-003	  5.02423E-001	  4.71246E-001	  4.70544E-001	  4.92699E-001
  2.80000E-003	  4.95987E-001	  4.86959E-001	  4.88538E-001	  5.16817E-001
  3.00000E-003	  4.81876E-001	  4.70232E-001	  5.04446E-001	  4.81029E-001
  3.20000E-003	  4.92640E-001	  4.54408E-001	  4.87229E-001	  4.84784E-001
  3.60000E-003	  4.93506E-001	  4.69742E-001	  4.90228E-001	  5.02289E-001
  4.00000E-003	  5.08855E-001	  4.77725E-001	  4.77841E-001	  4.87118E-001
  4.40000E-003	  5.25441E-001	  4.93439E-001	  4.96748E-001	  4.88285E-001
  4.80000E-003	  4.75074E-001	  4.79246E-001	  4.91402E-001	  4.94769E-001
  5.20000E-003	  5.08618E-001	  4.70882E-001	  4.42766E-001	  4.66891E-001
  5.60000E-003	  4.82388E-001	  4.50606E-001	  4.89967E-001	  4.77394E-001
  6.00000E-003	  4.82016E-001	  4.52507E-001	  4.89446E-001	  5.01641E-001
  6.40000E-003	  4.82760E-001	  4.60566E-001	  4.79200E-001	  4.86460E-001
  7.20000E-003	  4.82450E-001	  4.62023E-001	  4.80254E-001	  4.68955E-001
  8.00000E-003	  4.75952E-001	  4.59351E-001	  4.81297E-001	  4.74661E-001
  8.80000E-003	  4.86236E-001	  4.69668E-001	  4.78494E-001	  4.94629E-001
  9.60000E-003	  4.95159E-001	  4.47502E-001	  4.67867E-001	  4.55276E-001
  1.04000E-002	  4.78150E-001	  4.45792E-001	  4.61674E-001	  4.67010E-001
  1.12000E-002	  4.65524E-001	  4.46552E-001	  4.60109E-001	  4.59944E-001
  1.20000E-002	  4.70104E-001	  4.50227E-001	  4.69693E-001	  4.55600E-001
  1.28000E-002	  4.63101E-001	  4.46543E-001	  4.77822E-001	  4.67791E-001
  1.44000E-002	  4.58831E-001	  4.36595E-001	  4.66120E-001	  4.64581E-001
  1.60000E-002	  4.54519E-001	  4.37926E-001	  4.53863E-001	  4.54759E-001
  1.76000E-002	  4.47711E-001	  4.25475E-001	  4.50832E-001	  4.58336E-001
  1.92000E-002	  4.47432E-001	  4.23289E-001	  4.50082E-001	  4.36260E-001
  2.08000E-002	  4.31960E-001	  4.20110E-001	  4.39390E-001	  4.38464E-001
  2.24000E-002	  4.46814E-001	  4.23490E-001	  4.49169E-001	  4.39696E-001
  2.40000E-002	  4.24378E-001	  4.05146E-001	  4.21722E-001	  4.37945E-001
  2.56000E-002	  4.34490E-001	  4.06880E-001	  4.32830E-001	  4.32437E-001
  2.88000E-002	  4.21632E-001	  4.04557E-001	  4.20688E-001	  4.22409E-001
  3.20000E-002	  4.06159E-001	  3.91282E-001	  4.15130E-001	  4.04542E-001
  3.52000E-002	  4.06716E-001	  3.78916E-001	  4.01368E-001	  4.03527E-001
  3.84000E-002	  3.94044E-001	  3.72770E-001	  3.99885E-001	  3.95935E-001
  4.16000E-002	  3.83915E-001	  3.61143E-001	  3.88361E-001	  3.80158E-001
  4.48000E-002	  3.78763E-001	  3.55503E-001	  3.77881E-001	  3.75069E-001
  4.80000E-002	  3.71274E-001	  3.51112E-001	  3.72991E-001	  3.70822E-001
  5.12000E-002	  3.63858E-001	  3.45739E-001	  3.68543E-001	  3.60391E-001
  5.76000E-002	  3.47972E-001	  3.29316E-001	  3.52921E-001	  3.53297E-001
  6.40000E-002	  3.30796E-001	  3.15257E-001	  3.39151E-001	  3.32055E-001
  7.04000E-002	  3.16861E-001	  3.08459E-001	  3.27256E-001	  3.24839E-001
  7.68000E-002	  3.09922E-001	  2.94908E-001	  3.12806E-001	  3.06034E-001
  8.32000E-002	  2.98209E-001	  2.87461E-001	  3.05968E-001	  2.98945E-001
  8.96000E-002	  2.92801E-001	  2.73567E-001	  2.84746E-001	  2.89671E-001
  9.60000E-002	  2.84058E-001	  2.62090E-001	  2.82122E-001	  2.77018E-001
  1.02400E-001	  2.71119E-001	  2.54210E-001	  2.76071E-001	  2.68590E-001
  1.15200E-001	  2.55134E-001	  2.39288E-001	  2.59409E-001	  2.49723E-001
  1.28000E-001	  2.39081E-001	  2.24278E-001	  2.46709E-001	  2.33883E-001
  1.40800E-001	  2.26882E-001	  2.08304E-001	  2.25113E-001	  2.17465E-001
  1.53600E-001	  2.09200E-001	  1.98093E-001	  2.11421E-001	  2.05221E-001
  1.66400E-001	  1.98983E-001	  1.86412E-001	  1.95448E-001	  1.97523E-001
  1.79200E-001	  1.88049E-001	  1.72531E-001	  1.87006E-001	  1.82269E-001
  1.92000E-001	  1.76174E-001	  1.61651E-001	  1.73412E-001	  1.74926E-001
  2.04800E-001	  1.67756E-001	  1.53852E-001	  1.63423E-001	  1.62922E-001
  2.30400E-001	  1.51692E-001	  1.37674E-001	  1.47540E-001	  1.45657E-001
  2.56000E-001	  1.33357E-001	  1.24890E-001	  1.27112E-001	  1.26231E-001
  2.81600E-001	  1.21327E-001	  1.12323E-001	  1.15859E-001	  1.13717E-001
  3.07200E-001	  1.06611E-001	  1.01774E-001	  1.04673E-001	  1.01197E-001
  3.32800E-001	  9.51001E-002	  8.62091E-002	  9.95244E-002	  9.66842E-002
  3.58400E-001	  8.37453E-002	  7.38544E-002	  9.14624E-002	  8.71489E-002
  3.84000E-001	  7.78197E-002	  6.47254E-002	  8.46930E-002	  7.69695E-002
  4.09600E-001	  7.33321E-002	  6.04318E-002	  7.76786E-002	  7.32402E-002
  4.60800E-001	  6.60266E-002	  4.54346E-002	  6.14472E-002	  6.20403E-002
  5.12000E-001	  6.10684E-002	  3.86280E-002	  5.45509E-002	  5.66948E-002
  5.63200E-001	  5.46664E-002	  3.77344E-002	  4.82937E-002	  5.10975E-002
  6.14400E-001	  4.68323E-002	  3.28116E-002	  4.08963E-002	  4.67301E-002
  6.65600E-001	  3.82596E-002	  3.01756E-002	  3.34036E-002	  4.11210E-002
  7.16800E-001	  3.57382E-002	  2.61352E-002	  3.02266E-002	  3.66042E-002
  7.68000E-001	  2.88864E-002	  2.82657E-002	  2.51404E-002	  3.27682E-002
  8.19200E-001	  2.81442E-002	  2.76879E-002	  2.60384E-002	  2.57419E-002
  9.21600E-001	  2.51019E-002	  2.53005E-002	  2.47400E-002	  1.54636E-002
  1.02400E+000	  2.47742E-002	  1.70700E-002	  2.10208E-002	  1.09411E-002
  1.12640E+000	  2.30719E-002	  1.61177E-002	  1.77134E-002	  1.12144E-002
  1.22880E+000	  2.30871E-002	  1.33026E-002	  5.98264E-003	  1.01939E-002
  1.33120E+000	  2.05652E-002	  8.97629E-003	  2.46991E-003	  8.47602E-003
  1.43360E+000	  2.06138E-002	  1.17360E-002	  2.66168E-003	 -1.66842E-003
  1.53600E+000	  1.34107E-002	  1.29778E-002	  2.98452E-003	 -2.24214E-003
  1.63840E+000	  1.22278E-002	  1.19074E-002	 -5.14574E-004	  3.08270E-003
  1.84320E+000	  1.20033E-002	  1.01462E-002	  1.92579E-003	  6.41816E-003
  2.04800E+000	  9.66517E-003	  1.50397E-002	  4.19048E-003	  3.61410E-003
  2.25280E+000	  1.02725E-002	  1.58981E-002	  1.02211E-002	  8.46554E-003
  2.45760E+000	  1.64137E-003	  1.26232E-002	  6.55566E-003	  1.64602E-003
  2.66240E+000	 -4.05461E-003	  8.92248E-003	  4.14871E-004	  1.09343E-003
  2.86720E+000	 -5.46455E-003	  5.59868E-003	  1.82382E-003	  2.92087E-003
  3.07200E+000	 -5.82308E-003	  8.27043E-003	  6.10887E-003	  2.78006E-003
  3.27680E+000	 -7.36631E-003	  7.16114E-003	  2.98781E-003	  3.98468E-003
  3.68640E+000	 -1.70174E-002	 -4.32855E-003	  2.91272E-003	  3.75882E-003
  4.09600E+000	 -1.50898E-002	 -1.26484E-003	  7.39197E-003	  7.12735E-003
  4.50560E+000	 -6.76552E-003	  1.13788E-002	  4.92811E-004	  6.46651E-003
  4.91520E+000	 -6.10687E-003	  1.21786E-002	 -2.18734E-003	  1.19299E-002
  5.32480E+000	 -1.00856E-002	  4.69605E-003	 -1.95564E-003	  1.33922E-002
  5.73440E+000	 -1.14142E-002	  7.85617E-003	 -2.44787E-003	  1.31544E-002
  6.14400E+000	 -2.97767E-004	  5.53809E-004	 -6.90743E-004	  9.98706E-004
  6.55360E+000	 -3.29679E-003	 -1.00011E-002	 -4.44947E-003	 -2.79860E-003
  7.37280E+000	  1.58736E-003	  3.41274E-004	 -4.25723E-003	 -4.76529E-003
  8.19200E+000	  9.69777E-003	  7.71784E-004	  1.49529E-003	 -3.32405E-003
  9.01120E+000	  8.41984E-003	 -1.12796E-003	  3.46588E-003	 -1.22857E-002
  9.83040E+000	  3.46144E-003	  5.09116E-003	  6.12866E-003	 -8.55877E-003
  1.06496E+001	  1.07098E-002	 -2.92020E-003	  1.27190E-002	  1.78334E-003
  1.14688E+001	 -6.95926E-004	 -8.96454E-003	  9.13163E-003	 -6.32317E-003
  1.22880E+001	  1.47658E-003	 -5.28708E-003	  1.89892E-003	 -8.50992E-003
  1.31072E+001	  7.85052E-003	 -5.04895E-003	 -2.93392E-003	 -7.30563E-003
  1.47456E+001	  3.80934E-003	 -9.57850E-004	 -1.11047E-002	 -3.64725E-003
  1.63840E+001	 -6.89447E-004	 -1.29170E-002	 -2.39966E-004	 -6.45700E-003
  1.80224E+001	 -3.46406E-003	 -9.63511E-003	 -2.05762E-003	 -5.19960E-003
  1.96608E+001	 -6.71383E-003	 -7.68690E-003	  9.36277E-004	  1.28406E-003
  2.12992E+001	 -5.35416E-003	 -1.96963E-003	  1.64216E-003	  2.72066E-003
  2.29376E+001	  5.83482E-003	  2.59259E-003	 -1.97184E-003	  7.16825E-004
  2.45760E+001	 -2.33207E-004	 -4.62442E-003	 -4.30399E-003	 -2.50032E-003
  2.62144E+001	 -3.49862E-003	  5.73369E-004	 -9.46482E-003	  3.28516E-003
  2.94912E+001	 -2.27706E-003	  1.16828E-003	  2.38671E-004	  2.39112E-003
  3.27680E+001	  4.45535E-004	 -3.11661E-003	  1.52732E-003	  7.86301E-003
  3.60448E+001	  1.78993E-003	  5.69483E-003	  1.58449E-003	  4.81718E-003
  3.93216E+001	  9.17976E-004	  1.51680E-003	  2.97238E-003	  7.11566E-003
  4.25984E+001	 -8.03197E-003	 -2.01670E-003	 -1.91854E-003	 -9.36926E-004
  4.58752E+001	  2.15197E-003	 -2.17181E-003	 -1.94717E-003	 -5.30448E-003
  4.91520E+001	 -9.00838E-004	 -2.19131E-003	 -9.64421E-004	 -4.20400E-003
  5.24288E+001	 -3.25332E-003	 -4.18477E-003	 -5.80360E-003	 -8.12558E-003
  5.89824E+001	 -6.37467E-003	 -6.16106E-004	  9.68465E-005	 -1.98048E-003
  6.55360E+001	  2.42298E-003	  9.83924E-004	 -4.93530E-003	  5.03582E-003
  7.20896E+001	 -2.30069E-003	  7.10005E-004	  3.94469E-003	 -7.83803E-004
  7.86432E+001	 -9.42747E-004	 -1.12162E-004	  3.59462E-003	  7.86531E-005
  8.51968E+001	 -7.73293E-004	 -1.06798E-003	 -2.49647E-003	 -7.72589E-003
  9.17504E+001	 -4.17795E-003	  4.29602E-003	  3.26764E-004	 -4.61758E-003
  9.83040E+001	 -4.42787E-004	 -2.04337E-003	 -1.68861E-003	  1.64101E-003
  1.04858E+002	 -2.44792E-003	  7.12709E-004	  2.44569E-003	  2.47958E-003
  1.17965E+002	 -3.96810E-003	 -3.56702E-003	  2.83924E-003	 -4.67845E-004
  1.31072E+002	  3.04009E-003	  4.19039E-003	  1.29422E-003	  1.58448E-003
  1.44179E+002	 -2.62150E-003	 -7.60663E-004	 -1.12334E-003	  2.55999E-003
  1.57286E+002	  1.50646E-004	  1.93942E-003	 -2.39580E-003	  7.95677E-004
  1.70394E+002	  5.29790E-004	 -2.56950E-003	  9.53490E-004	  5.80474E-004
  1.83501E+002	  2.96309E-003	 -2.24998E-003	 -1.30012E-003	 -2.60114E-003
  1.96608E+002	  3.89010E-004	  4.34647E-003	 -1.79538E-003	  5.28566E-004
  2.09715E+002	  3.72767E-003	 -1.80881E-003	  1.18160E-003	 -1.09357E-003
  2.35930E+002	  3.43109E-004	  6.55994E-004	  2.17445E-003	 -2.55301E-003
  2.62144E+002	  1.89882E-004	  3.05523E-003	 -1.36731E-003	  1.25847E-003
  2.88358E+002	 -2.78225E-003	 -3.65687E-004	 -2.37717E-003	  1.86307E-004
  3.14573E+002	  7.27688E-004	 -4.44383E-003	 -2.47777E-003	  1.70453E-003
  3.40787E+002	 -2.91376E-003	  1.96785E-003	  7.74560E-004	  2.20435E-003
  3.67002E+002	  1.62185E-003	  1.00214E-003	 -4.36734E-004	 -1.37245E-003
  3.93216E+002	  1.78038E-003	 -3.10590E-003	 -2.60402E-003	 -4.89951E-004

"Count Rate"
       0.01311	     117.26379	     136.79504	     114.74609	     144.34814
       0.02621	     133.81958	     144.34814	     133.05664	     123.51990
       0.03932	     150.07019	     162.81128	     149.15466	     145.64514
       0.05243	     145.03479	     137.63428	     135.72693	     142.89856
       0.06554	     137.25281	     158.00476	     134.65881	     119.55261
       0.07864	     135.49805	     161.51428	     127.25830	     138.77869
       0.09175	     183.71582	     139.16016	     126.34277	     139.99939
       0.10486	     123.13843	     140.15198	     153.19824	     153.57971
       0.11796	     127.02942	     137.10022	     161.66687	     138.01575
       0.13107	     153.80859	     186.99646	     101.92871	     136.56616
       0.14418	     140.99121	     127.41089	     127.71606	     133.81958
       0.15729	     156.40259	     118.78967	     137.25281	     149.38354
       0.17039	     149.38354	     142.97485	     128.09753	     112.53357
       0.18350	     111.92322	     131.53076	     175.01831	     153.35083
       0.19661	     136.71875	     135.04028	     162.50610	     121.84143
       0.20972	     154.26636	     147.78137	     150.60425	     125.42725
       0.22282	     112.76245	     141.14380	     135.87952	     158.76770
       0.23593	     130.76782	     142.28821	     136.41357	     140.83862
       0.24904	     141.52527	     138.39722	     122.68066	     154.41895
       0.26214	     181.88477	     201.56860	     124.74060	     142.36450
       0.27525	     158.15735	     144.11926	     134.50623	     127.41089
       0.28836	     144.88220	     152.51160	     138.54980	     132.06482
       0.30147	     155.94482	     142.44080	     121.76514	     150.29907
       0.31457	     127.10571	     111.92322	     151.51978	     136.03210
       0.32768	     129.31824	     153.80859	     125.65613	     145.33997
       0.34079	     169.83032	     137.86316	     157.62329	     124.13025
       0.35389	     144.88220	     151.29089	     129.92859	     135.11658
       0.36700	     152.74048	     191.49780	     139.23645	     132.37000
       0.38011	     154.49524	     121.99402	     133.66699	     135.65063
       0.39322	     154.49524	     124.89319	     167.46521	     166.24451
       0.40632	     140.38086	     155.25818	     122.29919	     131.68335
       0.41943	     165.48157	     157.77588	     138.62610	     132.98035
       0.43254	     117.26379	     103.30200	     164.26086	     177.99377
       0.44564	     121.30737	     139.16016	     146.40808	     132.21741
       0.45875	     118.78967	     135.65063	     161.13281	     125.57983
       0.47186	     159.98840	     108.03223	     145.87402	     151.51978
       0.48497	     141.83044	     142.82227	     115.12756	     128.40271
       0.49807	     113.29651	     155.94482	     147.01843	     163.57422
       0.51118	     128.25012	     135.65063	     160.67505	     151.59607
       0.52429	     149.68872	     148.84949	     137.32910	     100.02136
       0.53740	     129.47083	     122.45178	     149.84131	     149.38354
       0.55050	     191.57410	     167.08374	     148.54431	     118.17932
       0.56361	     142.89856	     120.16296	     169.14368	     131.07300
       0.57672	     192.03186	     115.96680	     128.17383	     154.19006
       0.58982	     122.68066	     177.53601	     130.38635	     134.35364
       0.60293	     159.60693	     140.76233	     154.03748	     167.99927
       0.61604	     157.69958	     184.40247	     112.45728	     139.92310
       0.62915	     116.57715	     124.43542	     140.91492	     146.63696
       0.64225	     160.36987	     108.03223	     149.07837	     156.17371
       0.65536	     140.68604	     134.81140	     145.87402	     144.27185
       0.66847	     131.37817	     123.29102	     160.98022	     104.06494
       0.68157	     132.67517	     136.26099	     176.54419	     120.23926
       0.69468	     113.90686	     145.79773	     147.17102	     149.84131
       0.70779	     146.02661	     147.24731	     131.83594	     165.02380
       0.72090	     157.77588	     142.82227	     110.70251	     127.02942
       0.73400	     167.00745	     137.86316	     134.35364	     233.07800
       0.74711	     141.06750	     139.38904	     162.88757	     135.72693
