ALV-7004/USB-FAST
Date :	"3/14/2024"
Time :	"12:34:50 PM"
Samplename : 	""
SampMemo(0) : 	""
SampMemo(1) : 	""
SampMemo(2) : 	""
SampMemo(3) : 	""
SampMemo(4) : 	""
SampMemo(5) : 	""
SampMemo(6) : 	""
SampMemo(7) : 	""
SampMemo(8) : 	""
SampMemo(9) : 	""
Temperature [K] :	     298.16000
Viscosity [cp]  :	       0.89000
Refractive Index:	       1.33200
Wavelength [nm] :	       0.00000
Angle [°]       :	       0.00000
Duration [s]    :	         1
FloatDur [ms]   :	          944
Stop TP [ms]   :	      3658
Runs            :	         1
Mode            :	"A-CH0+1  A-CH2+3 "
MeanCR0 [kHz]   :	     108.60020
MeanCR1 [kHz]   :	     103.33697
MeanCR2 [kHz]   :	      99.52227
MeanCR3 [kHz]   :	     103.22889

"Correlation"
  3.12500E-006	 -1.00000E+000	 -1.00000E+000	 -1.00000E+000	 -1.00000E+000
  6.25000E-006	 -1.00000E+000	 -1.00000E+000	 -1.00000E+000	 -1.00000E+000
  9.37500E-006	 -1.00000E+000	 -1.00000E+000	 -1.00000E+000	 -1.00000E+000
  1.25000E-005	 -1.00000E+000	 -1.00000E+000	 -1.00000E+000	 -1.00000E+000
  1.56250E-005	 -1.00000E+000	 -1.00000E+000	 -1.00000E+000	 -1.00000E+000
  1.87500E-005	 -1.00000E+000	 -1.00000E+000	 -1.00000E+000	 -1.00000E+000
  2.18750E-005	 -9.13748E-001	 -2.37916E-001	 -2.12601E-001	 -1.00000E+000
  2.50000E-005	  6.07264E+000	  6.68435E+000	  6.36047E+000	  1.23327E+001
  2.81250E-005	  1.70255E+000	  1.15924E+000	  1.53337E+000	  4.63220E+000
  3.12500E-005	  7.25034E-001	  5.24168E-001	  7.11737E-001	  3.26393E+000
  3.43750E-005	  9.55038E-001	  7.14689E-001	  8.14441E-001	  2.50024E+000
  3.75000E-005	  7.82535E-001	  7.46443E-001	  9.85615E-001	  2.59570E+000
  4.06250E-005	  8.11285E-001	  4.28908E-001	  7.11737E-001	  2.08657E+000
  4.37500E-005	  8.11285E-001	  3.01894E-001	  6.77502E-001	  1.10014E+000
  4.68750E-005	  8.11285E-001	  7.46443E-001	  7.45971E-001	  1.13196E+000
  5.00000E-005	  7.96910E-001	  6.51182E-001	  5.74798E-001	  1.06832E+000
  5.62500E-005	  4.80654E-001	  2.86017E-001	  6.77502E-001	  9.41042E-001
  6.25000E-005	  5.95656E-001	  6.19429E-001	  2.83802E-001	  1.11605E+000
  6.87500E-005	  7.82535E-001	  3.17770E-001	  4.03624E-001	  7.34209E-001
  7.50000E-005	  5.52530E-001	  5.55922E-001	  4.03624E-001	  6.38748E-001
  8.12500E-005	  6.96283E-001	  5.55922E-001	  5.74798E-001	  8.13760E-001
  8.75000E-005	  6.10031E-001	  1.74880E-001	  4.72093E-001	  9.25131E-001
  9.37500E-005	  4.51903E-001	  9.21087E-001	  5.40563E-001	  3.36455E-001
  1.00000E-004	  6.38782E-001	  5.24168E-001	  5.57680E-001	  5.03512E-001
  1.12500E-004	  5.16592E-001	  5.00353E-001	  6.09032E-001	  7.10344E-001
  1.25000E-004	  6.24407E-001	  4.36846E-001	  4.20741E-001	  6.62613E-001
  1.37500E-004	  5.38155E-001	  4.36846E-001	  3.60830E-001	  5.67152E-001
  1.50000E-004	  5.23780E-001	  4.76538E-001	  5.23445E-001	  4.31916E-001
  1.62500E-004	  5.09404E-001	  6.35305E-001	  4.03624E-001	  4.16006E-001
  1.75000E-004	  4.59091E-001	  3.73339E-001	  3.18037E-001	  5.11467E-001
  1.87500E-004	  5.16592E-001	  5.47983E-001	  6.86060E-001	  6.06928E-001
  2.00000E-004	  4.77060E-001	  5.67829E-001	  6.47546E-001	  6.34770E-001
  2.25000E-004	  3.36901E-001	  4.84476E-001	  5.02048E-001	  4.71691E-001
  2.50000E-004	  4.51903E-001	  4.96383E-001	  6.00473E-001	  3.80207E-001
  2.75000E-004	  6.31594E-001	  6.23397E-001	  6.21870E-001	  6.94433E-001
  3.00000E-004	  5.45342E-001	  3.01893E-001	  4.93490E-001	  4.83624E-001
  3.25000E-004	  4.59091E-001	  4.44784E-001	  6.64663E-001	  5.39309E-001
  3.50000E-004	  3.65651E-001	  6.35305E-001	  5.06328E-001	  5.39309E-001
  3.75000E-004	  5.02216E-001	  5.20198E-001	  5.36283E-001	  5.11466E-001
  4.00000E-004	  4.44715E-001	  5.38059E-001	  5.23444E-001	  4.87601E-001
  4.50000E-004	  5.07606E-001	  5.24167E-001	  4.95629E-001	  5.37320E-001
  5.00000E-004	  4.37527E-001	  4.84475E-001	  4.82791E-001	  5.65163E-001
  5.50000E-004	  5.20185E-001	  5.51951E-001	  4.61394E-001	  3.90151E-001
  6.00000E-004	  5.66904E-001	  6.35304E-001	  4.84930E-001	  3.92139E-001
  6.50000E-004	  5.39951E-001	  4.44783E-001	  4.27159E-001	  4.53791E-001
  7.00000E-004	  5.39951E-001	  4.44783E-001	  5.19165E-001	  5.19421E-001
  7.50000E-004	  4.93231E-001	  4.46768E-001	  5.61975E-001	  4.71690E-001
  8.00000E-004	  5.35457E-001	  4.40828E-001	  5.64113E-001	  4.22964E-001
  9.00000E-004	  4.33932E-001	  4.65635E-001	  4.72107E-001	  5.31352E-001
  1.00000E-003	  4.70769E-001	  4.62643E-001	  4.42151E-001	  5.19420E-001
  1.10000E-003	  4.27643E-001	  4.64628E-001	  5.10621E-001	  4.84616E-001
  1.20000E-003	  5.04011E-001	  4.76535E-001	  5.06342E-001	  4.93566E-001
  1.30000E-003	  4.93230E-001	  4.99358E-001	  5.69463E-001	  5.25386E-001
  1.40000E-003	  4.74362E-001	  4.76535E-001	  4.84945E-001	  4.40863E-001
  1.50000E-003	  4.89636E-001	  5.34089E-001	  4.02567E-001	  4.91577E-001
  1.60000E-003	  4.98169E-001	  4.56221E-001	  4.71034E-001	  4.85111E-001
  1.80000E-003	  4.50551E-001	  4.76067E-001	  4.10588E-001	  5.40796E-001
  2.00000E-003	  4.77954E-001	  4.62671E-001	  4.11123E-001	  4.07549E-001
  2.20000E-003	  4.74809E-001	  4.62671E-001	  4.49638E-001	  4.64726E-001
  2.40000E-003	  4.33480E-001	  4.91448E-001	  4.42684E-001	  4.27437E-001
  2.60000E-003	  4.96372E-001	  4.76548E-001	  4.67825E-001	  5.02512E-001
  2.80000E-003	  4.89184E-001	  4.41321E-001	  4.83338E-001	  4.96546E-001
  3.00000E-003	  4.68071E-001	  4.57213E-001	  5.04735E-001	  4.31414E-001
  3.20000E-003	  4.64935E-001	  4.55998E-001	  4.50168E-001	  4.96541E-001
  3.60000E-003	  5.24234E-001	  4.33904E-001	  4.75576E-001	  4.90078E-001
  4.00000E-003	  4.87621E-001	  4.67146E-001	  4.49365E-001	  4.51545E-001
  4.40000E-003	  4.56400E-001	  4.41098E-001	  4.57137E-001	  4.74665E-001
  4.80000E-003	  5.08511E-001	  4.75333E-001	  4.53660E-001	  4.46076E-001
  5.20000E-003	  4.72123E-001	  4.63921E-001	  4.87628E-001	  4.80382E-001
  5.60000E-003	  5.06714E-001	  4.47300E-001	  4.65696E-001	  4.52043E-001
  6.00000E-003	  4.96381E-001	  4.42572E-001	  4.42427E-001	  4.55274E-001
  6.40000E-003	  4.70570E-001	  4.46437E-001	  4.42031E-001	  4.61852E-001
  7.20000E-003	  4.63255E-001	  4.61073E-001	  4.74662E-001	  4.37366E-001
  8.00000E-003	  4.83583E-001	  4.45196E-001	  4.52596E-001	  4.50790E-001
  8.80000E-003	  4.84144E-001	  4.54390E-001	  4.81348E-001	  4.26925E-001
  9.60000E-003	  5.00541E-001	  4.72376E-001	  4.53131E-001	  4.39479E-001
  1.04000E-002	  4.86054E-001	  4.74718E-001	  4.50724E-001	  4.47807E-001
  1.12000E-002	  4.86952E-001	  4.35397E-001	  4.62893E-001	  4.76395E-001
  1.20000E-002	  4.88187E-001	  4.45692E-001	  4.60085E-001	  4.58248E-001
  1.28000E-002	  4.72979E-001	  4.22722E-001	  4.51321E-001	  4.52199E-001
  1.44000E-002	  4.80630E-001	  4.49701E-001	  4.66232E-001	  4.49279E-001
  1.60000E-002	  4.76362E-001	  4.53981E-001	  4.37696E-001	  4.65375E-001
  1.76000E-002	  4.56203E-001	  4.46228E-001	  4.49331E-001	  4.65250E-001
  1.92000E-002	  4.93531E-001	  4.28800E-001	  4.39100E-001	  4.61708E-001
  2.08000E-002	  4.50334E-001	  4.34134E-001	  4.38164E-001	  4.38216E-001
  2.24000E-002	  4.57017E-001	  4.34568E-001	  4.32881E-001	  4.40889E-001
  2.40000E-002	  4.43427E-001	  4.38461E-001	  4.43462E-001	  4.43824E-001
  2.56000E-002	  4.55293E-001	  4.36449E-001	  4.38405E-001	  4.39916E-001
  2.88000E-002	  4.54703E-001	  4.29225E-001	  4.18627E-001	  4.34416E-001
  3.20000E-002	  4.63940E-001	  4.24449E-001	  4.21150E-001	  4.25684E-001
  3.52000E-002	  4.54366E-001	  4.13626E-001	  4.07843E-001	  4.20091E-001
  3.84000E-002	  4.53440E-001	  4.21658E-001	  4.24174E-001	  4.18444E-001
  4.16000E-002	  4.46364E-001	  4.22961E-001	  4.22183E-001	  4.15848E-001
  4.48000E-002	  4.36018E-001	  4.22045E-001	  4.06889E-001	  4.04769E-001
  4.80000E-002	  4.46252E-001	  4.06136E-001	  4.12840E-001	  4.04148E-001
  5.12000E-002	  4.36095E-001	  4.07616E-001	  4.07327E-001	  4.07534E-001
  5.76000E-002	  4.24907E-001	  3.97616E-001	  3.98196E-001	  4.14789E-001
  6.40000E-002	  4.20063E-001	  3.95505E-001	  3.86108E-001	  4.00744E-001
  7.04000E-002	  4.15655E-001	  3.89006E-001	  3.83249E-001	  3.86792E-001
  7.68000E-002	  4.02936E-001	  3.79951E-001	  3.78213E-001	  3.82054E-001
  8.32000E-002	  3.96549E-001	  3.71611E-001	  3.76420E-001	  3.86326E-001
  8.96000E-002	  3.90441E-001	  3.69535E-001	  3.71973E-001	  3.63409E-001
  9.60000E-002	  3.89332E-001	  3.64197E-001	  3.67142E-001	  3.72653E-001
  1.02400E-001	  3.85084E-001	  3.59482E-001	  3.57190E-001	  3.63252E-001
  1.15200E-001	  3.79229E-001	  3.46631E-001	  3.43889E-001	  3.52206E-001
  1.28000E-001	  3.62180E-001	  3.45345E-001	  3.31165E-001	  3.41299E-001
  1.40800E-001	  3.45187E-001	  3.29513E-001	  3.19788E-001	  3.26866E-001
  1.53600E-001	  3.42906E-001	  3.24567E-001	  3.13717E-001	  3.15139E-001
  1.66400E-001	  3.33512E-001	  3.13672E-001	  3.05483E-001	  3.08909E-001
  1.79200E-001	  3.21149E-001	  3.04833E-001	  2.82136E-001	  2.95763E-001
  1.92000E-001	  3.11645E-001	  2.90705E-001	  2.76774E-001	  2.86776E-001
  2.04800E-001	  2.98612E-001	  2.80870E-001	  2.66865E-001	  2.80067E-001
  2.30400E-001	  2.82658E-001	  2.67061E-001	  2.50147E-001	  2.59838E-001
  2.56000E-001	  2.63161E-001	  2.50698E-001	  2.28696E-001	  2.36797E-001
  2.81600E-001	  2.38468E-001	  2.33226E-001	  2.14139E-001	  2.18020E-001
  3.07200E-001	  2.24554E-001	  2.15243E-001	  1.93098E-001	  2.05129E-001
  3.32800E-001	  2.06965E-001	  1.97424E-001	  1.81346E-001	  1.86446E-001
  3.58400E-001	  1.90470E-001	  1.86244E-001	  1.63833E-001	  1.71631E-001
  3.84000E-001	  1.74893E-001	  1.67257E-001	  1.52557E-001	  1.58670E-001
  4.09600E-001	  1.62495E-001	  1.56736E-001	  1.32490E-001	  1.46818E-001
  4.60800E-001	  1.33330E-001	  1.30213E-001	  1.04653E-001	  1.24098E-001
  5.12000E-001	  1.12725E-001	  1.11592E-001	  8.59097E-002	  1.03353E-001
  5.63200E-001	  9.30168E-002	  9.87286E-002	  7.16721E-002	  8.36066E-002
  6.14400E-001	  7.75071E-002	  8.00381E-002	  5.53644E-002	  7.04475E-002
  6.65600E-001	  6.32443E-002	  6.87819E-002	  4.63887E-002	  5.79943E-002
  7.16800E-001	  5.12674E-002	  6.04531E-002	  4.05994E-002	  5.08929E-002
  7.68000E-001	  4.04822E-002	  5.02486E-002	  3.57851E-002	  3.91416E-002
  8.19200E-001	  3.08645E-002	  4.40176E-002	  2.62609E-002	  3.45760E-002
  9.21600E-001	  1.99334E-002	  3.40436E-002	  2.13634E-002	  2.40964E-002
  1.02400E+000	  1.08938E-002	  2.86404E-002	  1.58004E-002	  1.74486E-002
  1.12640E+000	  3.92768E-003	  2.79796E-002	  8.55473E-003	  1.86326E-002
  1.22880E+000	 -5.34308E-003	  2.51059E-002	  7.00946E-003	  1.52290E-002
  1.33120E+000	 -8.94098E-003	  2.65193E-002	  6.73357E-003	  1.82684E-002
  1.43360E+000	 -1.28557E-002	  2.74649E-002	  5.96631E-003	  1.54428E-002
  1.53600E+000	 -1.02709E-002	  2.76873E-002	  4.56514E-003	  1.27164E-002
  1.63840E+000	 -1.44256E-002	  2.64024E-002	  4.70199E-003	  9.57793E-003
  1.84320E+000	 -1.30724E-002	  1.78740E-002	  1.15375E-002	  9.71722E-003
  2.04800E+000	 -9.78412E-003	  1.05938E-002	  1.11422E-002	  1.37994E-002
  2.25280E+000	 -4.58262E-003	  1.04465E-002	 -1.41344E-003	  1.53714E-002
  2.45760E+000	 -4.77349E-003	  1.32515E-003	 -4.53353E-003	  1.14467E-002
  2.66240E+000	 -3.08109E-003	 -3.42874E-003	 -4.41989E-003	  6.70738E-003
  2.86720E+000	  1.77978E-003	 -7.37636E-003	 -8.02086E-003	  5.96826E-003
  3.07200E+000	  3.44770E-003	 -1.41657E-002	 -1.70993E-002	  5.79234E-003
  3.27680E+000	  7.51309E-003	 -1.57006E-002	 -2.34982E-002	  6.30378E-003
  3.68640E+000	  1.09111E-002	 -8.53539E-003	 -1.94545E-002	 -2.74732E-003
  4.09600E+000	  6.68564E-003	 -6.36099E-003	 -9.63816E-003	 -5.30418E-003
  4.50560E+000	 -2.62980E-003	 -1.13026E-002	 -3.07599E-004	  2.50247E-003
  4.91520E+000	  9.96942E-005	 -1.26097E-002	  3.64344E-003	  9.06158E-003
  5.32480E+000	  4.59011E-003	 -3.36367E-003	  3.66034E-003	  8.38575E-003
  5.73440E+000	  1.50176E-003	 -4.19714E-003	  8.26540E-003	  9.99009E-003
  6.14400E+000	 -1.09123E-002	  3.80866E-003	  1.07804E-002	  1.47553E-002
  6.55360E+000	 -7.45376E-003	  1.05696E-002	  7.93580E-003	  1.61241E-002
  7.37280E+000	 -2.25046E-003	 -6.86997E-003	  3.39421E-003	  1.19668E-002
  8.19200E+000	 -1.58273E-002	 -6.18580E-003	 -3.52062E-003	  6.42816E-003
  9.01120E+000	  1.99439E-003	 -4.14309E-003	 -5.74318E-003	 -4.35148E-003
  9.83040E+000	  3.73747E-003	 -2.74249E-003	 -3.47593E-003	 -7.77659E-003
  1.06496E+001	 -6.77637E-004	 -8.78612E-003	  5.29729E-003	 -5.99917E-003
  1.14688E+001	 -5.15611E-003	 -3.46377E-003	 -6.62456E-003	 -3.58583E-003
  1.22880E+001	 -2.16335E-002	  8.91116E-003	  2.96157E-003	 -1.86448E-002
  1.31072E+001	 -8.07478E-003	  3.25312E-003	 -7.30494E-004	 -6.22986E-003
  1.47456E+001	  3.91338E-003	 -1.88322E-003	 -1.10949E-002	  5.30122E-003
  1.63840E+001	 -1.59846E-002	  8.04005E-004	  4.03181E-003	 -9.05475E-003
  1.80224E+001	 -8.23942E-003	 -1.45518E-003	  2.69885E-003	  7.63246E-003
  1.96608E+001	  1.12398E-003	  2.84116E-003	  4.44984E-003	  5.64062E-003
  2.12992E+001	 -9.84418E-003	 -3.27663E-004	 -1.16158E-002	 -2.44486E-003
  2.29376E+001	 -1.52067E-002	 -4.17887E-003	  3.23605E-004	 -2.67392E-003
  2.45760E+001	  4.95654E-003	 -6.20617E-003	  1.41407E-002	  8.76242E-003
  2.62144E+001	  3.90781E-003	 -5.79530E-003	  5.12588E-003	  1.11480E-002
  2.94912E+001	  1.38205E-002	 -1.21096E-002	  2.72775E-003	 -7.96972E-003
  3.27680E+001	  4.30615E-003	 -4.71845E-003	 -8.16269E-003	 -7.17633E-003
  3.60448E+001	  7.32502E-003	 -4.89587E-004	 -3.41523E-003	 -5.28936E-003
  3.93216E+001	  1.83316E-003	 -5.37757E-003	 -8.99053E-005	 -4.42646E-004
  4.25984E+001	 -3.25739E-003	  3.29302E-004	  3.48048E-004	 -1.18818E-002
  4.58752E+001	  2.58238E-003	 -1.98957E-003	 -1.60099E-003	 -7.13736E-003
  4.91520E+001	  1.22189E-003	 -1.49610E-004	 -2.56886E-004	 -2.55249E-003
  5.24288E+001	  1.09757E-003	  2.44526E-004	 -2.10169E-003	 -6.14189E-003
  5.89824E+001	 -7.65233E-003	  5.48490E-003	 -4.19126E-003	 -1.49747E-003
  6.55360E+001	  7.63073E-003	  9.18013E-004	  2.91712E-003	  9.06380E-004
  7.20896E+001	  1.09645E-003	 -8.37393E-004	  3.60731E-003	  6.87569E-006
  7.86432E+001	 -2.72168E-003	  9.16345E-003	  2.37483E-005	 -1.39802E-003
  8.51968E+001	 -5.72828E-003	 -4.78489E-003	 -4.74859E-003	 -1.70426E-003
  9.17504E+001	 -5.03554E-003	 -5.91670E-003	  4.81691E-003	 -3.07638E-003
  9.83040E+001	 -7.12121E-005	  2.03270E-003	 -7.52786E-004	  3.34798E-003
  1.04858E+002	  2.15612E-003	 -2.89151E-003	 -2.17409E-003	  1.89663E-003
  1.17965E+002	 -1.97631E-003	 -1.45157E-003	 -1.78134E-003	 -3.79295E-003
  1.31072E+002	  1.35691E-003	 -1.21669E-003	 -2.95290E-003	  6.47002E-003
  1.44179E+002	 -2.46297E-003	  1.44845E-003	 -3.58003E-003	 -5.70168E-003
  1.57286E+002	  1.02225E-003	 -2.73395E-003	  5.81525E-004	  6.17117E-003
  1.70394E+002	 -1.82744E-003	 -3.06034E-003	  2.12089E-004	 -4.69832E-003
  1.83501E+002	  1.81162E-003	 -1.42743E-004	 -1.37537E-003	 -4.09404E-003
  1.96608E+002	 -3.84060E-003	  7.36208E-003	 -1.91629E-003	  4.13732E-003
  2.09715E+002	 -3.34278E-003	  1.94343E-003	 -1.20753E-003	  2.57943E-003
  2.35930E+002	 -3.26221E-003	 -1.97162E-003	  1.72012E-003	  1.33810E-005
  2.62144E+002	 -5.21246E-004	  2.15331E-003	  1.20781E-003	  8.30666E-003
  2.88358E+002	  3.93644E-003	 -2.78853E-003	  8.92978E-004	 -7.99230E-003
  3.14573E+002	 -8.04917E-004	  1.76101E-003	  1.48673E-003	 -4.26301E-004
  3.40787E+002	  2.64885E-003	 -8.99534E-004	  3.44176E-004	 -2.35696E-003
  3.67002E+002	  1.30187E-003	 -1.32138E-003	 -1.78994E-003	  9.40792E-004
  3.93216E+002	 -2.14731E-003	  6.35146E-003	 -7.14652E-004	  2.82004E-003

"Count Rate"
       0.01311	     121.91772	     128.25012	      93.61267	     128.32642
       0.02621	      99.63989	      69.73267	     101.69983	      86.66992
       0.03932	     111.92322	     109.02405	      89.79797	      80.33752
       0.05243	      95.82520	      89.41650	      97.65625	      99.94507
       0.06554	     100.63171	     122.45178	      79.11682	     100.09766
       0.07864	      93.07861	     102.15759	     113.44910	     126.72424
       0.09175	     130.46265	     106.65894	     116.27197	      89.26392
       0.10486	      83.69446	      67.06238	      87.05139	      93.07861
       0.11796	     110.62622	     116.34827	     101.77612	      91.09497
       0.13107	     108.94775	     108.33740	     101.69983	      95.13855
       0.14418	     100.55542	      99.86877	      98.57178	     106.43005
       0.15729	     108.10852	     108.48999	      86.74622	     136.48987
       0.17039	     101.77612	     110.47363	     102.08130	      75.45471
       0.18350	     132.98035	      92.77344	      96.20667	     124.28284
       0.19661	      91.09497	      76.44653	      88.57727	     130.08118
       0.20972	     141.29639	     108.56628	     105.36194	      87.50916
       0.22282	     102.38647	      89.34021	     100.47913	      89.95056
       0.23593	      98.41919	      89.87427	      95.29114	      66.75720
       0.24904	     116.19568	      99.79248	     118.40820	      78.88794
       0.26214	      97.42737	     111.38916	      90.94238	      93.91785
       0.27525	     107.42188	     114.82239	     105.28564	      76.21765
       0.28836	     114.82239	      94.60449	     100.55542	     111.23657
       0.30147	      76.14136	      82.70264	      70.95337	      80.94788
       0.31457	     100.70801	      96.28296	      80.10864	     139.31274
       0.32768	     111.92322	     121.53625	      73.08960	      92.84973
       0.34079	     113.44910	     118.02673	      93.46008	      87.05139
       0.35389	     124.81689	      90.33203	     101.31836	     110.01587
       0.36700	     113.60168	     107.57446	     105.81970	      90.56091
       0.38011	      95.67261	      72.86072	      97.12219	      88.50098
       0.39322	     126.49536	     102.23389	      74.38660	      94.22302
       0.40632	      97.12219	     102.15759	     100.55542	     111.08398
       0.41943	     110.85510	     116.04309	      85.44922	     133.13293
       0.43254	      86.66992	      91.01868	     110.77881	      77.28577
       0.44564	     107.49817	     102.61536	      94.22302	     106.65894
       0.45875	     106.58264	     126.64795	     110.47363	      90.10315
       0.47186	     129.47083	      79.42200	      93.61267	     123.90137
       0.48497	     103.91235	      75.60730	     102.61536	      96.20667
       0.49807	      99.10583	     105.59082	     109.25293	      79.95605
       0.51118	     136.18469	     123.67249	     111.00769	      91.01868
       0.52429	     100.32654	      91.85791	     121.38367	     106.88782
       0.53740	     120.46814	     115.05127	     115.28015	     109.78699
       0.55050	     129.16565	      97.42737	      94.29932	     153.65601
       0.56361	      86.44104	      99.63989	      87.73804	     105.20935
       0.57672	     118.25562	      73.62366	     118.78967	     100.40283
       0.58982	      97.35107	     118.71338	      98.19031	      77.28577
       0.60293	      87.28027	      87.05139	      93.91785	     112.30469
       0.61604	      81.93970	     107.04041	      99.33472	     117.87415
       0.62915	      96.51184	      72.78442	      84.22852	     131.07300
       0.64225	      92.31567	      93.68896	      86.74622	     115.66162
       0.65536	     105.97229	     141.22009	      73.54736	      80.71899
       0.66847	      80.56641	     107.57446	     103.22571	     120.54443
       0.68157	     104.29382	      92.92603	     107.95593	      97.88513
       0.69468	      94.07043	      97.27478	      99.79248	      84.22852
       0.70779	     117.95044	     105.43823	      92.01050	      86.28845
       0.72090	      99.71619	     123.74878	     102.76794	     114.51721
       0.73400	      72.17407	     124.35913	     106.65894	      97.04590
       0.74711	     104.06494	      97.04590	     103.83606	      95.74890
