ALV-7004/USB-FAST
Date :	"3/14/2024"
Time :	"12:36:59 PM"
Samplename : 	""
SampMemo(0) : 	""
SampMemo(1) : 	""
SampMemo(2) : 	""
SampMemo(3) : 	""
SampMemo(4) : 	""
SampMemo(5) : 	""
SampMemo(6) : 	""
SampMemo(7) : 	""
SampMemo(8) : 	""
SampMemo(9) : 	""
Temperature [K] :	     298.16000
Viscosity [cp]  :	       0.89000
Refractive Index:	       1.33200
Wavelength [nm] :	       0.00000
Angle [°]       :	       0.00000
Duration [s]    :	         1
FloatDur [ms]   :	          944
Stop TP [ms]   :	      4050
Runs            :	         1
Mode            :	"A-CH0+1  A-CH2+3 "
MeanCR0 [kHz]   :	     148.16178
MeanCR1 [kHz]   :	     141.10459
MeanCR2 [kHz]   :	     138.42689
MeanCR3 [kHz]   :	     137.42023

"Correlation"
  3.12500E-006	 -1.00000E+000	 -1.00000E+000	 -1.00000E+000	 -1.00000E+000
  6.25000E-006	 -1.00000E+000	 -1.00000E+000	 -1.00000E+000	 -1.00000E+000
  9.37500E-006	 -1.00000E+000	 -1.00000E+000	 -1.00000E+000	 -1.00000E+000
  1.25000E-005	 -1.00000E+000	 -1.00000E+000	 -1.00000E+000	 -1.00000E+000
  1.56250E-005	 -1.00000E+000	 -1.00000E+000	 -1.00000E+000	 -1.00000E+000
  1.87500E-005	 -1.00000E+000	 -1.00000E+000	 -1.00000E+000	 -1.00000E+000
  2.18750E-005	 -8.60980E-001	 -4.20962E-001	 -3.80652E-001	 -9.46132E-001
  2.50000E-005	  4.79250E+000	  5.55676E+000	  6.13135E+000	  1.03122E+001
  2.81250E-005	  1.76496E+000	  1.17991E+000	  1.22965E+000	  3.66852E+000
  3.12500E-005	  4.36541E-001	  6.86024E-001	  7.51870E-001	  2.48344E+000
  3.43750E-005	  8.84495E-001	  3.96505E-001	  7.34174E-001	  2.01658E+000
  3.75000E-005	  6.21901E-001	  8.90390E-001	  6.81087E-001	  1.76520E+000
  4.06250E-005	  5.44668E-001	  4.47596E-001	  7.69565E-001	  1.56769E+000
  4.37500E-005	  6.06455E-001	  6.51963E-001	  7.69565E-001	  1.65747E+000
  4.68750E-005	  6.06455E-001	  8.22268E-001	  7.16478E-001	  1.01106E+000
  5.00000E-005	  4.67434E-001	  6.51963E-001	  7.16478E-001	  1.04697E+000
  5.62500E-005	  6.45071E-001	  3.96504E-001	  7.87261E-001	  1.09186E+000
  6.25000E-005	  5.13775E-001	  4.64627E-001	  5.66065E-001	  8.13542E-001
  6.87500E-005	  4.44265E-001	  5.49779E-001	  6.72239E-001	  8.76387E-001
  7.50000E-005	  6.52795E-001	  6.17902E-001	  6.10304E-001	  8.58431E-001
  8.12500E-005	  6.75965E-001	  7.11569E-001	  4.68739E-001	  8.04564E-001
  8.75000E-005	  6.06455E-001	  4.39081E-001	  6.63391E-001	  6.96829E-001
  9.37500E-005	  4.05648E-001	  4.13535E-001	  4.15652E-001	  6.87851E-001
  1.00000E-004	  4.98328E-001	  3.92247E-001	  6.32424E-001	  7.10295E-001
  1.12500E-004	  5.09913E-001	  3.32640E-001	  6.01456E-001	  7.37229E-001
  1.25000E-004	  5.44668E-001	  4.51854E-001	  6.05880E-001	  5.75626E-001
  1.37500E-004	  5.52391E-001	  4.51854E-001	  4.33348E-001	  4.81358E-001
  1.50000E-004	  4.24956E-001	  6.26417E-001	  5.39522E-001	  6.33983E-001
  1.62500E-004	  5.33083E-001	  3.79474E-001	  4.82011E-001	  5.84604E-001
  1.75000E-004	  6.29624E-001	  3.15609E-001	  4.37772E-001	  7.05806E-001
  1.87500E-004	  5.56253E-001	  4.73142E-001	  5.08554E-001	  6.78873E-001
  2.00000E-004	  5.07982E-001	  4.71013E-001	  4.15652E-001	  5.62159E-001
  2.25000E-004	  4.57780E-001	  6.09386E-001	  5.68277E-001	  5.68893E-001
  2.50000E-004	  5.15705E-001	  4.26307E-001	  5.37309E-001	  5.26247E-001
  2.75000E-004	  4.71296E-001	  5.09331E-001	  4.99706E-001	  5.01558E-001
  3.00000E-004	  4.65503E-001	  4.85914E-001	  5.39521E-001	  4.38713E-001
  3.25000E-004	  4.71296E-001	  6.09386E-001	  4.53255E-001	  6.16027E-001
  3.50000E-004	  5.13774E-001	  4.22050E-001	  6.01456E-001	  5.28492E-001
  3.75000E-004	  4.79019E-001	  3.90118E-001	  4.42195E-001	  4.23001E-001
  4.00000E-004	  4.72261E-001	  3.66700E-001	  5.43945E-001	  4.84724E-001
  4.50000E-004	  4.84811E-001	  4.41209E-001	  4.93070E-001	  5.24002E-001
  5.00000E-004	  4.70330E-001	  4.48659E-001	  5.38415E-001	  5.57670E-001
  5.50000E-004	  4.95430E-001	  4.80592E-001	  4.99706E-001	  5.00435E-001
  6.00000E-004	  4.10474E-001	  4.65690E-001	  4.80904E-001	  4.90335E-001
  6.50000E-004	  5.34047E-001	  4.50788E-001	  4.57678E-001	  5.48692E-001
  7.00000E-004	  4.73226E-001	  4.57175E-001	  5.12977E-001	  4.09534E-001
  7.50000E-004	  4.96396E-001	  4.20995E-001	  4.94176E-001	  4.80235E-001
  8.00000E-004	  4.72742E-001	  4.50266E-001	  4.51594E-001	  4.66206E-001
  9.00000E-004	  4.77086E-001	  4.27381E-001	  4.43852E-001	  4.83600E-001
  1.00000E-003	  5.25840E-001	  5.16803E-001	  5.04128E-001	  4.84723E-001
  1.10000E-003	  4.62605E-001	  4.75291E-001	  4.81456E-001	  5.43640E-001
  1.20000E-003	  4.54399E-001	  4.48148E-001	  4.54912E-001	  5.41396E-001
  1.30000E-003	  5.05083E-001	  4.88064E-001	  4.79797E-001	  4.73500E-001
  1.40000E-003	  4.75638E-001	  4.40708E-001	  5.12423E-001	  4.77428E-001
  1.50000E-003	  4.48607E-001	  4.87010E-001	  5.26801E-001	  4.62278E-001
  1.60000E-003	  4.77084E-001	  4.85943E-001	  5.01084E-001	  5.01273E-001
  1.80000E-003	  5.06057E-001	  4.77428E-001	  4.92789E-001	  5.00712E-001
  2.00000E-003	  4.61406E-001	  4.65453E-001	  4.53815E-001	  4.95943E-001
  2.20000E-003	  4.99782E-001	  4.67582E-001	  4.84229E-001	  4.82476E-001
  2.40000E-003	  4.51521E-001	  4.43111E-001	  4.88930E-001	  4.79390E-001
  2.60000E-003	  4.34385E-001	  4.50839E-001	  4.54368E-001	  4.52175E-001
  2.80000E-003	  4.38981E-001	  4.89957E-001	  4.66257E-001	  5.07726E-001
  3.00000E-003	  4.55393E-001	  4.71330E-001	  5.03596E-001	  4.61434E-001
  3.20000E-003	  4.54664E-001	  4.60946E-001	  4.69466E-001	  4.82611E-001
  3.60000E-003	  4.76869E-001	  4.39924E-001	  4.86056E-001	  4.76018E-001
  4.00000E-003	  4.61060E-001	  4.48971E-001	  4.73751E-001	  4.70687E-001
  4.40000E-003	  4.57440E-001	  4.58163E-001	  4.78590E-001	  4.71950E-001
  4.80000E-003	  4.64801E-001	  4.33558E-001	  4.71263E-001	  4.76719E-001
  5.20000E-003	  4.50078E-001	  4.98357E-001	  4.76240E-001	  4.55958E-001
  5.60000E-003	  4.38504E-001	  4.48328E-001	  4.62277E-001	  4.63673E-001
  6.00000E-003	  4.55037E-001	  4.48993E-001	  4.64489E-001	  4.73493E-001
  6.40000E-003	  4.50501E-001	  4.67079E-001	  4.65480E-001	  4.66200E-001
  7.20000E-003	  4.57209E-001	  4.56501E-001	  4.61943E-001	  4.78053E-001
  8.00000E-003	  4.37539E-001	  4.36010E-001	  4.87301E-001	  4.68935E-001
  8.80000E-003	  4.66633E-001	  4.47397E-001	  4.61034E-001	  4.71671E-001
  9.60000E-003	  4.50160E-001	  4.37019E-001	  4.78592E-001	  4.62833E-001
  1.04000E-002	  4.39299E-001	  4.51655E-001	  4.66149E-001	  4.63043E-001
  1.12000E-002	  4.59694E-001	  4.35688E-001	  4.60895E-001	  4.61220E-001
  1.20000E-002	  4.43523E-001	  4.51057E-001	  4.64352E-001	  4.64867E-001
  1.28000E-002	  4.48230E-001	  4.65241E-001	  4.67591E-001	  4.60580E-001
  1.44000E-002	  4.36464E-001	  4.50549E-001	  4.75713E-001	  4.46973E-001
  1.60000E-002	  4.30953E-001	  4.49484E-001	  4.62407E-001	  4.65408E-001
  1.76000E-002	  4.22656E-001	  4.42942E-001	  4.45965E-001	  4.54151E-001
  1.92000E-002	  4.27323E-001	  4.30013E-001	  4.54077E-001	  4.58570E-001
  2.08000E-002	  4.44591E-001	  4.25400E-001	  4.46012E-001	  4.48645E-001
  2.24000E-002	  4.47709E-001	  4.25367E-001	  4.42878E-001	  4.48400E-001
  2.40000E-002	  4.26830E-001	  4.43052E-001	  4.48339E-001	  4.50118E-001
  2.56000E-002	  4.23318E-001	  4.26096E-001	  4.47284E-001	  4.48006E-001
  2.88000E-002	  4.20502E-001	  4.21360E-001	  4.35539E-001	  4.39888E-001
  3.20000E-002	  4.17575E-001	  4.22818E-001	  4.34184E-001	  4.23738E-001
  3.52000E-002	  4.09399E-001	  4.14472E-001	  4.35636E-001	  4.33382E-001
  3.84000E-002	  4.11546E-001	  4.10335E-001	  4.20082E-001	  4.20967E-001
  4.16000E-002	  4.02388E-001	  3.99074E-001	  4.11182E-001	  4.16864E-001
  4.48000E-002	  3.94463E-001	  3.95136E-001	  4.10895E-001	  4.16391E-001
  4.80000E-002	  3.89594E-001	  3.80575E-001	  4.12152E-001	  3.94191E-001
  5.12000E-002	  3.86706E-001	  3.84191E-001	  4.03309E-001	  3.96177E-001
  5.76000E-002	  3.76931E-001	  3.73343E-001	  3.91850E-001	  3.87067E-001
  6.40000E-002	  3.66779E-001	  3.67349E-001	  3.83866E-001	  3.80912E-001
  7.04000E-002	  3.58362E-001	  3.48900E-001	  3.73982E-001	  3.75718E-001
  7.68000E-002	  3.45871E-001	  3.41930E-001	  3.63057E-001	  3.57832E-001
  8.32000E-002	  3.39126E-001	  3.30469E-001	  3.51087E-001	  3.54816E-001
  8.96000E-002	  3.34936E-001	  3.28235E-001	  3.42171E-001	  3.45996E-001
  9.60000E-002	  3.23959E-001	  3.20883E-001	  3.25379E-001	  3.37157E-001
  1.02400E-001	  3.17910E-001	  3.13734E-001	  3.27699E-001	  3.25393E-001
  1.15200E-001	  3.04333E-001	  2.96310E-001	  3.06773E-001	  3.16614E-001
  1.28000E-001	  2.83267E-001	  2.79618E-001	  2.88369E-001	  2.95723E-001
  1.40800E-001	  2.73893E-001	  2.64416E-001	  2.76794E-001	  2.81492E-001
  1.53600E-001	  2.60581E-001	  2.52636E-001	  2.62954E-001	  2.72554E-001
  1.66400E-001	  2.44942E-001	  2.43799E-001	  2.47535E-001	  2.58612E-001
  1.79200E-001	  2.33027E-001	  2.30956E-001	  2.34711E-001	  2.44003E-001
  1.92000E-001	  2.17697E-001	  2.17011E-001	  2.26561E-001	  2.37427E-001
  2.04800E-001	  2.09641E-001	  2.05246E-001	  2.17986E-001	  2.24643E-001
  2.30400E-001	  1.92585E-001	  1.90048E-001	  2.00800E-001	  2.02112E-001
  2.56000E-001	  1.73718E-001	  1.72610E-001	  1.83779E-001	  1.85818E-001
  2.81600E-001	  1.58525E-001	  1.58844E-001	  1.67440E-001	  1.68555E-001
  3.07200E-001	  1.48211E-001	  1.46959E-001	  1.56107E-001	  1.58836E-001
  3.32800E-001	  1.36610E-001	  1.38589E-001	  1.46126E-001	  1.46772E-001
  3.58400E-001	  1.25621E-001	  1.29420E-001	  1.37317E-001	  1.33782E-001
  3.84000E-001	  1.18430E-001	  1.11348E-001	  1.24234E-001	  1.23083E-001
  4.09600E-001	  1.10005E-001	  1.04877E-001	  1.16752E-001	  1.15242E-001
  4.60800E-001	  9.79378E-002	  9.20025E-002	  9.85005E-002	  1.00253E-001
  5.12000E-001	  8.56551E-002	  7.74949E-002	  8.87130E-002	  8.52908E-002
  5.63200E-001	  7.89838E-002	  6.67093E-002	  7.52120E-002	  7.48463E-002
  6.14400E-001	  7.03906E-002	  5.59114E-002	  6.57210E-002	  6.49224E-002
  6.65600E-001	  6.35031E-002	  4.73963E-002	  6.10796E-002	  5.49868E-002
  7.16800E-001	  5.46150E-002	  4.02691E-002	  5.33114E-002	  4.57694E-002
  7.68000E-001	  4.82788E-002	  3.39165E-002	  4.88967E-002	  4.09193E-002
  8.19200E-001	  4.35426E-002	  2.84442E-002	  4.61051E-002	  3.85608E-002
  9.21600E-001	  3.74712E-002	  2.44767E-002	  4.21943E-002	  3.64252E-002
  1.02400E+000	  2.91132E-002	  1.80017E-002	  3.06118E-002	  3.17735E-002
  1.12640E+000	  2.57096E-002	  1.46815E-002	  2.23211E-002	  2.64957E-002
  1.22880E+000	  1.93122E-002	  1.11162E-002	  1.93151E-002	  1.73931E-002
  1.33120E+000	  1.09264E-002	  1.11347E-002	  1.87266E-002	  1.10940E-002
  1.43360E+000	  9.14565E-003	  8.26694E-003	  1.64636E-002	  4.80035E-003
  1.53600E+000	  7.95390E-003	  1.36056E-003	  1.57198E-002	  6.71238E-003
  1.63840E+000	  2.63324E-003	 -5.26014E-004	  1.43094E-002	  9.81174E-003
  1.84320E+000	  4.05226E-003	  7.84826E-004	  9.71619E-003	  1.07242E-002
  2.04800E+000	  3.98261E-003	  3.46284E-003	  6.79923E-003	  5.41525E-003
  2.25280E+000	  2.63923E-003	 -3.09527E-003	  5.74218E-003	  9.57098E-003
  2.45760E+000	 -3.96402E-003	 -4.78727E-003	 -1.19349E-003	  4.06232E-003
  2.66240E+000	 -3.47762E-004	  1.69488E-003	  2.14473E-004	  5.23737E-003
  2.86720E+000	  1.74879E-003	  2.37644E-004	  7.51938E-004	  1.30829E-003
  3.07200E+000	  5.41375E-003	 -8.31641E-003	 -1.41744E-003	 -2.83404E-003
  3.27680E+000	  6.14908E-003	 -5.58174E-003	  6.05329E-004	 -1.99271E-003
  3.68640E+000	  5.84905E-003	  5.71185E-003	  6.24492E-004	 -7.28557E-003
  4.09600E+000	  2.01128E-002	  3.94969E-003	 -1.44445E-003	 -3.90120E-003
  4.50560E+000	  2.37601E-002	 -7.20800E-003	  1.08744E-002	 -7.08606E-003
  4.91520E+000	  1.68636E-002	 -7.90507E-003	  7.63279E-003	  9.45481E-004
  5.32480E+000	  1.97775E-003	 -1.01056E-002	 -1.57409E-003	  6.61257E-003
  5.73440E+000	 -1.58408E-003	 -5.53889E-003	 -1.08081E-003	  7.06091E-003
  6.14400E+000	  7.78694E-003	  8.69275E-003	 -2.08829E-003	  3.04849E-003
  6.55360E+000	  6.56109E-003	  1.05799E-002	 -9.07728E-004	 -2.37930E-003
  7.37280E+000	 -1.58244E-003	 -3.57699E-003	  1.02258E-003	 -4.03056E-003
  8.19200E+000	 -8.46908E-004	  6.15770E-004	  9.71572E-003	 -7.40680E-003
  9.01120E+000	 -2.74038E-003	  2.65709E-003	  1.30499E-002	  8.55432E-003
  9.83040E+000	 -8.39289E-003	  4.64471E-003	  5.93762E-003	  1.79862E-003
  1.06496E+001	 -1.21441E-002	 -6.22825E-003	  2.46595E-003	 -5.24547E-003
  1.14688E+001	 -1.09116E-002	 -8.27074E-003	 -1.74053E-003	 -9.73676E-003
  1.22880E+001	 -9.22855E-004	  3.78442E-003	 -8.86820E-004	  1.00694E-002
  1.31072E+001	 -6.91283E-004	 -3.14291E-003	  1.36922E-003	 -5.68752E-003
  1.47456E+001	 -7.67064E-003	  1.66118E-003	  2.15450E-003	 -1.33248E-002
  1.63840E+001	 -1.37836E-002	  1.87110E-003	  1.31565E-003	  1.97364E-003
  1.80224E+001	  7.35886E-004	 -2.01714E-004	 -8.66211E-003	 -7.58616E-003
  1.96608E+001	  2.33720E-003	  1.17709E-003	 -6.50588E-003	 -2.97780E-003
  2.12992E+001	  8.21763E-004	  4.92700E-003	 -3.40384E-003	  1.62597E-002
  2.29376E+001	  3.41037E-003	  1.54499E-002	  2.21974E-003	 -1.16137E-003
  2.45760E+001	  1.24750E-003	  2.34129E-003	  1.49032E-003	  4.64822E-003
  2.62144E+001	 -2.61922E-003	  1.41960E-003	 -1.94539E-003	  1.26636E-002
  2.94912E+001	 -7.09531E-003	 -1.78364E-003	  1.62892E-002	 -3.76720E-003
  3.27680E+001	  6.74344E-004	  1.76765E-003	  2.53908E-003	 -5.00222E-003
  3.60448E+001	 -6.40608E-003	 -8.22453E-004	  8.88485E-003	 -1.56950E-003
  3.93216E+001	 -1.05261E-002	  1.41081E-003	  7.66232E-003	 -5.02881E-003
  4.25984E+001	 -2.99761E-003	 -6.95354E-004	  8.20677E-004	 -5.01979E-004
  4.58752E+001	 -2.95839E-003	  8.35462E-003	  1.23471E-003	 -1.45600E-003
  4.91520E+001	 -8.74600E-003	  3.31780E-003	  7.47250E-003	 -1.59550E-003
  5.24288E+001	 -3.74792E-003	 -5.84183E-004	 -2.15481E-003	  3.08533E-003
  5.89824E+001	 -3.90088E-003	 -1.42991E-003	 -2.38812E-004	 -4.39889E-003
  6.55360E+001	  1.04891E-003	  5.24283E-003	  2.30623E-003	 -2.52533E-003
  7.20896E+001	  5.37734E-003	  3.48457E-004	  6.81686E-003	  5.57980E-003
  7.86432E+001	 -3.27834E-004	 -4.68760E-003	  1.07088E-002	 -4.89681E-004
  8.51968E+001	  6.50312E-003	 -6.36219E-003	  7.95808E-003	 -1.55196E-003
  9.17504E+001	  1.94670E-003	 -6.64589E-004	  1.21806E-003	 -2.74999E-005
  9.83040E+001	 -2.69896E-003	 -1.29622E-003	 -7.43266E-003	 -1.86208E-003
  1.04858E+002	 -1.68042E-003	 -1.97720E-003	 -6.76015E-003	  1.11185E-003
  1.17965E+002	 -4.02768E-003	 -3.11794E-003	  3.75941E-003	 -4.43615E-003
  1.31072E+002	 -2.91353E-003	 -4.79208E-003	 -5.39529E-003	 -9.88065E-004
  1.44179E+002	  9.05849E-004	 -5.05265E-003	  2.30825E-003	  2.78361E-003
  1.57286E+002	  6.51517E-003	  1.10708E-003	  9.17244E-003	 -1.87035E-003
  1.70394E+002	  8.16384E-004	  2.14100E-003	 -1.05921E-003	  3.62403E-003
  1.83501E+002	  5.04459E-004	  2.62768E-003	 -5.59405E-003	 -4.33746E-003
  1.96608E+002	 -4.22561E-003	  2.08209E-004	  1.18815E-003	  2.39198E-003
  2.09715E+002	 -1.39312E-003	  9.05807E-004	 -1.02141E-002	 -3.58139E-003
  2.35930E+002	  2.75774E-003	  1.44560E-004	  3.83537E-003	  3.19410E-005
  2.62144E+002	 -3.27581E-003	  9.45770E-004	 -6.50291E-003	 -3.52768E-003
  2.88358E+002	 -1.05467E-003	 -5.53407E-003	 -4.13770E-003	  9.02571E-004
  3.14573E+002	  6.81328E-004	 -4.40680E-003	  5.72380E-003	 -1.68320E-003
  3.40787E+002	 -2.03737E-003	 -1.10489E-003	 -5.04193E-003	  4.73027E-003
  3.67002E+002	 -1.48671E-003	 -5.71799E-004	 -1.92495E-003	  4.62435E-004
  3.93216E+002	  1.80399E-003	 -6.72036E-004	 -7.63456E-004	 -5.84692E-004

"Count Rate"
       0.01311	     153.88489	     144.88220	     108.94775	     191.65039
       0.02621	     109.02405	     117.72156	     138.93127	     135.95581
       0.03932	     160.21729	     139.92310	     139.23645	     161.74316
       0.05243	     162.50610	     143.58521	     116.50085	     148.77319
       0.06554	     167.99927	     113.14392	     135.65063	     100.40283
       0.07864	     217.89551	     165.55786	     150.60425	     115.20386
       0.09175	     126.19019	     150.98572	     135.72693	     128.02124
       0.10486	     140.15198	     125.96130	     142.59338	     131.60706
       0.11796	     138.24463	     159.83582	     135.95581	     130.08118
       0.13107	     138.01575	     108.87146	     123.67249	     122.60437
       0.14418	     135.57434	     113.60168	     137.17651	     158.99658
       0.15729	     152.35901	     127.71606	     146.78955	     131.45447
       0.17039	     132.21741	     125.19836	      93.30750	     154.80042
       0.18350	     187.68311	     131.37817	     119.70520	     125.35095
       0.19661	     127.41089	      98.95325	     115.43274	     122.90955
       0.20972	     152.66418	     139.00757	     124.51172	     127.63977
       0.22282	     153.50342	     127.71606	     131.07300	     144.27185
       0.23593	     179.51965	     150.75684	     148.08655	     146.86584
       0.24904	     114.51721	     116.88232	     143.58521	     155.25818
       0.26214	     146.78955	     148.62061	     129.31824	     126.03760
       0.27525	     128.40271	     166.01563	     148.46802	     159.53064
       0.28836	     128.17383	     164.33716	     129.62341	     128.32642
       0.30147	     138.62610	     141.22009	     102.15759	     155.56335
       0.31457	     134.58252	     146.25549	     132.52258	     166.01563
       0.32768	     180.35889	     160.36987	     115.20386	     116.80603
       0.34079	     136.71875	     168.38074	     101.31836	     155.63965
       0.35389	     120.92590	     133.74329	     125.19836	     119.01855
       0.36700	     157.54700	     139.69421	     137.78687	     159.68323
       0.38011	     115.73792	     136.03210	     124.81689	     121.15479
       0.39322	     186.76758	     124.89319	     163.72681	     136.03210
       0.40632	     123.44360	     133.05664	     131.22559	     127.41089
       0.41943	     153.35083	     108.87146	     121.00220	     136.48987
       0.43254	     141.75415	     146.10291	     130.46265	      95.90149
       0.44564	     127.63977	     170.51697	     188.52234	     133.97217
       0.45875	     121.38367	     144.27185	      94.75708	     132.29370
       0.47186	     142.28821	     119.85779	     163.72681	     148.62061
       0.48497	     175.39978	     132.59888	     101.24207	     137.17651
       0.49807	     137.55798	     161.89575	     117.72156	     114.59351
       0.51118	     154.19006	     146.33179	     172.57690	     151.21460
       0.52429	     121.07849	     168.99109	     150.52795	     117.95044
       0.53740	     150.68054	     135.65063	     141.60156	     114.59351
       0.55050	     158.00476	     148.77319	     133.43811	     109.25293
       0.56361	     170.97473	     113.14392	     143.12744	     131.53076
       0.57672	     143.66150	     127.71606	     119.47632	     141.29639
       0.58982	     149.61243	     132.52258	     212.47864	     113.90686
       0.60293	     132.14111	     118.71338	     174.40796	     116.19568
       0.61604	     169.75403	     135.72693	     145.11108	     140.76233
       0.62915	     160.36987	     125.65613	     155.86853	     130.31006
       0.64225	     129.77600	     126.95313	     124.58801	     159.30176
       0.65536	     144.04297	     119.70520	     158.46252	     158.15735
       0.66847	     109.93958	     141.67786	     177.53601	     145.64514
       0.68157	     168.83850	     146.17920	     171.27991	     140.38086
       0.69468	     156.70776	     126.80054	     165.25269	     121.84143
       0.70779	     136.94763	     172.80579	     144.57703	     112.53357
       0.72090	     176.23901	     133.66699	     103.37830	     165.63416
       0.73400	     139.46533	     103.60718	     136.03210	      90.86609
       0.74711	     112.99133	     146.48438	     154.26636	     148.62061
