ALV-7004/USB-FAST
Date :	"3/14/2024"
Time :	"12:35:52 PM"
Samplename : 	""
SampMemo(0) : 	""
SampMemo(1) : 	""
SampMemo(2) : 	""
SampMemo(3) : 	""
SampMemo(4) : 	""
SampMemo(5) : 	""
SampMemo(6) : 	""
SampMemo(7) : 	""
SampMemo(8) : 	""
SampMemo(9) : 	""
Temperature [K] :	     298.16000
Viscosity [cp]  :	       0.89000
Refractive Index:	       1.33200
Wavelength [nm] :	       0.00000
Angle [°]       :	       0.00000
Duration [s]    :	         1
FloatDur [ms]   :	          944
Stop TP [ms]   :	      3926
Runs            :	         1
Mode            :	"A-CH0+1  A-CH2+3 "
MeanCR0 [kHz]   :	     129.21969
MeanCR1 [kHz]   :	     117.86037
MeanCR2 [kHz]   :	     119.11710
MeanCR3 [kHz]   :	     120.16932

"Correlation"
  3.12500E-006	 -1.00000E+000	 -1.00000E+000	 -1.00000E+000	 -1.00000E+000
  6.25000E-006	 -1.00000E+000	 -1.00000E+000	 -1.00000E+000	 -1.00000E+000
  9.37500E-006	 -1.00000E+000	 -1.00000E+000	 -1.00000E+000	 -1.00000E+000
  1.25000E-005	 -1.00000E+000	 -1.00000E+000	 -1.00000E+000	 -1.00000E+000
  1.56250E-005	 -1.00000E+000	 -1.00000E+000	 -1.00000E+000	 -1.00000E+000
  1.87500E-005	 -1.00000E+000	 -1.00000E+000	 -1.00000E+000	 -1.00000E+000
  2.18750E-005	 -9.59386E-001	 -3.40918E-001	 -2.11370E-001	 -1.00000E+000
  2.50000E-005	  6.02629E+000	  6.20108E+000	  6.33665E+000	  1.19381E+001
  2.81250E-005	  1.63994E+000	  1.73397E+000	  1.38979E+000	  4.42416E+000
  3.12500E-005	  7.05805E-001	  9.77247E-001	  7.68443E-001	  2.71003E+000
  3.43750E-005	  8.68263E-001	  8.55194E-001	  5.77260E-001	  1.67686E+000
  3.75000E-005	  6.44884E-001	  4.89038E-001	  9.11830E-001	  2.05256E+000
  4.06250E-005	  1.01041E+000	  6.35500E-001	  6.48953E-001	  1.79426E+000
  4.37500E-005	  6.44884E-001	  8.06374E-001	  1.15081E+000	  1.46553E+000
  4.68750E-005	  4.21504E-001	  6.59911E-001	  4.57770E-001	  1.32464E+000
  5.00000E-005	  5.53501E-001	  6.11090E-001	  5.17515E-001	  9.84161E-001
  5.62500E-005	  5.43347E-001	  5.98885E-001	  6.37004E-001	  1.21897E+000
  6.25000E-005	  4.62119E-001	  5.74474E-001	  5.65311E-001	  8.90237E-001
  6.87500E-005	  4.62119E-001	  4.89038E-001	  5.89209E-001	  8.08052E-001
  7.50000E-005	  5.33194E-001	  5.01243E-001	  5.53362E-001	  9.60680E-001
  8.12500E-005	  7.05805E-001	  6.47705E-001	  5.65311E-001	  4.20613E-001
  8.75000E-005	  5.53501E-001	  2.81549E-001	  3.86077E-001	  9.13718E-001
  9.37500E-005	  6.04269E-001	  4.28011E-001	  6.48953E-001	  6.08462E-001
  1.00000E-004	  5.89038E-001	  6.11090E-001	  6.31030E-001	  5.49759E-001
  1.12500E-004	  6.90574E-001	  4.52422E-001	  5.17515E-001	  6.67165E-001
  1.25000E-004	  5.28117E-001	  5.68371E-001	  5.41413E-001	  5.73240E-001
  1.37500E-004	  5.07810E-001	  5.19550E-001	  4.15949E-001	  5.55629E-001
  1.50000E-004	  3.35198E-001	  3.97498E-001	  5.83234E-001	  5.73240E-001
  1.62500E-004	  5.23040E-001	  5.19550E-001	  5.77260E-001	  5.08667E-001
  1.75000E-004	  5.83962E-001	  4.95140E-001	  5.59336E-001	  5.84981E-001
  1.87500E-004	  2.08278E-001	  5.92782E-001	  5.41413E-001	  5.79111E-001
  2.00000E-004	  4.62118E-001	  4.95140E-001	  4.36859E-001	  5.43888E-001
  2.25000E-004	  5.15425E-001	  4.37165E-001	  4.36859E-001	  5.02796E-001
  2.50000E-004	  5.28117E-001	  4.98191E-001	  5.86221E-001	  5.23342E-001
  2.75000E-004	  5.12886E-001	  5.50063E-001	  5.68298E-001	  6.49554E-001
  3.00000E-004	  5.07809E-001	  6.56859E-001	  5.05566E-001	  5.17472E-001
  3.25000E-004	  5.83961E-001	  4.09703E-001	  4.12961E-001	  4.05936E-001
  3.50000E-004	  4.46888E-001	  4.15806E-001	  5.26476E-001	  6.64230E-001
  3.75000E-004	  5.20501E-001	  5.92781E-001	  4.81668E-001	  4.70510E-001
  4.00000E-004	  5.12886E-001	  4.89036E-001	  4.29391E-001	  4.66106E-001
  4.50000E-004	  5.67461E-001	  4.47844E-001	  5.35437E-001	  4.44093E-001
  5.00000E-004	  4.78617E-001	  4.64626E-001	  5.35437E-001	  4.52898E-001
  5.50000E-004	  4.67194E-001	  4.66152E-001	  4.36859E-001	  5.01328E-001
  6.00000E-004	  5.16693E-001	  4.60049E-001	  4.99591E-001	  5.89383E-001
  6.50000E-004	  4.26580E-001	  5.91255E-001	  4.84654E-001	  4.92523E-001
  7.00000E-004	  5.58577E-001	  4.87511E-001	  4.62250E-001	  4.92523E-001
  7.50000E-004	  5.05270E-001	  4.28010E-001	  4.81667E-001	  4.79315E-001
  8.00000E-004	  4.76077E-001	  4.17330E-001	  4.65236E-001	  5.24088E-001
  9.00000E-004	  4.71001E-001	  5.00478E-001	  5.63068E-001	  4.73456E-001
  1.00000E-003	  4.74174E-001	  5.09631E-001	  4.98842E-001	  5.38030E-001
  1.10000E-003	  4.74174E-001	  4.90561E-001	  4.54781E-001	  5.03541E-001
  1.20000E-003	  5.17961E-001	  4.50894E-001	  5.08551E-001	  5.16750E-001
  1.30000E-003	  4.67828E-001	  5.16497E-001	  4.61502E-001	  4.96204E-001
  1.40000E-003	  5.07173E-001	  5.11157E-001	  5.12285E-001	  4.87398E-001
  1.50000E-003	  4.41175E-001	  5.00478E-001	  4.74945E-001	  5.13815E-001
  1.60000E-003	  4.30067E-001	  5.35946E-001	  4.75689E-001	  4.73479E-001
  1.80000E-003	  4.78296E-001	  4.66148E-001	  4.71208E-001	  4.60638E-001
  2.00000E-003	  4.70364E-001	  4.83693E-001	  4.86144E-001	  4.98416E-001
  2.20000E-003	  4.31019E-001	  4.52799E-001	  4.93986E-001	  4.40079E-001
  2.40000E-003	  4.95430E-001	  4.43645E-001	  4.61500E-001	  4.99883E-001
  2.60000E-003	  4.79883E-001	  4.71106E-001	  4.64126E-001	  5.16027E-001
  2.80000E-003	  4.48153E-001	  4.47459E-001	  4.55165E-001	  4.76769E-001
  3.00000E-003	  4.80834E-001	  4.73776E-001	  4.51431E-001	  4.85941E-001
  3.20000E-003	  4.89409E-001	  4.71483E-001	  4.93634E-001	  4.90562E-001
  3.60000E-003	  4.82428E-001	  4.58896E-001	  4.71229E-001	  5.00468E-001
  4.00000E-003	  4.89567E-001	  4.41923E-001	  4.82432E-001	  5.06325E-001
  4.40000E-003	  4.62914E-001	  4.64617E-001	  4.91767E-001	  5.07976E-001
  4.80000E-003	  4.43717E-001	  4.62520E-001	  4.75337E-001	  4.68534E-001
  5.20000E-003	  4.65453E-001	  4.86358E-001	  4.93820E-001	  4.82097E-001
  5.60000E-003	  4.80048E-001	  4.60040E-001	  4.83365E-001	  4.85032E-001
  6.00000E-003	  4.70212E-001	  4.67859E-001	  4.69362E-001	  5.04478E-001
  6.40000E-003	  4.67438E-001	  4.54990E-001	  4.85609E-001	  4.87629E-001
  7.20000E-003	  4.48479E-001	  4.72153E-001	  4.85702E-001	  4.78077E-001
  8.00000E-003	  4.72740E-001	  4.71391E-001	  4.67592E-001	  5.01834E-001
  8.80000E-003	  4.56876E-001	  4.65669E-001	  4.79994E-001	  4.87249E-001
  9.60000E-003	  4.59493E-001	  4.60997E-001	  4.73006E-001	  4.99174E-001
  1.04000E-002	  4.59890E-001	  4.63286E-001	  4.64324E-001	  4.92098E-001
  1.12000E-002	  4.65363E-001	  4.47743E-001	  4.79554E-001	  4.71276E-001
  1.20000E-002	  4.40864E-001	  4.44406E-001	  4.79180E-001	  4.81182E-001
  1.28000E-002	  4.38318E-001	  4.43341E-001	  4.63856E-001	  4.90813E-001
  1.44000E-002	  4.45259E-001	  4.44200E-001	  4.70064E-001	  4.68019E-001
  1.60000E-002	  4.41729E-001	  4.65308E-001	  4.60775E-001	  4.70541E-001
  1.76000E-002	  4.56919E-001	  4.44473E-001	  4.49619E-001	  4.65863E-001
  1.92000E-002	  4.47083E-001	  4.34175E-001	  4.47659E-001	  4.63616E-001
  2.08000E-002	  4.27438E-001	  4.49622E-001	  4.66610E-001	  4.62273E-001
  2.24000E-002	  4.30294E-001	  4.24496E-001	  4.54474E-001	  4.59567E-001
  2.40000E-002	  4.39337E-001	  4.26546E-001	  4.59795E-001	  4.58499E-001
  2.56000E-002	  4.38025E-001	  4.32520E-001	  4.49575E-001	  4.51390E-001
  2.88000E-002	  4.25710E-001	  4.26298E-001	  4.30052E-001	  4.54601E-001
  3.20000E-002	  4.18689E-001	  4.16130E-001	  4.33297E-001	  4.60150E-001
  3.52000E-002	  4.25463E-001	  4.10563E-001	  4.29049E-001	  4.51219E-001
  3.84000E-002	  4.08647E-001	  4.12910E-001	  4.22512E-001	  4.34154E-001
  4.16000E-002	  4.12296E-001	  3.97593E-001	  4.19467E-001	  4.30324E-001
  4.48000E-002	  3.98615E-001	  3.94590E-001	  4.23645E-001	  4.18068E-001
  4.80000E-002	  3.87153E-001	  3.92492E-001	  4.03514E-001	  4.09134E-001
  5.12000E-002	  3.89507E-001	  3.85437E-001	  3.98475E-001	  4.10605E-001
  5.76000E-002	  3.81098E-001	  3.83613E-001	  3.86186E-001	  4.04890E-001
  6.40000E-002	  3.74139E-001	  3.68202E-001	  3.78952E-001	  3.98651E-001
  7.04000E-002	  3.51790E-001	  3.52861E-001	  3.70562E-001	  3.83283E-001
  7.68000E-002	  3.48428E-001	  3.50823E-001	  3.56872E-001	  3.69556E-001
  8.32000E-002	  3.30134E-001	  3.32205E-001	  3.55146E-001	  3.58376E-001
  8.96000E-002	  3.23292E-001	  3.33587E-001	  3.37138E-001	  3.54740E-001
  9.60000E-002	  3.20974E-001	  3.16256E-001	  3.32633E-001	  3.43685E-001
  1.02400E-001	  3.12760E-001	  3.05084E-001	  3.23747E-001	  3.29131E-001
  1.15200E-001	  2.84593E-001	  2.93485E-001	  3.08129E-001	  3.12641E-001
  1.28000E-001	  2.72853E-001	  2.71787E-001	  2.90445E-001	  2.98458E-001
  1.40800E-001	  2.52560E-001	  2.59190E-001	  2.67312E-001	  2.86024E-001
  1.53600E-001	  2.42203E-001	  2.40563E-001	  2.57961E-001	  2.70575E-001
  1.66400E-001	  2.27636E-001	  2.31895E-001	  2.48384E-001	  2.54646E-001
  1.79200E-001	  2.17432E-001	  2.13553E-001	  2.38520E-001	  2.40775E-001
  1.92000E-001	  2.04957E-001	  2.03025E-001	  2.26510E-001	  2.27213E-001
  2.04800E-001	  1.91015E-001	  1.95142E-001	  2.12434E-001	  2.14519E-001
  2.30400E-001	  1.71623E-001	  1.72288E-001	  1.94807E-001	  1.97458E-001
  2.56000E-001	  1.53949E-001	  1.53038E-001	  1.79272E-001	  1.76628E-001
  2.81600E-001	  1.41358E-001	  1.36988E-001	  1.62437E-001	  1.61813E-001
  3.07200E-001	  1.26056E-001	  1.21779E-001	  1.48027E-001	  1.46007E-001
  3.32800E-001	  1.12784E-001	  1.07695E-001	  1.34785E-001	  1.35352E-001
  3.58400E-001	  1.02329E-001	  9.74985E-002	  1.25207E-001	  1.20430E-001
  3.84000E-001	  9.28832E-002	  8.90780E-002	  1.11381E-001	  1.10562E-001
  4.09600E-001	  8.21637E-002	  7.74862E-002	  1.04673E-001	  9.88485E-002
  4.60800E-001	  6.83286E-002	  6.46405E-002	  9.28230E-002	  8.16625E-002
  5.12000E-001	  5.56317E-002	  5.33647E-002	  7.91876E-002	  6.82867E-002
  5.63200E-001	  4.35206E-002	  4.79410E-002	  6.78653E-002	  6.01855E-002
  6.14400E-001	  3.81504E-002	  4.72392E-002	  6.02612E-002	  5.14570E-002
  6.65600E-001	  3.19586E-002	  3.81506E-002	  5.58820E-002	  4.21280E-002
  7.16800E-001	  2.38368E-002	  3.39112E-002	  5.26177E-002	  3.54420E-002
  7.68000E-001	  1.80552E-002	  2.60231E-002	  4.85099E-002	  2.88266E-002
  8.19200E-001	  1.53009E-002	  2.45454E-002	  4.69403E-002	  2.22035E-002
  9.21600E-001	  1.35862E-002	  1.76994E-002	  4.25319E-002	  1.59842E-002
  1.02400E+000	  1.27210E-002	  1.38098E-002	  3.46281E-002	  8.83466E-003
  1.12640E+000	  1.09386E-002	  7.90806E-003	  2.19266E-002	  9.08049E-003
  1.22880E+000	  7.19557E-003	  6.43494E-003	  1.76110E-002	  8.07545E-003
  1.33120E+000	  5.79316E-003	  6.30924E-003	  1.82647E-002	  8.81961E-003
  1.43360E+000	  4.84732E-003	  1.00067E-003	  1.62690E-002	  7.79908E-003
  1.53600E+000	  1.32442E-003	  1.98319E-003	  2.07819E-002	  5.51505E-003
  1.63840E+000	 -2.13604E-003	  2.39402E-003	  2.19801E-002	  1.26901E-003
  1.84320E+000	 -8.77964E-004	  1.98848E-003	  2.41114E-002	  4.01887E-003
  2.04800E+000	 -6.10224E-003	  5.02196E-003	  1.39691E-002	  2.42495E-003
  2.25280E+000	 -1.00079E-002	  7.55381E-003	  1.10202E-002	  8.54472E-003
  2.45760E+000	 -1.31288E-002	  9.65570E-003	  1.65094E-002	  1.11696E-002
  2.66240E+000	 -5.93572E-003	  5.32144E-003	  1.97459E-002	  7.58281E-003
  2.86720E+000	 -1.37263E-003	  8.69908E-003	  2.63459E-002	  5.98219E-003
  3.07200E+000	  3.61384E-004	  6.45932E-003	  2.29443E-002	  7.99097E-003
  3.27680E+000	  4.66840E-003	 -5.76765E-003	  2.34391E-002	  1.33729E-002
  3.68640E+000	  7.72082E-003	 -5.14160E-003	  1.80090E-002	  6.50960E-003
  4.09600E+000	 -2.69565E-003	 -1.09214E-002	  9.68789E-003	 -5.13479E-003
  4.50560E+000	 -8.69393E-003	 -9.52504E-003	  3.48602E-003	 -7.83645E-003
  4.91520E+000	 -8.60502E-003	 -1.25064E-002	  8.09305E-003	 -7.45511E-003
  5.32480E+000	 -1.59599E-003	  8.88216E-003	  4.21121E-003	  2.98009E-003
  5.73440E+000	  4.73975E-005	  1.44558E-002	  4.76862E-003	  3.91616E-003
  6.14400E+000	  9.41095E-003	  1.40471E-002	  2.92710E-003	  7.56693E-004
  6.55360E+000	  1.29842E-003	  3.79434E-003	  8.62561E-003	 -3.61078E-003
  7.37280E+000	  3.12700E-003	  1.05982E-002	 -1.27095E-004	  3.55418E-003
  8.19200E+000	  1.36642E-003	  7.63351E-003	  1.04384E-002	  2.02944E-003
  9.01120E+000	 -5.48333E-003	 -6.61783E-003	  5.86588E-003	 -5.49418E-003
  9.83040E+000	 -4.90757E-004	  4.41903E-004	  6.27830E-003	 -2.61641E-005
  1.06496E+001	  2.72754E-003	 -1.12792E-002	  4.53110E-003	 -6.35678E-003
  1.14688E+001	 -3.87301E-003	 -7.74465E-003	 -6.99376E-003	 -1.07242E-002
  1.22880E+001	 -1.78433E-003	 -4.70428E-003	 -5.89632E-003	 -8.21657E-003
  1.31072E+001	 -3.17034E-003	 -1.16660E-003	 -6.59593E-003	  7.26364E-004
  1.47456E+001	 -4.10210E-003	 -3.48274E-003	 -4.61180E-003	 -3.03448E-003
  1.63840E+001	  4.82327E-003	 -4.16000E-003	 -3.99847E-003	 -5.51081E-004
  1.80224E+001	 -7.14495E-003	  3.01587E-003	 -1.75564E-003	 -3.04887E-003
  1.96608E+001	  7.36070E-003	 -2.08507E-003	 -6.60335E-003	 -1.14153E-002
  2.12992E+001	 -5.93144E-003	 -9.56300E-003	  3.14529E-004	 -9.49309E-003
  2.29376E+001	  1.52660E-004	 -5.39068E-003	 -8.25903E-003	  2.66529E-003
  2.45760E+001	  3.85583E-003	 -8.54234E-003	 -4.94945E-004	  1.25551E-002
  2.62144E+001	  6.75207E-003	 -5.64779E-003	 -7.38397E-007	  5.50631E-003
  2.94912E+001	 -1.83003E-003	 -5.21919E-003	 -2.44730E-003	  5.04636E-003
  3.27680E+001	 -3.85589E-003	  2.28926E-003	  3.73745E-003	 -6.02554E-003
  3.60448E+001	  3.21016E-003	  2.67818E-003	  1.58575E-003	 -1.92059E-003
  3.93216E+001	 -8.79486E-004	 -1.56400E-003	 -1.02818E-002	 -1.43573E-003
  4.25984E+001	 -4.39719E-003	  7.46551E-003	  5.90290E-003	  5.56007E-003
  4.58752E+001	  8.40425E-004	  6.90885E-003	  1.79815E-003	  1.12803E-003
  4.91520E+001	 -1.93955E-003	  9.47208E-004	 -1.22355E-003	  1.05394E-003
  5.24288E+001	 -3.75557E-003	  1.73878E-003	 -5.10462E-003	  6.97343E-004
  5.89824E+001	 -3.86657E-005	 -1.00036E-002	 -4.26636E-003	 -4.06126E-003
  6.55360E+001	 -1.84761E-003	 -1.31651E-004	 -1.83612E-003	 -1.17552E-003
  7.20896E+001	 -9.87535E-004	 -2.52035E-003	 -2.24948E-003	 -5.68316E-003
  7.86432E+001	 -2.00194E-003	  1.04679E-003	  4.94190E-003	  4.43902E-003
  8.51968E+001	  4.50118E-004	  3.00849E-003	  9.26441E-003	 -5.92268E-004
  9.17504E+001	  3.85170E-004	 -7.37216E-003	  4.81313E-003	  2.36974E-003
  9.83040E+001	 -9.65217E-003	  4.57361E-003	  6.25085E-003	 -4.20065E-003
  1.04858E+002	  1.08153E-003	 -1.39373E-003	  4.06309E-003	 -5.98001E-003
  1.17965E+002	 -4.55149E-003	 -1.86924E-004	 -5.76460E-003	 -1.79027E-003
  1.31072E+002	  2.62264E-004	  3.90934E-003	 -1.69152E-003	 -1.33106E-003
  1.44179E+002	  1.89151E-003	  1.59833E-003	 -1.22480E-002	 -2.00914E-003
  1.57286E+002	  6.70334E-004	 -3.18332E-003	 -1.09022E-002	 -1.89297E-003
  1.70394E+002	 -7.41492E-004	 -1.74858E-003	 -3.90319E-003	  2.49513E-003
  1.83501E+002	 -7.09483E-004	  3.19096E-003	  2.08079E-003	 -7.38650E-004
  1.96608E+002	 -4.03993E-003	 -1.28646E-003	  4.04692E-003	  1.01978E-003
  2.09715E+002	  7.81402E-004	  8.89593E-005	 -1.57812E-003	  2.75885E-003
  2.35930E+002	  3.01140E-003	  2.01630E-003	 -8.85982E-003	  7.91448E-004
  2.62144E+002	  1.97611E-004	 -1.86478E-003	  3.02314E-004	 -3.28757E-004
  2.88358E+002	  7.74978E-004	  8.30379E-004	  3.41046E-003	  3.21105E-003
  3.14573E+002	  1.32279E-003	 -2.14186E-004	  5.96305E-003	  1.72248E-004
  3.40787E+002	 -2.08044E-003	 -2.23956E-003	  6.89710E-004	 -2.18450E-003
  3.67002E+002	 -1.74589E-003	  1.80535E-003	  3.70551E-003	 -1.08971E-004
  3.93216E+002	 -1.20945E-003	 -1.82076E-003	  6.30120E-003	 -4.70517E-004

"Count Rate"
       0.01311	     126.34277	     144.65332	      90.48462	     113.83057
       0.02621	     109.25293	     121.84143	      99.56360	     119.47632
       0.03932	     112.22839	     119.01855	     142.21191	     112.45728
       0.05243	     132.59888	     119.47632	      87.35657	     121.61255
       0.06554	     164.33716	     110.93140	     142.89856	     105.43823
       0.07864	     149.00208	     104.75159	      99.33472	     138.32092
       0.09175	     125.19836	     121.23108	     139.16016	      94.37561
       0.10486	      95.52002	     103.45459	     104.21753	     129.08936
       0.11796	     159.83582	     149.30725	     102.99683	     130.38635
       0.13107	     123.90137	     107.34558	      85.22034	     139.84680
       0.14418	     106.12488	     119.09485	     125.19836	     103.30200
       0.15729	     132.06482	     115.28015	     111.61804	     123.59619
       0.17039	     108.94775	     121.99402	     104.59900	     112.68616
       0.18350	     114.82239	     123.21472	     120.16296	     110.16846
       0.19661	     132.67517	     124.66431	     121.99402	      93.38379
       0.20972	     106.12488	      89.18762	     110.93140	     114.05945
       0.22282	     152.66418	     115.12756	     158.38623	     125.50354
       0.23593	     132.90405	     118.33191	     134.20105	     129.92859
       0.24904	     130.84412	     105.74341	     109.78699	     104.29382
       0.26214	     127.18201	     122.29919	     125.88501	     129.77600
       0.27525	     120.39185	     138.09204	     127.33459	     114.21204
       0.28836	     119.24744	      90.71350	     157.77588	     105.81970
       0.30147	     127.86865	     103.45459	     104.37012	     173.03467
       0.31457	     144.42444	     146.86584	     102.99683	     121.15479
       0.32768	     109.17664	     108.03223	     140.83862	     114.82239
       0.34079	     146.48438	     103.37830	     133.43811	      91.01868
       0.35389	     147.78137	     128.70789	     119.24744	     133.89587
       0.36700	     113.14392	     114.44092	     150.83313	      88.11951
       0.38011	     158.99658	     116.80603	     108.87146	     135.95581
       0.39322	     140.91492	      93.00232	      92.54456	     137.25281
       0.40632	     148.16284	     106.81152	      71.33484	     107.72705
       0.41943	      91.32385	     114.05945	     149.53613	     108.56628
       0.43254	     119.78149	     101.54724	      90.56091	     118.10303
       0.44564	     111.16028	     114.36462	     131.14929	     109.48181
       0.45875	     106.58264	     126.95313	     121.68884	     116.19568
       0.47186	     117.56897	     111.99951	     101.85242	     106.58264
       0.48497	     169.44885	     132.06482	      86.05957	     119.01855
       0.49807	     115.12756	     139.69421	      99.71619	     101.62354
       0.51118	     129.62341	     107.80334	     101.39465	     117.34009
       0.52429	     124.74060	     106.20117	     111.23657	     127.33459
       0.53740	     141.75415	     128.32642	     147.47620	     103.83606
       0.55050	     131.75964	      93.84155	     146.10291	     129.47083
       0.56361	     130.99670	      97.04590	     110.62622	     132.44629
       0.57672	     115.66162	     140.91492	     108.33740	     117.95044
       0.58982	     141.06750	     135.04028	     102.46277	     137.32910
       0.60293	     120.23926	     125.35095	     118.33191	     129.62341
       0.61604	     151.82495	     101.62354	     138.24463	     131.68335
       0.62915	     147.62878	     112.22839	     147.85767	     117.87415
       0.64225	     109.25293	     104.98047	     157.92847	     124.51172
       0.65536	     112.60986	      93.76526	     118.02673	      99.18213
       0.66847	     115.12756	     123.44360	     136.03210	     111.54175
       0.68157	     103.22571	     103.07312	     109.63440	     112.99133
       0.69468	     135.72693	     100.63171	      91.17126	     116.57715
       0.70779	     122.98584	     146.71326	     130.38635	     108.10852
       0.72090	     107.95593	     134.42993	     119.78149	      94.90967
       0.73400	     131.98853	     126.11389	     128.93677	     105.43823
       0.74711	      86.21216	      95.74890	     141.67786	     100.32654
