ALV-7004/USB-FAST
Date :	"3/14/2024"
Time :	"12:30:20 PM"
Samplename : 	""
SampMemo(0) : 	""
SampMemo(1) : 	""
SampMemo(2) : 	""
SampMemo(3) : 	""
SampMemo(4) : 	""
SampMemo(5) : 	""
SampMemo(6) : 	""
SampMemo(7) : 	""
SampMemo(8) : 	""
SampMemo(9) : 	""
Temperature [K] :	     298.16000
Viscosity [cp]  :	       0.89000
Refractive Index:	       1.33200
Wavelength [nm] :	       0.00000
Angle [°]       :	       0.00000
Duration [s]    :	         1
FloatDur [ms]   :	          944
Stop TP [ms]   :	      3161
Runs            :	         1
Mode            :	"A-CH0+1  A-CH2+3 "
MeanCR0 [kHz]   :	     152.01675
MeanCR1 [kHz]   :	     158.85141
MeanCR2 [kHz]   :	     148.31225
MeanCR3 [kHz]   :	     144.73067

"Correlation"
  3.12500E-006	 -1.00000E+000	 -1.00000E+000	 -1.00000E+000	 -1.00000E+000
  6.25000E-006	 -1.00000E+000	 -1.00000E+000	 -1.00000E+000	 -1.00000E+000
  9.37500E-006	 -1.00000E+000	 -1.00000E+000	 -1.00000E+000	 -1.00000E+000
  1.25000E-005	 -1.00000E+000	 -1.00000E+000	 -1.00000E+000	 -1.00000E+000
  1.56250E-005	 -1.00000E+000	 -1.00000E+000	 -1.00000E+000	 -1.00000E+000
  1.87500E-005	 -1.00000E+000	 -1.00000E+000	 -1.00000E+000	 -1.00000E+000
  2.18750E-005	 -8.38595E-001	 -2.87801E-001	 -2.13817E-001	 -9.83812E-001
  2.50000E-005	  5.10405E+000	  4.92603E+000	  5.35113E+000	  1.02505E+001
  2.81250E-005	  1.50912E+000	  1.32472E+000	  1.43563E+000	  3.85632E+000
  3.12500E-005	  7.31437E-001	  9.61906E-001	  6.34027E-001	  2.41561E+000
  3.43750E-005	  1.45042E+000	  8.67842E-001	  1.01941E+000	  1.67098E+000
  3.75000E-005	  3.35261E-001	  4.37835E-001	  4.95289E-001	  1.33104E+000
  4.06250E-005	  6.72744E-001	  7.06590E-001	  4.79874E-001	  1.16916E+000
  4.37500E-005	  5.70032E-001	  6.52839E-001	  6.18612E-001	  1.26628E+000
  4.68750E-005	  6.43398E-001	  6.52839E-001	  5.87781E-001	  1.26628E+000
  5.00000E-005	  8.19476E-001	  6.32682E-001	  5.72366E-001	  1.21772E+000
  5.62500E-005	  5.55359E-001	  6.99871E-001	  6.80273E-001	  9.34435E-001
  6.25000E-005	  5.99378E-001	  3.97522E-001	  7.95889E-001	  1.00728E+000
  6.87500E-005	  5.11339E-001	  5.11743E-001	  3.25720E-001	  9.10154E-001
  7.50000E-005	  4.15963E-001	  5.18462E-001	  5.18412E-001	  7.32089E-001
  8.12500E-005	  7.68120E-001	  3.97522E-001	  6.41735E-001	  7.48276E-001
  8.75000E-005	  2.69231E-001	  4.64711E-001	  4.64458E-001	  6.26868E-001
  9.37500E-005	  5.33349E-001	  6.72995E-001	  5.26120E-001	  8.29215E-001
  1.00000E-004	  5.18675E-001	  5.11743E-001	  5.10704E-001	  7.56370E-001
  1.12500E-004	  5.26012E-001	  5.58775E-001	  4.10505E-001	  4.00240E-001
  1.25000E-004	  4.74656E-001	  5.18461E-001	  4.52897E-001	  4.93319E-001
  1.37500E-004	  4.01290E-001	  5.45337E-001	  4.99143E-001	  3.84052E-001
  1.50000E-004	  4.89329E-001	  3.80725E-001	  5.95489E-001	  5.82352E-001
  1.62500E-004	  3.49934E-001	  6.42760E-001	  4.52897E-001	  5.66164E-001
  1.75000E-004	  5.59027E-001	  5.48696E-001	  6.91835E-001	  4.89272E-001
  1.87500E-004	  4.96666E-001	  4.81508E-001	  3.87382E-001	  3.96193E-001
  2.00000E-004	  4.65485E-001	  4.98304E-001	  4.50970E-001	  4.77131E-001
  2.25000E-004	  5.04002E-001	  5.89009E-001	  4.23993E-001	  5.15577E-001
  2.50000E-004	  4.72821E-001	  5.52055E-001	  5.85854E-001	  4.36662E-001
  2.75000E-004	  4.91163E-001	  5.11742E-001	  5.41535E-001	  4.75108E-001
  3.00000E-004	  4.65485E-001	  4.19358E-001	  5.12631E-001	  5.72234E-001
  3.25000E-004	  4.25133E-001	  4.71429E-001	  4.37481E-001	  5.92469E-001
  3.50000E-004	  4.12294E-001	  4.24397E-001	  4.31700E-001	  4.67014E-001
  3.75000E-004	  4.19631E-001	  4.31116E-001	  4.58677E-001	  5.25694E-001
  4.00000E-004	  4.55396E-001	  4.31115E-001	  5.38644E-001	  4.94330E-001
  4.50000E-004	  4.58148E-001	  4.69749E-001	  5.02032E-001	  4.80166E-001
  5.00000E-004	  5.17757E-001	  5.10062E-001	  4.95288E-001	  5.32776E-001
  5.50000E-004	  4.47143E-001	  4.74788E-001	  4.88544E-001	  4.91295E-001
  6.00000E-004	  4.74655E-001	  4.99984E-001	  5.17448E-001	  4.42732E-001
  6.50000E-004	  4.79240E-001	  5.01663E-001	  4.38444E-001	  3.95190E-001
  7.00000E-004	  4.75572E-001	  4.98304E-001	  5.10703E-001	  4.23519E-001
  7.50000E-004	  4.44391E-001	  4.94105E-001	  5.05886E-001	  4.33637E-001
  8.00000E-004	  4.83824E-001	  5.00822E-001	  5.18410E-001	  4.73093E-001
  9.00000E-004	  4.96205E-001	  4.31534E-001	  5.19855E-001	  4.78152E-001
  1.00000E-003	  4.48058E-001	  4.87804E-001	  4.95287E-001	  4.54882E-001
  1.10000E-003	  4.41639E-001	  5.17619E-001	  4.92396E-001	  4.88775E-001
  1.20000E-003	  4.60898E-001	  4.95783E-001	  4.71682E-001	  4.69552E-001
  1.30000E-003	  4.10917E-001	  4.92844E-001	  4.46632E-001	  4.46788E-001
  1.40000E-003	  4.95746E-001	  5.30637E-001	  4.74572E-001	  4.95351E-001
  1.50000E-003	  4.30634E-001	  4.81925E-001	  5.02031E-001	  4.24024E-001
  1.60000E-003	  4.79236E-001	  5.07329E-001	  4.66621E-001	  4.88014E-001
  1.80000E-003	  4.93222E-001	  4.69325E-001	  4.97452E-001	  4.93325E-001
  2.00000E-003	  4.98036E-001	  4.85912E-001	  5.06605E-001	  5.03443E-001
  2.20000E-003	  4.81988E-001	  4.81503E-001	  4.76738E-001	  4.67526E-001
  2.40000E-003	  4.79924E-001	  4.72475E-001	  4.66621E-001	  4.51591E-001
  2.60000E-003	  4.37739E-001	  4.99980E-001	  4.65899E-001	  4.84473E-001
  2.80000E-003	  4.38656E-001	  4.90741E-001	  4.86131E-001	  4.23768E-001
  3.00000E-003	  4.53100E-001	  4.81503E-001	  4.58432E-001	  4.90037E-001
  3.20000E-003	  4.48166E-001	  4.71220E-001	  4.46745E-001	  4.80927E-001
  3.60000E-003	  4.78429E-001	  5.07858E-001	  4.58788E-001	  4.72453E-001
  4.00000E-003	  4.59285E-001	  4.87072E-001	  4.45541E-001	  4.60818E-001
  4.40000E-003	  4.36244E-001	  4.85917E-001	  4.75769E-001	  4.55886E-001
  4.80000E-003	  4.34524E-001	  4.71954E-001	  4.64449E-001	  4.54126E-001
  5.20000E-003	  4.54929E-001	  4.57897E-001	  4.61558E-001	  4.50332E-001
  5.60000E-003	  4.50917E-001	  4.98525E-001	  4.87090E-001	  4.52609E-001
  6.00000E-003	  4.82556E-001	  5.05349E-001	  4.69989E-001	  4.79040E-001
  6.40000E-003	  4.59029E-001	  4.72279E-001	  4.66798E-001	  4.63675E-001
  7.20000E-003	  4.45502E-001	  4.78106E-001	  4.80417E-001	  4.62600E-001
  8.00000E-003	  4.51807E-001	  4.89391E-001	  4.66929E-001	  4.65003E-001
  8.80000E-003	  4.32215E-001	  4.74379E-001	  4.59040E-001	  4.57162E-001
  9.60000E-003	  4.37201E-001	  4.66410E-001	  4.38637E-001	  4.46792E-001
  1.04000E-002	  4.26655E-001	  4.69044E-001	  4.79825E-001	  4.56783E-001
  1.12000E-002	  4.31537E-001	  4.67522E-001	  4.36409E-001	  4.63422E-001
  1.20000E-002	  4.20073E-001	  4.68906E-001	  4.55438E-001	  4.45664E-001
  1.28000E-002	  4.21423E-001	  4.63037E-001	  4.55439E-001	  4.36792E-001
  1.44000E-002	  4.28397E-001	  4.64165E-001	  4.44228E-001	  4.55583E-001
  1.60000E-002	  4.28827E-001	  4.64129E-001	  4.51334E-001	  4.38552E-001
  1.76000E-002	  4.16847E-001	  4.54989E-001	  4.30348E-001	  4.14586E-001
  1.92000E-002	  4.21222E-001	  4.47561E-001	  4.43837E-001	  4.48596E-001
  2.08000E-002	  4.15519E-001	  4.45408E-001	  4.33931E-001	  4.06766E-001
  2.24000E-002	  4.12366E-001	  4.31429E-001	  4.21015E-001	  4.26590E-001
  2.40000E-002	  4.07465E-001	  4.46284E-001	  4.30288E-001	  4.22764E-001
  2.56000E-002	  4.03379E-001	  4.42380E-001	  4.14785E-001	  4.09050E-001
  2.88000E-002	  3.86133E-001	  4.20220E-001	  4.07288E-001	  3.94743E-001
  3.20000E-002	  3.81103E-001	  4.09988E-001	  3.98420E-001	  3.92034E-001
  3.52000E-002	  3.67484E-001	  4.02671E-001	  3.84007E-001	  3.85621E-001
  3.84000E-002	  3.68817E-001	  4.05918E-001	  3.84609E-001	  3.66286E-001
  4.16000E-002	  3.50407E-001	  3.90222E-001	  3.76696E-001	  3.65206E-001
  4.48000E-002	  3.37921E-001	  3.80445E-001	  3.68400E-001	  3.60184E-001
  4.80000E-002	  3.33135E-001	  3.79882E-001	  3.55092E-001	  3.42320E-001
  5.12000E-002	  3.28290E-001	  3.65769E-001	  3.47735E-001	  3.40440E-001
  5.76000E-002	  3.15369E-001	  3.53505E-001	  3.36611E-001	  3.30229E-001
  6.40000E-002	  3.01700E-001	  3.34942E-001	  3.25160E-001	  3.11378E-001
  7.04000E-002	  2.87798E-001	  3.21809E-001	  3.13662E-001	  2.99862E-001
  7.68000E-002	  2.69547E-001	  3.14219E-001	  2.94788E-001	  2.80793E-001
  8.32000E-002	  2.59992E-001	  2.96935E-001	  2.78402E-001	  2.68760E-001
  8.96000E-002	  2.40261E-001	  2.87737E-001	  2.75473E-001	  2.56152E-001
  9.60000E-002	  2.37018E-001	  2.73293E-001	  2.61428E-001	  2.42218E-001
  1.02400E-001	  2.20413E-001	  2.63344E-001	  2.47667E-001	  2.32796E-001
  1.15200E-001	  1.97055E-001	  2.42430E-001	  2.32715E-001	  2.12054E-001
  1.28000E-001	  1.84581E-001	  2.21803E-001	  2.13322E-001	  1.90373E-001
  1.40800E-001	  1.70515E-001	  2.06381E-001	  1.94093E-001	  1.76963E-001
  1.53600E-001	  1.56148E-001	  1.94713E-001	  1.83337E-001	  1.59122E-001
  1.66400E-001	  1.43992E-001	  1.78283E-001	  1.69984E-001	  1.46766E-001
  1.79200E-001	  1.37425E-001	  1.66615E-001	  1.55155E-001	  1.40259E-001
  1.92000E-001	  1.21623E-001	  1.56403E-001	  1.47859E-001	  1.28344E-001
  2.04800E-001	  1.15375E-001	  1.48237E-001	  1.34034E-001	  1.19135E-001
  2.30400E-001	  1.00433E-001	  1.27159E-001	  1.18555E-001	  9.68559E-002
  2.56000E-001	  8.15682E-002	  1.11219E-001	  1.01059E-001	  8.28452E-002
  2.81600E-001	  7.35627E-002	  9.53735E-002	  9.19409E-002	  7.22014E-002
  3.07200E-001	  6.66168E-002	  8.46655E-002	  8.19401E-002	  6.62203E-002
  3.32800E-001	  5.77399E-002	  7.56729E-002	  7.49553E-002	  6.15997E-002
  3.58400E-001	  5.36829E-002	  6.61904E-002	  6.90829E-002	  5.83151E-002
  3.84000E-001	  4.70758E-002	  6.32484E-002	  6.36113E-002	  5.40087E-002
  4.09600E-001	  4.27871E-002	  5.75825E-002	  5.86796E-002	  5.31451E-002
  4.60800E-001	  3.63200E-002	  4.93108E-002	  5.29818E-002	  4.96564E-002
  5.12000E-001	  3.50906E-002	  4.13176E-002	  4.33345E-002	  3.90247E-002
  5.63200E-001	  3.31501E-002	  3.32405E-002	  3.82305E-002	  2.78815E-002
  6.14400E-001	  3.09460E-002	  2.70755E-002	  3.16233E-002	  2.42475E-002
  6.65600E-001	  2.61243E-002	  2.22037E-002	  2.63658E-002	  1.97180E-002
  7.16800E-001	  2.25056E-002	  1.83159E-002	  2.12906E-002	  1.77243E-002
  7.68000E-001	  1.38018E-002	  1.56589E-002	  2.24851E-002	  1.34628E-002
  8.19200E-001	  1.42985E-002	  1.93696E-002	  1.62299E-002	  1.17545E-002
  9.21600E-001	  1.33190E-002	  1.51516E-002	  8.49280E-003	  3.45521E-003
  1.02400E+000	  1.17121E-002	  9.28070E-003	  3.13120E-003	  2.23269E-004
  1.12640E+000	  8.18532E-003	  7.76965E-003	 -1.62123E-003	  7.05656E-004
  1.22880E+000	  1.06087E-002	  8.66831E-003	 -4.63608E-003	  6.25652E-003
  1.33120E+000	  1.08656E-002	  1.27972E-002	  1.36732E-004	  5.18191E-003
  1.43360E+000	  9.34084E-003	  1.12424E-002	  2.10957E-004	  3.04401E-003
  1.53600E+000	  9.75321E-003	  6.67877E-003	 -1.18248E-003	 -1.01362E-003
  1.63840E+000	  3.06122E-003	  3.83107E-003	 -3.91863E-003	  1.18584E-003
  1.84320E+000	 -4.86155E-003	  3.75956E-003	  8.47899E-004	  3.39242E-003
  2.04800E+000	 -8.25917E-003	 -1.36810E-003	  1.02010E-002	 -3.35824E-004
  2.25280E+000	 -3.43352E-003	  1.92673E-004	  1.58739E-002	 -3.82906E-003
  2.45760E+000	 -2.29402E-003	  8.59958E-003	  1.12985E-002	 -3.16279E-003
  2.66240E+000	  3.43348E-003	  9.36134E-003	  7.15808E-003	 -2.00224E-003
  2.86720E+000	  8.26313E-003	  6.16526E-003	  5.85637E-003	 -1.03031E-002
  3.07200E+000	  1.70154E-002	  5.66588E-003	  1.37655E-003	 -1.75586E-002
  3.27680E+000	  1.37100E-002	  3.79114E-003	 -2.12466E-003	 -7.97285E-003
  3.68640E+000	  7.01221E-004	  5.32421E-003	 -5.66896E-003	 -3.30197E-003
  4.09600E+000	  4.14364E-003	  2.06479E-003	  5.63180E-003	 -2.37542E-003
  4.50560E+000	 -4.25513E-003	  7.76498E-003	  4.05767E-003	 -1.05755E-002
  4.91520E+000	 -3.47554E-003	  7.40326E-003	  2.09519E-003	 -6.03502E-003
  5.32480E+000	  8.18765E-004	  9.88683E-003	  2.99334E-003	 -1.73212E-003
  5.73440E+000	  5.23549E-003	  6.15930E-003	  4.66330E-003	  6.37224E-003
  6.14400E+000	  3.68167E-003	  6.70451E-003	 -3.18272E-004	  3.69490E-003
  6.55360E+000	  2.36218E-003	  1.13425E-003	 -3.85286E-003	 -1.18026E-003
  7.37280E+000	 -7.87720E-004	  4.79274E-003	  2.83688E-003	 -5.84164E-003
  8.19200E+000	 -4.20693E-003	 -5.60804E-004	 -5.96768E-003	  2.93653E-003
  9.01120E+000	 -8.17265E-004	 -4.72242E-003	 -8.86982E-003	  1.41102E-003
  9.83040E+000	 -2.59147E-003	  9.77510E-004	  4.94783E-003	  5.29031E-003
  1.06496E+001	 -2.10860E-003	 -5.75293E-003	  7.67024E-003	  4.37404E-003
  1.14688E+001	 -4.39616E-003	  1.08767E-003	  3.45103E-004	  4.69624E-003
  1.22880E+001	  3.22018E-003	  3.27022E-003	 -1.37399E-003	 -2.82386E-003
  1.31072E+001	  3.63030E-004	  2.93841E-003	  3.20093E-003	  5.19873E-003
  1.47456E+001	  1.98767E-003	 -3.06868E-003	  2.65953E-003	 -7.17835E-003
  1.63840E+001	  4.69223E-004	 -1.62678E-003	 -2.32789E-003	 -8.75389E-003
  1.80224E+001	  7.15509E-003	  2.48249E-003	  2.60287E-003	  2.79527E-003
  1.96608E+001	  7.96630E-004	 -6.62679E-003	 -1.30068E-004	 -9.02840E-004
  2.12992E+001	  1.75596E-003	  2.47245E-004	 -2.19503E-003	 -3.31379E-003
  2.29376E+001	  3.30748E-003	  2.13128E-003	  1.57758E-004	  4.49605E-004
  2.45760E+001	  2.26704E-003	  9.06411E-003	 -3.48045E-003	  1.94389E-003
  2.62144E+001	  2.87389E-004	  6.42111E-003	  2.54191E-003	  1.65902E-003
  2.94912E+001	  2.22071E-003	  1.82400E-003	  1.39969E-003	 -3.28843E-003
  3.27680E+001	  2.44724E-003	 -1.28094E-003	  5.15567E-003	 -1.61576E-003
  3.60448E+001	  2.51928E-004	 -8.21798E-005	 -2.88521E-003	  1.53771E-003
  3.93216E+001	  5.13708E-003	 -3.10522E-004	 -5.62477E-004	 -2.79972E-003
  4.25984E+001	  2.30770E-003	  3.23615E-003	  1.82024E-003	 -2.02839E-003
  4.58752E+001	  2.50353E-003	 -1.24196E-003	  5.99255E-004	  1.15348E-003
  4.91520E+001	 -2.32269E-003	  2.57599E-003	 -3.91708E-003	 -3.06898E-003
  5.24288E+001	 -2.93034E-003	 -8.68236E-004	 -4.76937E-003	  1.18014E-003
  5.89824E+001	  2.59579E-003	  1.50125E-003	 -2.65730E-003	  4.52351E-003
  6.55360E+001	  1.13933E-003	 -1.64700E-003	 -3.68818E-003	 -1.45311E-003
  7.20896E+001	  3.66339E-003	  3.30314E-004	  4.02234E-004	 -2.95306E-003
  7.86432E+001	  7.95349E-004	 -2.71601E-003	  6.21200E-004	  1.21951E-003
  8.51968E+001	  5.19220E-004	 -8.69042E-005	  3.18345E-003	  5.79146E-003
  9.17504E+001	 -8.33018E-004	 -8.08562E-004	  1.84547E-003	  3.37534E-003
  9.83040E+001	 -3.02523E-003	  2.30895E-003	 -4.50107E-003	  4.51074E-004
  1.04858E+002	  1.42602E-003	  7.22097E-004	  7.05352E-004	 -2.36736E-003
  1.17965E+002	  3.65661E-004	  1.99631E-004	 -2.77683E-003	 -5.00218E-004
  1.31072E+002	 -4.60644E-003	  2.46087E-003	 -7.18095E-004	 -1.26493E-003
  1.44179E+002	  8.90350E-004	  3.26719E-003	 -2.82483E-003	  6.68313E-004
  1.57286E+002	 -6.86539E-004	 -2.92730E-003	 -6.64483E-004	 -3.47022E-004
  1.70394E+002	 -3.09502E-003	 -1.66912E-004	 -2.68197E-003	 -5.45994E-004
  1.83501E+002	  1.08924E-003	 -3.09972E-003	 -1.59838E-005	 -1.98987E-003
  1.96608E+002	 -3.65340E-003	 -2.08457E-003	  4.74954E-004	  1.05398E-003
  2.09715E+002	 -8.96689E-004	 -2.21542E-003	  1.75908E-003	 -2.96398E-003
  2.35930E+002	 -6.27350E-004	 -3.36570E-003	  3.73258E-003	  3.94711E-003
  2.62144E+002	 -1.89465E-003	  3.44753E-004	  2.99969E-004	 -1.73389E-003
  2.88358E+002	 -3.20853E-003	 -1.10493E-003	  1.38265E-004	 -1.78669E-003
  3.14573E+002	 -8.37377E-004	  8.61626E-004	  3.89975E-003	  6.16222E-004
  3.40787E+002	 -2.11683E-003	 -9.65033E-004	  2.88102E-004	  8.39437E-004
  3.67002E+002	  1.07797E-003	  1.77623E-005	 -3.06918E-003	 -1.33862E-003
  3.93216E+002	  7.79283E-004	  9.38637E-004	 -2.08708E-003	 -1.87856E-004

"Count Rate"
       0.01311	     145.11108	     144.80591	     135.26917	     133.66699
       0.02621	     126.11389	     147.47620	     139.84680	     124.66431
       0.03932	     152.66418	     131.45447	     135.49805	     146.94214
       0.05243	     134.42993	     138.39722	     144.27185	     146.02661
       0.06554	     119.47632	     162.35352	     163.72681	     127.02942
       0.07864	     139.69421	     123.59619	     135.34546	     146.78955
       0.09175	     117.72156	     171.66138	     158.69141	     109.78699
       0.10486	     125.42725	     125.73242	     120.46814	     144.42444
       0.11796	     160.14099	     134.35364	     153.80859	     119.17114
       0.13107	     136.56616	     146.63696	     125.57983	     128.25012
       0.14418	     158.38623	     141.22009	     124.66431	     149.00208
       0.15729	     156.47888	     161.89575	     165.63416	     123.90137
       0.17039	     132.06482	     165.48157	     155.79224	     149.76501
       0.18350	     155.79224	     149.61243	     145.41626	     135.49805
       0.19661	     176.31531	     144.88220	     171.12732	     107.11670
       0.20972	     188.98010	     138.39722	     136.10840	     117.95044
       0.22282	     169.37256	     158.23364	     152.43530	     168.83850
       0.23593	     163.80310	     172.72949	     136.87134	     172.57690
       0.24904	     135.65063	     124.81689	     155.33447	     120.23926
       0.26214	     173.33984	     186.08093	     118.86597	     149.38354
       0.27525	     158.46252	     158.30994	     138.93127	     142.05933
       0.28836	     130.61523	     158.84399	     139.00757	     141.67786
       0.30147	     174.86572	     166.09192	     158.76770	     144.95850
       0.31457	     146.56067	     159.07288	     160.06470	     158.61511
       0.32768	     138.54980	     183.63953	     152.13013	     134.88770
       0.34079	     123.82507	     157.31812	     152.51160	     170.05920
       0.35389	     157.85217	     186.92017	     129.62341	     124.28284
       0.36700	     163.57422	     159.14917	     125.27466	     163.11646
       0.38011	     151.29089	     159.91211	     145.41626	     152.28271
       0.39322	     126.11389	     159.45435	     138.77869	     133.36182
       0.40632	     140.38086	     166.47339	     143.35632	     135.65063
       0.41943	     142.97485	     156.17371	     149.45984	     149.23096
       0.43254	     132.44629	     166.70227	     149.61243	     138.09204
       0.44564	     171.89026	     148.39172	     120.01038	     126.64795
       0.45875	     150.14648	     138.77869	     130.76782	     168.38074
       0.47186	     139.23645	     156.32629	     132.37000	     157.16553
       0.48497	     150.60425	     158.99658	     157.39441	     131.30188
       0.49807	     124.05396	     138.09204	     136.87134	     144.88220
       0.51118	     138.54980	     128.32642	     156.70776	     156.02112
       0.52429	     139.77051	     163.72681	     182.87659	     115.43274
       0.53740	     128.09753	     178.75671	     123.59619	     141.83044
       0.55050	     159.91211	     159.30176	     144.50073	     142.89856
       0.56361	     153.35083	     120.54443	     179.59595	     153.12195
       0.57672	     133.05664	     140.15198	     141.06750	     138.77869
       0.58982	     159.60693	     137.48169	     180.35889	     150.37537
       0.60293	     149.23096	     124.05396	     135.26917	     128.86047
       0.61604	     146.63696	     144.27185	     147.78137	     134.50623
       0.62915	     172.65320	     153.12195	     155.33447	     139.00757
       0.64225	     141.14380	     179.90112	     125.04578	     145.03479
       0.65536	     155.86853	     152.96936	     141.37268	     153.88489
       0.66847	     175.24719	     166.47339	     132.98035	     111.46545
       0.68157	     166.93115	     198.05908	     136.94763	     149.99390
       0.69468	     151.06201	     139.23645	     117.34009	     131.22559
       0.70779	     152.74048	     134.35364	     148.69690	     166.93115
       0.72090	     157.77588	     150.14648	     162.65869	     137.17651
       0.73400	     154.41895	     129.54712	     145.18738	     154.64783
       0.74711	     164.56604	     166.47339	     166.70227	     136.56616
