ALV-7004/USB-FAST
Date :	"3/14/2024"
Time :	"12:30:32 PM"
Samplename : 	""
SampMemo(0) : 	""
SampMemo(1) : 	""
SampMemo(2) : 	""
SampMemo(3) : 	""
SampMemo(4) : 	""
SampMemo(5) : 	""
SampMemo(6) : 	""
SampMemo(7) : 	""
SampMemo(8) : 	""
SampMemo(9) : 	""
Temperature [K] :	     298.16000
Viscosity [cp]  :	       0.89000
Refractive Index:	       1.33200
Wavelength [nm] :	       0.00000
Angle [°]       :	       0.00000
Duration [s]    :	         1
FloatDur [ms]   :	          944
Stop TP [ms]   :	      3165
Runs            :	         1
Mode            :	"A-CH0+1  A-CH2+3 "
MeanCR0 [kHz]   :	     147.91064
MeanCR1 [kHz]   :	     149.74913
MeanCR2 [kHz]   :	     142.91233
MeanCR3 [kHz]   :	     146.07959

"Correlation"
  3.12500E-006	 -1.00000E+000	 -1.00000E+000	 -1.00000E+000	 -1.00000E+000
  6.25000E-006	 -1.00000E+000	 -1.00000E+000	 -1.00000E+000	 -1.00000E+000
  9.37500E-006	 -1.00000E+000	 -1.00000E+000	 -1.00000E+000	 -1.00000E+000
  1.25000E-005	 -1.00000E+000	 -1.00000E+000	 -1.00000E+000	 -1.00000E+000
  1.56250E-005	 -1.00000E+000	 -1.00000E+000	 -1.00000E+000	 -1.00000E+000
  1.87500E-005	 -1.00000E+000	 -1.00000E+000	 -1.00000E+000	 -1.00000E+000
  2.18750E-005	 -9.22504E-001	 -2.43953E-001	 -2.86101E-001	 -9.36439E-001
  2.50000E-005	  5.16867E+000	  5.69858E+000	  4.96022E+000	  8.93135E+000
  2.81250E-005	  1.60386E+000	  1.04133E+000	  1.19150E+000	  4.11663E+000
  3.12500E-005	  7.51407E-001	  7.08667E-001	  6.60229E-001	  2.24159E+000
  3.43750E-005	  6.11914E-001	  5.12095E-001	  6.43627E-001	  1.84434E+000
  3.75000E-005	  6.11914E-001	  6.78425E-001	  6.60229E-001	  1.73311E+000
  4.06250E-005	  4.72422E-001	  5.57458E-001	  7.26639E-001	  1.57421E+000
  4.37500E-005	  7.51407E-001	  5.87699E-001	  6.76832E-001	  1.17695E+000
  4.68750E-005	  5.80916E-001	  5.42337E-001	  5.27411E-001	  1.27229E+000
  5.00000E-005	  7.20409E-001	  5.87699E-001	  6.35326E-001	  1.14517E+000
  5.62500E-005	  5.80916E-001	  4.36490E-001	  6.60229E-001	  1.13723E+000
  6.25000E-005	  6.27414E-001	  3.60885E-001	  5.19110E-001	  8.51204E-001
  6.87500E-005	  5.03420E-001	  3.00401E-001	  5.52314E-001	  8.43259E-001
  7.50000E-005	  5.96415E-001	  4.28929E-001	  5.93820E-001	  7.00248E-001
  8.12500E-005	  4.10425E-001	  4.28929E-001	  4.19496E-001	  8.03534E-001
  8.75000E-005	  4.18175E-001	  5.95260E-001	  6.43627E-001	  5.33401E-001
  9.37500E-005	  4.80171E-001	  4.89413E-001	  4.52701E-001	  7.47918E-001
  1.00000E-004	  4.84046E-001	  5.19655E-001	  5.06658E-001	  7.95588E-001
  1.12500E-004	  4.02675E-001	  4.21369E-001	  5.89669E-001	  6.64495E-001
  1.25000E-004	  5.03420E-001	  5.30996E-001	  5.77218E-001	  6.20797E-001
  1.37500E-004	  5.53792E-001	  4.17589E-001	  3.82141E-001	  6.04906E-001
  1.50000E-004	  4.25924E-001	  5.72578E-001	  5.85519E-001	  5.61209E-001
  1.62500E-004	  6.00290E-001	  4.93193E-001	  3.94592E-001	  5.65181E-001
  1.75000E-004	  5.18919E-001	  4.85633E-001	  4.40249E-001	  7.00247E-001
  1.87500E-004	  3.87176E-001	  4.06248E-001	  4.73453E-001	  5.01620E-001
  2.00000E-004	  4.49173E-001	  4.61061E-001	  4.87980E-001	  4.53950E-001
  2.25000E-004	  5.28606E-001	  4.89413E-001	  5.00432E-001	  5.63195E-001
  2.50000E-004	  5.15044E-001	  4.44050E-001	  4.75528E-001	  5.35387E-001
  2.75000E-004	  4.62734E-001	  4.30819E-001	  4.27797E-001	  5.15524E-001
  3.00000E-004	  4.45298E-001	  5.32885E-001	  5.00432E-001	  4.87716E-001
  3.25000E-004	  4.76296E-001	  4.93193E-001	  5.10808E-001	  4.59908E-001
  3.50000E-004	  5.77041E-001	  5.68798E-001	  4.96281E-001	  4.89702E-001
  3.75000E-004	  4.80171E-001	  5.02643E-001	  4.54775E-001	  5.21483E-001
  4.00000E-004	  5.04388E-001	  5.26269E-001	  4.97318E-001	  5.25455E-001
  4.50000E-004	  4.49172E-001	  3.82620E-001	  5.17033E-001	  5.33400E-001
  5.00000E-004	  4.87920E-001	  4.51610E-001	  4.51662E-001	  4.77784E-001
  5.50000E-004	  4.56922E-001	  5.24390E-001	  5.47125E-001	  5.17510E-001
  6.00000E-004	  4.11393E-001	  4.83752E-001	  5.18071E-001	  4.61894E-001
  6.50000E-004	  4.50141E-001	  4.78082E-001	  5.27410E-001	  4.96654E-001
  7.00000E-004	  4.57890E-001	  4.70521E-001	  4.89017E-001	  5.59221E-001
  7.50000E-004	  4.73389E-001	  4.51620E-001	  5.02506E-001	  5.13537E-001
  8.00000E-004	  4.09938E-001	  4.60124E-001	  4.49067E-001	  5.19991E-001
  9.00000E-004	  4.21079E-001	  4.60597E-001	  4.57887E-001	  5.27440E-001
  1.00000E-003	  4.80653E-001	  4.56344E-001	  4.67744E-001	  5.10060E-001
  1.10000E-003	  4.62248E-001	  3.90662E-001	  4.35577E-001	  4.91687E-001
  1.20000E-003	  5.13105E-001	  4.45003E-001	  5.05618E-001	  5.34392E-001
  1.30000E-003	  4.85013E-001	  4.27520E-001	  4.60999E-001	  4.75300E-001
  1.40000E-003	  4.59342E-001	  4.36025E-001	  4.98355E-001	  5.12543E-001
  1.50000E-003	  4.66123E-001	  4.02475E-001	  5.04062E-001	  4.58417E-001
  1.60000E-003	  4.55223E-001	  4.44292E-001	  4.71373E-001	  5.29175E-001
  1.80000E-003	  4.31974E-001	  4.61067E-001	  4.89013E-001	  5.02609E-001
  2.00000E-003	  4.56433E-001	  4.27281E-001	  4.92645E-001	  4.53945E-001
  2.20000E-003	  4.27130E-001	  4.37913E-001	  4.88235E-001	  5.09064E-001
  2.40000E-003	  4.33427E-001	  4.51853E-001	  5.21958E-001	  5.21230E-001
  2.60000E-003	  4.52074E-001	  4.58468E-001	  4.72152E-001	  4.56180E-001
  2.80000E-003	  4.82104E-001	  4.51616E-001	  4.60738E-001	  5.13533E-001
  3.00000E-003	  4.83315E-001	  4.52089E-001	  4.51139E-001	  4.82498E-001
  3.20000E-003	  4.53038E-001	  4.52556E-001	  4.81756E-001	  4.57665E-001
  3.60000E-003	  4.43483E-001	  4.35900E-001	  4.69563E-001	  4.97514E-001
  4.00000E-003	  4.64673E-001	  4.58345E-001	  4.69174E-001	  4.99128E-001
  4.40000E-003	  4.42030E-001	  4.67087E-001	  4.59706E-001	  4.74920E-001
  4.80000E-003	  4.29437E-001	  4.26567E-001	  4.64635E-001	  4.76162E-001
  5.20000E-003	  4.81504E-001	  4.57518E-001	  4.61262E-001	  4.75169E-001
  5.60000E-003	  4.52443E-001	  4.66024E-001	  4.96023E-001	  5.00866E-001
  6.00000E-003	  4.56923E-001	  4.32946E-001	  4.72028E-001	  4.77527E-001
  6.40000E-003	  4.59577E-001	  4.45872E-001	  4.64722E-001	  4.82928E-001
  7.20000E-003	  4.54442E-001	  4.40556E-001	  4.62128E-001	  4.93108E-001
  8.00000E-003	  4.47297E-001	  4.43569E-001	  4.73013E-001	  4.73555E-001
  8.80000E-003	  4.43423E-001	  4.44336E-001	  4.68408E-001	  4.72624E-001
  9.60000E-003	  4.53059E-001	  4.30279E-001	  4.62377E-001	  4.75107E-001
  1.04000E-002	  4.48640E-001	  4.41619E-001	  4.57707E-001	  4.89518E-001
  1.12000E-002	  4.38045E-001	  4.44927E-001	  4.44283E-001	  4.57179E-001
  1.20000E-002	  4.48458E-001	  4.25494E-001	  4.44672E-001	  4.71456E-001
  1.28000E-002	  4.38530E-001	  4.27730E-001	  4.50402E-001	  4.74530E-001
  1.44000E-002	  4.35684E-001	  4.22414E-001	  4.45689E-001	  4.59912E-001
  1.60000E-002	  4.29327E-001	  4.22739E-001	  4.41139E-001	  4.62477E-001
  1.76000E-002	  4.25493E-001	  4.15828E-001	  4.40426E-001	  4.61794E-001
  1.92000E-002	  4.11336E-001	  4.04556E-001	  4.34329E-001	  4.57946E-001
  2.08000E-002	  4.10004E-001	  3.98414E-001	  4.14247E-001	  4.41808E-001
  2.24000E-002	  4.05099E-001	  4.00461E-001	  4.22742E-001	  4.42749E-001
  2.40000E-002	  3.93283E-001	  3.93167E-001	  4.05038E-001	  4.35052E-001
  2.56000E-002	  3.97826E-001	  3.93483E-001	  4.09543E-001	  4.34854E-001
  2.88000E-002	  3.90767E-001	  3.91199E-001	  3.96848E-001	  4.15539E-001
  3.20000E-002	  3.86468E-001	  3.78589E-001	  3.90135E-001	  4.14670E-001
  3.52000E-002	  3.77189E-001	  3.60146E-001	  3.71684E-001	  4.12435E-001
  3.84000E-002	  3.61038E-001	  3.51581E-001	  3.71376E-001	  3.95520E-001
  4.16000E-002	  3.55587E-001	  3.43858E-001	  3.60526E-001	  3.92577E-001
  4.48000E-002	  3.42812E-001	  3.37252E-001	  3.47101E-001	  3.73174E-001
  4.80000E-002	  3.35591E-001	  3.27713E-001	  3.47999E-001	  3.80577E-001
  5.12000E-002	  3.29658E-001	  3.25722E-001	  3.36342E-001	  3.66945E-001
  5.76000E-002	  3.06621E-001	  3.09661E-001	  3.17146E-001	  3.49933E-001
  6.40000E-002	  3.05802E-001	  2.97537E-001	  3.07501E-001	  3.31930E-001
  7.04000E-002	  2.82867E-001	  2.82622E-001	  2.93671E-001	  3.20507E-001
  7.68000E-002	  2.75797E-001	  2.63398E-001	  2.80855E-001	  3.02367E-001
  8.32000E-002	  2.65087E-001	  2.58069E-001	  2.68890E-001	  2.89259E-001
  8.96000E-002	  2.52322E-001	  2.44950E-001	  2.54079E-001	  2.83710E-001
  9.60000E-002	  2.43278E-001	  2.34256E-001	  2.40182E-001	  2.73217E-001
  1.02400E-001	  2.32615E-001	  2.24180E-001	  2.33964E-001	  2.59793E-001
  1.15200E-001	  2.07078E-001	  2.08881E-001	  2.16594E-001	  2.41994E-001
  1.28000E-001	  1.93070E-001	  1.92454E-001	  1.95220E-001	  2.25860E-001
  1.40800E-001	  1.78314E-001	  1.77087E-001	  1.85239E-001	  2.09951E-001
  1.53600E-001	  1.62622E-001	  1.64900E-001	  1.70168E-001	  2.03327E-001
  1.66400E-001	  1.49982E-001	  1.56346E-001	  1.51027E-001	  1.84280E-001
  1.79200E-001	  1.38087E-001	  1.46354E-001	  1.46896E-001	  1.72183E-001
  1.92000E-001	  1.28161E-001	  1.35583E-001	  1.39551E-001	  1.59514E-001
  2.04800E-001	  1.22522E-001	  1.25615E-001	  1.29172E-001	  1.48850E-001
  2.30400E-001	  1.06884E-001	  1.07805E-001	  1.13297E-001	  1.33442E-001
  2.56000E-001	  9.39742E-002	  9.45002E-002	  9.98092E-002	  1.17885E-001
  2.81600E-001	  8.20620E-002	  8.74992E-002	  9.26665E-002	  1.03105E-001
  3.07200E-001	  7.52180E-002	  7.67195E-002	  8.21049E-002	  9.15761E-002
  3.32800E-001	  6.34949E-002	  6.80702E-002	  7.66449E-002	  8.06330E-002
  3.58400E-001	  5.26964E-002	  6.13153E-002	  6.86954E-002	  7.64584E-002
  3.84000E-001	  4.55100E-002	  5.54824E-002	  6.34548E-002	  6.73492E-002
  4.09600E-001	  3.89941E-002	  5.32443E-002	  5.67721E-002	  5.94781E-002
  4.60800E-001	  3.00021E-002	  4.88448E-002	  4.22588E-002	  4.99286E-002
  5.12000E-001	  2.39217E-002	  4.32480E-002	  3.39756E-002	  3.73163E-002
  5.63200E-001	  2.30284E-002	  3.68039E-002	  3.25557E-002	  2.73275E-002
  6.14400E-001	  1.74352E-002	  3.20444E-002	  3.01629E-002	  2.80569E-002
  6.65600E-001	  1.38233E-002	  2.63105E-002	  2.45914E-002	  2.41303E-002
  7.16800E-001	  9.88906E-003	  2.22733E-002	  2.17992E-002	  2.41711E-002
  7.68000E-001	  7.04422E-003	  1.77439E-002	  2.17698E-002	  2.33342E-002
  8.19200E-001	  7.47466E-003	  1.82606E-002	  2.15479E-002	  2.59791E-002
  9.21600E-001	  1.07647E-002	  2.14227E-002	  2.08371E-002	  1.91512E-002
  1.02400E+000	  1.17643E-002	  1.25048E-002	  2.12265E-002	  1.58272E-002
  1.12640E+000	  1.15698E-002	  1.28977E-002	  1.72083E-002	  1.20219E-002
  1.22880E+000	  8.02583E-003	  1.37973E-002	  1.06754E-002	  9.61635E-003
  1.33120E+000	  1.05305E-002	  1.22105E-002	  1.21660E-002	  7.76602E-003
  1.43360E+000	  1.03599E-002	  1.62325E-002	  1.39894E-002	  1.63457E-003
  1.53600E+000	  8.98014E-003	  1.78719E-002	  1.47323E-002	  1.76565E-003
  1.63840E+000	  1.07788E-002	  1.36202E-002	  1.21158E-002	  3.63485E-003
  1.84320E+000	  8.84630E-003	  7.21677E-003	  4.24554E-003	 -1.66289E-003
  2.04800E+000	  6.50660E-003	  3.15519E-003	 -2.91873E-004	 -4.71537E-003
  2.25280E+000	  9.22268E-003	 -5.99682E-004	 -2.72523E-003	 -1.01889E-002
  2.45760E+000	  1.02381E-002	  4.84807E-003	  2.63611E-003	 -1.50073E-002
  2.66240E+000	  7.25191E-003	  1.14863E-002	  5.57140E-003	 -5.18501E-003
  2.86720E+000	  6.47714E-003	  1.44883E-002	  7.70206E-003	 -1.29824E-003
  3.07200E+000	  2.98605E-003	  1.11569E-002	 -1.94376E-003	  8.97327E-003
  3.27680E+000	  4.37189E-003	  8.94197E-003	 -1.20550E-003	  1.44416E-002
  3.68640E+000	 -4.02258E-003	  1.07339E-002	  7.14677E-003	  1.04112E-002
  4.09600E+000	 -4.51659E-003	  2.61581E-003	 -7.64677E-003	  3.93715E-003
  4.50560E+000	  3.66445E-003	  2.41417E-003	  1.24799E-003	  7.47534E-003
  4.91520E+000	 -1.42713E-004	 -3.39967E-003	 -1.01482E-002	 -7.54206E-003
  5.32480E+000	 -5.95411E-003	 -3.73136E-003	 -7.96450E-003	  6.33946E-004
  5.73440E+000	 -4.28570E-003	 -6.05203E-003	 -5.02437E-004	 -1.03702E-002
  6.14400E+000	 -6.01647E-003	  6.99798E-004	  9.75645E-004	 -7.42734E-004
  6.55360E+000	 -1.29440E-003	  5.47012E-003	  3.19362E-004	 -6.74855E-003
  7.37280E+000	 -3.59806E-003	  3.10735E-004	  1.62104E-004	 -4.36495E-003
  8.19200E+000	  1.93331E-003	  7.27041E-003	  7.68962E-003	  5.48458E-003
  9.01120E+000	 -5.35067E-003	  5.92621E-004	 -6.09243E-004	  3.90436E-004
  9.83040E+000	 -1.19264E-003	  9.87579E-004	  4.74256E-003	  1.33837E-003
  1.06496E+001	  3.87368E-003	  3.86146E-003	  5.31207E-003	  7.23696E-003
  1.14688E+001	 -1.75211E-003	  1.06710E-002	  8.43486E-004	 -3.23566E-003
  1.22880E+001	  5.30318E-003	  5.17063E-003	  4.26821E-003	  3.92620E-003
  1.31072E+001	 -9.00206E-004	 -1.74569E-003	  4.30615E-003	  3.98942E-003
  1.47456E+001	 -3.72229E-003	  3.70369E-003	  6.38735E-003	  3.26882E-003
  1.63840E+001	 -6.25578E-003	 -4.34460E-003	 -2.85750E-003	  1.25537E-003
  1.80224E+001	 -6.74929E-003	  1.65467E-003	  5.41790E-004	 -3.61266E-003
  1.96608E+001	  1.15330E-002	 -1.37074E-003	 -7.90840E-003	  1.41473E-003
  2.12992E+001	  3.97027E-003	  4.33466E-004	  5.81607E-004	 -5.48529E-003
  2.29376E+001	 -3.19654E-003	 -6.88933E-003	 -3.77348E-003	  6.98514E-004
  2.45760E+001	 -1.15179E-002	 -3.92314E-003	 -4.56742E-003	 -7.18632E-003
  2.62144E+001	 -4.99012E-003	 -1.11658E-003	  2.64068E-003	 -1.08086E-004
  2.94912E+001	  3.17704E-004	 -2.85093E-003	  2.22258E-003	  9.03059E-004
  3.27680E+001	  2.48571E-003	  6.61526E-004	 -7.18923E-003	  1.21498E-003
  3.60448E+001	 -9.56447E-005	 -2.05598E-003	 -1.34624E-003	 -3.85693E-003
  3.93216E+001	 -2.15109E-003	 -1.10341E-003	 -2.82739E-004	 -2.01304E-004
  4.25984E+001	  4.59986E-004	  2.33219E-003	  1.80221E-003	  1.39254E-003
  4.58752E+001	  1.18628E-003	 -3.91937E-003	  1.82633E-003	  6.51132E-004
  4.91520E+001	  4.10783E-003	 -9.79636E-004	  1.31050E-003	 -9.23941E-004
  5.24288E+001	  1.78632E-003	 -1.92530E-003	  3.25978E-004	  1.65639E-003
  5.89824E+001	 -2.02825E-003	  2.58500E-003	 -2.00222E-003	  5.86242E-003
  6.55360E+001	 -1.51461E-003	 -6.68854E-003	 -2.66652E-003	 -1.30590E-003
  7.20896E+001	 -6.07547E-003	  3.31473E-003	  4.42234E-004	  1.43612E-003
  7.86432E+001	  4.36631E-003	  4.06329E-003	 -5.54855E-004	 -6.79885E-003
  8.51968E+001	  1.30463E-003	  1.68053E-003	 -2.59243E-003	  9.55365E-004
  9.17504E+001	  1.06098E-003	  6.96415E-003	  1.89267E-004	 -4.01033E-003
  9.83040E+001	 -1.28626E-003	 -1.47569E-004	 -1.67616E-004	 -1.06523E-004
  1.04858E+002	 -1.96897E-004	 -1.58996E-004	 -1.27801E-003	 -2.10878E-003
  1.17965E+002	 -1.09156E-003	 -2.04815E-003	  2.17463E-003	 -9.76835E-004
  1.31072E+002	  2.30063E-003	 -3.03583E-003	  3.64544E-003	  3.98595E-004
  1.44179E+002	 -9.39262E-004	 -3.04020E-003	  4.45876E-004	  1.42186E-004
  1.57286E+002	  1.13200E-004	  4.64780E-003	  1.13642E-004	  1.12168E-003
  1.70394E+002	  1.28172E-003	  4.01287E-003	 -1.82468E-003	 -2.81608E-003
  1.83501E+002	  2.28476E-003	  1.73844E-003	  8.12702E-004	  1.53765E-003
  1.96608E+002	 -1.03852E-003	  1.33765E-003	 -2.77026E-003	  3.48170E-003
  2.09715E+002	 -6.71326E-004	 -9.03169E-004	 -1.91935E-003	 -3.30882E-003
  2.35930E+002	 -3.89978E-005	 -1.90797E-003	 -1.52584E-003	 -1.78913E-004
  2.62144E+002	 -9.97125E-004	  1.50945E-003	 -4.89305E-004	  6.62522E-004
  2.88358E+002	 -1.26810E-004	 -2.51178E-003	  2.05579E-003	 -9.81649E-004
  3.14573E+002	 -2.07271E-003	 -3.75382E-003	 -5.56900E-004	  1.84110E-003
  3.40787E+002	  1.11803E-003	  8.70120E-004	 -4.62545E-003	  1.53147E-003
  3.67002E+002	  7.97567E-004	 -1.12505E-003	  1.97735E-003	 -2.26632E-003
  3.93216E+002	  1.89001E-003	  4.56441E-003	 -6.01181E-004	 -4.54997E-003

"Count Rate"
       0.01311	     154.57153	     134.50623	     132.29370	     138.47351
       0.02621	     140.22827	     146.56067	     146.71326	     170.82214
       0.03932	     148.62061	     147.01843	     144.11926	     156.25000
       0.05243	     125.88501	     131.30188	     111.38916	     128.93677
       0.06554	     137.40540	     177.00195	     135.72693	     144.27185
       0.07864	     191.80298	     203.09448	     116.80603	     166.85486
       0.09175	     161.13281	     128.55530	     151.82495	     137.55798
       0.10486	     137.63428	     126.41907	     125.27466	     122.07031
       0.11796	     147.62878	     164.87122	     139.23645	     123.67249
       0.13107	     149.07837	     141.60156	     139.54163	     140.91492
       0.14418	     136.94763	     145.18738	     156.78406	     183.56323
       0.15729	     140.22827	     117.41638	     186.00464	     137.17651
       0.17039	     136.87134	     186.53870	     136.64246	     151.67236
       0.18350	     163.72681	     147.32361	     111.84692	     159.45435
       0.19661	     148.62061	     190.96375	     112.53357	     178.07007
       0.20972	     164.71863	     183.86841	     158.92029	     143.96667
       0.22282	     152.96936	     138.32092	     144.11926	     142.05933
       0.23593	     152.05383	     154.34265	     145.95032	     133.28552
       0.24904	     143.43262	     149.68872	     162.35352	     126.41907
       0.26214	     171.89026	     150.68054	     152.13013	     136.94763
       0.27525	     121.23108	     136.79504	     154.41895	     144.19556
       0.28836	     151.13831	     148.92578	     132.90405	     124.43542
       0.30147	     134.96399	     165.40527	     138.62610	     121.00220
       0.31457	     157.62329	     150.68054	     148.39172	     113.52539
       0.32768	     118.17932	     153.27454	     114.74609	     137.48169
       0.34079	     132.14111	     148.39172	     145.11108	     150.83313
       0.35389	     157.31812	     145.33997	     167.23633	     128.25012
       0.36700	     169.44885	     172.19543	     134.88770	     152.89307
       0.38011	     170.28809	     137.40540	     123.74878	     108.48999
       0.39322	     162.65869	     204.54407	     179.21448	     153.88489
       0.40632	     140.76233	     139.46533	     175.24719	     142.13562
       0.41943	     151.06201	     128.86047	     120.16296	     138.85498
       0.43254	     144.88220	     117.11121	     124.96948	     127.56348
       0.44564	     147.09473	     139.23645	     161.66687	     147.09473
       0.45875	     136.71875	     162.42981	     117.34009	     145.49255
       0.47186	     148.92578	     152.51160	     132.75146	     122.22290
       0.48497	     145.33997	     138.16833	     133.05664	     163.34534
       0.49807	     148.16284	     105.28564	     140.38086	     142.74597
       0.51118	     130.15747	     119.09485	     142.51709	     142.59338
       0.52429	     117.72156	     139.77051	     189.28528	     171.20361
       0.53740	     144.11926	     132.14111	     138.09204	     135.49805
       0.55050	     135.11658	     145.03479	     111.69434	     131.98853
       0.56361	     165.02380	     191.42151	     148.16284	     121.00220
       0.57672	     122.07031	     134.96399	     125.65613	     135.72693
       0.58982	     146.02661	     142.51709	     139.38904	     158.76770
       0.60293	     127.41089	     129.92859	     121.61255	     132.67517
       0.61604	     138.32092	     149.91760	     132.37000	     115.73792
       0.62915	     142.74597	     138.16833	     135.72693	     152.66418
       0.64225	     149.23096	     188.06458	     135.65063	     163.19275
       0.65536	     148.01025	     114.13574	     132.14111	     157.85217
       0.66847	     126.72424	     133.89587	     133.28552	     142.05933
       0.68157	     124.20654	     132.52258	     158.15735	     181.35071
       0.69468	     155.48706	     142.66968	     116.27197	     146.02661
       0.70779	     121.61255	     144.11926	     130.69153	     146.94214
       0.72090	     144.65332	     156.86035	     135.11658	     135.57434
       0.73400	     155.33447	     137.02393	     128.78418	     132.06482
       0.74711	     129.08936	     153.42712	     137.25281	     139.31274
