ALV-7004/USB-FAST
Date :	"3/14/2024"
Time :	"12:32:04 PM"
Samplename : 	""
SampMemo(0) : 	""
SampMemo(1) : 	""
SampMemo(2) : 	""
SampMemo(3) : 	""
SampMemo(4) : 	""
SampMemo(5) : 	""
SampMemo(6) : 	""
SampMemo(7) : 	""
SampMemo(8) : 	""
SampMemo(9) : 	""
Temperature [K] :	     298.16000
Viscosity [cp]  :	       0.89000
Refractive Index:	       1.33200
Wavelength [nm] :	       0.00000
Angle [°]       :	       0.00000
Duration [s]    :	         1
FloatDur [ms]   :	          944
Stop TP [ms]   :	      3202
Runs            :	         1
Mode            :	"A-CH0+1  A-CH2+3 "
MeanCR0 [kHz]   :	     146.50452
MeanCR1 [kHz]   :	     144.33331
MeanCR2 [kHz]   :	     138.55298
MeanCR3 [kHz]   :	     139.14320

"Correlation"
  3.12500E-006	 -1.00000E+000	 -1.00000E+000	 -1.00000E+000	 -1.00000E+000
  6.25000E-006	 -1.00000E+000	 -1.00000E+000	 -1.00000E+000	 -1.00000E+000
  9.37500E-006	 -1.00000E+000	 -1.00000E+000	 -1.00000E+000	 -1.00000E+000
  1.25000E-005	 -1.00000E+000	 -1.00000E+000	 -1.00000E+000	 -1.00000E+000
  1.56250E-005	 -1.00000E+000	 -1.00000E+000	 -1.00000E+000	 -1.00000E+000
  1.87500E-005	 -1.00000E+000	 -1.00000E+000	 -1.00000E+000	 -1.00000E+000
  2.18750E-005	 -9.21009E-001	 -3.81469E-001	 -2.22802E-001	 -9.47458E-001
  2.50000E-005	  5.06648E+000	  5.72245E+000	  5.48254E+000	  9.21062E+000
  2.81250E-005	  1.78047E+000	  1.37646E+000	  1.11963E+000	  3.97396E+000
  3.12500E-005	  4.69226E-001	  1.01836E+000	  5.89724E-001	  2.78301E+000
  3.43750E-005	  9.90564E-001	  7.90483E-001	  7.66359E-001	  1.71466E+000
  3.75000E-005	  5.79813E-001	  9.04423E-001	  8.01687E-001	  1.74969E+000
  4.06250E-005	  7.53592E-001	  7.74206E-001	  7.31032E-001	  1.48698E+000
  4.37500E-005	  8.79977E-001	  3.02170E-001	  8.72341E-001	  9.96588E-001
  4.68750E-005	  5.00822E-001	  3.67278E-001	  4.48415E-001	  1.11919E+000
  5.00000E-005	  5.00822E-001	  5.87019E-001	  5.10237E-001	  1.07540E+000
  5.62500E-005	  5.64014E-001	  7.09098E-001	  6.51546E-001	  9.79074E-001
  6.25000E-005	  5.71913E-001	  3.99832E-001	  4.57246E-001	  8.91504E-001
  6.87500E-005	  5.87712E-001	  5.38188E-001	  6.16219E-001	  9.35289E-001
  7.50000E-005	  4.92923E-001	  6.03296E-001	  6.95705E-001	  6.20038E-001
  8.12500E-005	  5.40317E-001	  4.32387E-001	  6.16219E-001	  5.58739E-001
  8.75000E-005	  5.71913E-001	  5.87019E-001	  5.27901E-001	  7.51393E-001
  9.37500E-005	  4.69226E-001	  5.70742E-001	  6.42714E-001	  3.57329E-001
  1.00000E-004	  5.28468E-001	  6.88751E-001	  5.05821E-001	  5.80632E-001
  1.12500E-004	  5.75863E-001	  4.60871E-001	  5.76476E-001	  5.63118E-001
  1.25000E-004	  5.12670E-001	  4.56802E-001	  4.04256E-001	  6.81337E-001
  1.37500E-004	  6.23257E-001	  3.22516E-001	  4.43999E-001	  6.50687E-001
  1.50000E-004	  4.13932E-001	  5.38188E-001	  4.61662E-001	  4.79927E-001
  1.62500E-004	  5.71913E-001	  5.25980E-001	  4.92573E-001	  6.41930E-001
  1.75000E-004	  5.56115E-001	  5.17841E-001	  3.91008E-001	  6.55066E-001
  1.87500E-004	  5.08721E-001	  4.89356E-001	  5.58812E-001	  6.24417E-001
  2.00000E-004	  5.14645E-001	  3.97797E-001	  5.67643E-001	  5.65307E-001
  2.25000E-004	  4.96872E-001	  4.10005E-001	  6.00763E-001	  5.08386E-001
  2.50000E-004	  4.63301E-001	  5.09702E-001	  4.70494E-001	  5.06197E-001
  2.75000E-004	  4.83048E-001	  5.36153E-001	  4.88157E-001	  4.55845E-001
  3.00000E-004	  4.45528E-001	  4.64940E-001	  4.63870E-001	  4.31763E-001
  3.25000E-004	  4.55402E-001	  4.66975E-001	  4.52830E-001	  5.12765E-001
  3.50000E-004	  4.79099E-001	  4.85287E-001	  5.36732E-001	  4.68980E-001
  3.75000E-004	  5.28468E-001	  5.03598E-001	  5.23484E-001	  4.71169E-001
  4.00000E-004	  5.19581E-001	  4.98511E-001	  5.36732E-001	  5.10575E-001
  4.50000E-004	  4.07019E-001	  4.88338E-001	  4.32958E-001	  5.11670E-001
  5.00000E-004	  5.37354E-001	  5.37169E-001	  4.78221E-001	  4.89777E-001
  5.50000E-004	  4.44540E-001	  5.28013E-001	  4.38478E-001	  4.74453E-001
  6.00000E-004	  4.63300E-001	  5.50394E-001	  4.57245E-001	  4.94156E-001
  6.50000E-004	  4.51452E-001	  4.45611E-001	  4.51726E-001	  4.70074E-001
  7.00000E-004	  4.76136E-001	  5.17840E-001	  4.62765E-001	  4.43803E-001
  7.50000E-004	  4.96871E-001	  4.85286E-001	  4.45102E-001	  4.73358E-001
  8.00000E-004	  4.81072E-001	  4.92915E-001	  4.71044E-001	  4.36687E-001
  9.00000E-004	  4.74160E-001	  4.91389E-001	  4.67180E-001	  4.42707E-001
  1.00000E-003	  4.97857E-001	  4.64430E-001	  4.19709E-001	  5.19878E-001
  1.10000E-003	  4.93908E-001	  4.53239E-001	  4.72700E-001	  4.59674E-001
  1.20000E-003	  5.07731E-001	  4.92406E-001	  4.64420E-001	  4.62411E-001
  1.30000E-003	  5.39327E-001	  4.88845E-001	  4.61108E-001	  4.98533E-001
  1.40000E-003	  4.90452E-001	  5.10718E-001	  4.66076E-001	  4.96891E-001
  1.50000E-003	  4.32196E-001	  5.00036E-001	  4.55036E-001	  4.84850E-001
  1.60000E-003	  4.64037E-001	  4.86808E-001	  4.66625E-001	  4.62408E-001
  1.80000E-003	  4.57619E-001	  4.67479E-001	  4.66073E-001	  4.32306E-001
  2.00000E-003	  4.54163E-001	  4.61121E-001	  4.49514E-001	  4.46536E-001
  2.20000E-003	  4.98102E-001	  4.53237E-001	  4.64418E-001	  4.93331E-001
  2.40000E-003	  4.66012E-001	  4.83767E-001	  4.43442E-001	  4.52557E-001
  2.60000E-003	  4.53670E-001	  5.20391E-001	  4.57518E-001	  4.75270E-001
  2.80000E-003	  5.03779E-001	  4.66727E-001	  4.36266E-001	  4.61313E-001
  3.00000E-003	  4.76132E-001	  4.66473E-001	  4.68557E-001	  4.99899E-001
  3.20000E-003	  4.57861E-001	  4.91265E-001	  4.62205E-001	  4.87306E-001
  3.60000E-003	  4.54775E-001	  4.53497E-001	  4.70760E-001	  4.58025E-001
  4.00000E-003	  4.61944E-001	  4.81346E-001	  4.68023E-001	  4.32438E-001
  4.40000E-003	  4.84901E-001	  4.67231E-001	  4.57949E-001	  4.64182E-001
  4.80000E-003	  4.67992E-001	  4.54387E-001	  4.51325E-001	  4.54741E-001
  5.20000E-003	  4.64289E-001	  5.22293E-001	  4.43045E-001	  4.56109E-001
  5.60000E-003	  4.47504E-001	  4.56422E-001	  4.44149E-001	  4.35859E-001
  6.00000E-003	  4.62685E-001	  4.72063E-001	  4.31867E-001	  4.35870E-001
  6.40000E-003	  4.68846E-001	  4.51135E-001	  4.48348E-001	  4.58311E-001
  7.20000E-003	  4.50333E-001	  4.66267E-001	  4.58974E-001	  4.45449E-001
  8.00000E-003	  4.48482E-001	  4.74342E-001	  4.53396E-001	  4.45449E-001
  8.80000E-003	  4.53048E-001	  4.79683E-001	  4.38769E-001	  4.43123E-001
  9.60000E-003	  4.58417E-001	  4.45857E-001	  4.47117E-001	  4.35050E-001
  1.04000E-002	  4.38001E-001	  4.62706E-001	  4.38493E-001	  4.40386E-001
  1.12000E-002	  4.51084E-001	  4.71735E-001	  4.34077E-001	  4.33887E-001
  1.20000E-002	  4.35533E-001	  4.61880E-001	  4.33042E-001	  4.39565E-001
  1.28000E-002	  4.37345E-001	  4.56710E-001	  4.22948E-001	  4.38712E-001
  1.44000E-002	  4.39073E-001	  4.41164E-001	  4.19130E-001	  4.29192E-001
  1.60000E-002	  4.39998E-001	  4.54389E-001	  4.19509E-001	  4.28611E-001
  1.76000E-002	  4.21700E-001	  4.37445E-001	  4.14783E-001	  4.19614E-001
  1.92000E-002	  4.17257E-001	  4.26795E-001	  4.23201E-001	  4.17733E-001
  2.08000E-002	  4.23768E-001	  4.33503E-001	  4.02398E-001	  4.07573E-001
  2.24000E-002	  4.05994E-001	  4.13284E-001	  3.96050E-001	  4.14791E-001
  2.40000E-002	  4.07815E-001	  4.06989E-001	  3.91231E-001	  3.90925E-001
  2.56000E-002	  3.99072E-001	  4.00270E-001	  3.89996E-001	  3.97636E-001
  2.88000E-002	  3.91717E-001	  3.98060E-001	  3.85263E-001	  3.83440E-001
  3.20000E-002	  3.78165E-001	  3.79050E-001	  3.72726E-001	  3.82215E-001
  3.52000E-002	  3.70965E-001	  3.70530E-001	  3.60144E-001	  3.65333E-001
  3.84000E-002	  3.63703E-001	  3.61220E-001	  3.53410E-001	  3.45776E-001
  4.16000E-002	  3.51456E-001	  3.59068E-001	  3.34376E-001	  3.50685E-001
  4.48000E-002	  3.41946E-001	  3.44836E-001	  3.29805E-001	  3.29332E-001
  4.80000E-002	  3.33963E-001	  3.35038E-001	  3.13265E-001	  3.23072E-001
  5.12000E-002	  3.24440E-001	  3.24071E-001	  3.11836E-001	  3.09966E-001
  5.76000E-002	  3.09782E-001	  3.09137E-001	  2.94940E-001	  2.93720E-001
  6.40000E-002	  2.87695E-001	  2.94037E-001	  2.76555E-001	  2.77570E-001
  7.04000E-002	  2.67939E-001	  2.77078E-001	  2.64671E-001	  2.65007E-001
  7.68000E-002	  2.58266E-001	  2.68987E-001	  2.49611E-001	  2.43746E-001
  8.32000E-002	  2.47158E-001	  2.52201E-001	  2.27912E-001	  2.28000E-001
  8.96000E-002	  2.36652E-001	  2.37785E-001	  2.22298E-001	  2.18686E-001
  9.60000E-002	  2.32302E-001	  2.19196E-001	  2.12872E-001	  2.09158E-001
  1.02400E-001	  2.15383E-001	  2.13716E-001	  2.00301E-001	  1.98936E-001
  1.15200E-001	  1.95144E-001	  1.98913E-001	  1.82396E-001	  1.78891E-001
  1.28000E-001	  1.79031E-001	  1.79857E-001	  1.67706E-001	  1.56921E-001
  1.40800E-001	  1.60497E-001	  1.62777E-001	  1.50519E-001	  1.42073E-001
  1.53600E-001	  1.47776E-001	  1.43340E-001	  1.36083E-001	  1.27953E-001
  1.66400E-001	  1.39818E-001	  1.29661E-001	  1.28466E-001	  1.18230E-001
  1.79200E-001	  1.28907E-001	  1.21109E-001	  1.13382E-001	  1.04965E-001
  1.92000E-001	  1.23260E-001	  1.12807E-001	  1.02938E-001	  1.00866E-001
  2.04800E-001	  1.09516E-001	  1.02525E-001	  9.74530E-002	  9.42249E-002
  2.30400E-001	  9.44820E-002	  8.61606E-002	  8.27580E-002	  7.53810E-002
  2.56000E-001	  8.24021E-002	  7.20339E-002	  6.71693E-002	  6.38457E-002
  2.81600E-001	  7.03982E-002	  6.44328E-002	  5.82582E-002	  5.33649E-002
  3.07200E-001	  6.12520E-002	  5.43754E-002	  5.23400E-002	  5.02256E-002
  3.32800E-001	  5.96714E-002	  4.56460E-002	  4.29545E-002	  4.21106E-002
  3.58400E-001	  5.01513E-002	  4.58942E-002	  3.80217E-002	  4.06278E-002
  3.84000E-001	  4.56602E-002	  4.53274E-002	  3.22297E-002	  3.65759E-002
  4.09600E-001	  4.07323E-002	  4.07526E-002	  2.95081E-002	  2.96882E-002
  4.60800E-001	  3.43301E-002	  3.94558E-002	  2.17170E-002	  1.54385E-002
  5.12000E-001	  2.65044E-002	  4.00293E-002	  1.39651E-002	  9.23434E-003
  5.63200E-001	  2.16139E-002	  3.33675E-002	  1.29652E-002	  3.64268E-003
  6.14400E-001	  2.31777E-002	  3.14567E-002	  8.80371E-003	  7.80061E-003
  6.65600E-001	  2.37691E-002	  2.71203E-002	  1.11962E-002	  9.82964E-003
  7.16800E-001	  2.22129E-002	  2.91006E-002	  1.22446E-002	  4.33829E-003
  7.68000E-001	  1.55531E-002	  2.36128E-002	  1.05430E-002	  7.30605E-003
  8.19200E-001	  1.91902E-002	  2.37281E-002	  1.16206E-002	  5.14250E-003
  9.21600E-001	  9.62907E-003	  1.55665E-002	  5.97431E-003	  4.00335E-003
  1.02400E+000	  6.99087E-003	  1.79063E-002	  2.68620E-003	  1.29417E-002
  1.12640E+000	  9.46176E-003	  1.38206E-002	 -1.74450E-003	  3.41429E-003
  1.22880E+000	  1.05943E-002	  1.59383E-002	 -7.72505E-004	 -4.52419E-003
  1.33120E+000	  1.07748E-002	  1.62948E-002	 -3.29608E-003	 -4.73975E-003
  1.43360E+000	  1.07077E-002	  5.42533E-003	 -1.20137E-002	 -6.21020E-003
  1.53600E+000	  7.95161E-003	  1.07396E-003	 -1.31656E-002	 -1.18705E-003
  1.63840E+000	  7.39969E-003	 -6.17215E-003	 -1.62198E-002	  1.42563E-003
  1.84320E+000	  9.57032E-003	 -5.37189E-003	 -1.15453E-002	  1.44497E-003
  2.04800E+000	  3.15951E-003	  3.49453E-003	 -1.00773E-002	 -8.31616E-004
  2.25280E+000	  3.65253E-003	 -2.33322E-003	 -8.31739E-003	  9.56454E-005
  2.45760E+000	  4.83876E-004	  2.74485E-003	 -1.11062E-003	  9.41735E-003
  2.66240E+000	 -2.30564E-003	 -8.18101E-004	  1.60427E-004	  6.29358E-003
  2.86720E+000	 -5.15610E-003	  8.09390E-003	  6.12687E-003	 -1.62734E-004
  3.07200E+000	  1.66704E-003	  5.02216E-003	  4.85569E-003	 -8.04364E-003
  3.27680E+000	  3.09641E-005	  5.97456E-003	  1.26036E-003	 -9.14509E-003
  3.68640E+000	 -3.10804E-003	 -4.53209E-003	  2.69565E-003	 -1.33703E-003
  4.09600E+000	  7.47926E-004	  1.32082E-003	 -6.17138E-005	 -4.19032E-003
  4.50560E+000	  2.39292E-005	  6.10315E-003	  1.04376E-003	  6.22221E-003
  4.91520E+000	  1.39606E-003	 -3.97363E-004	  6.00340E-003	 -2.29954E-003
  5.32480E+000	 -1.70826E-003	  6.90253E-003	 -4.18228E-003	  7.99710E-003
  5.73440E+000	 -8.53368E-003	 -3.61023E-004	  4.24187E-003	  1.96627E-003
  6.14400E+000	 -3.53838E-003	 -3.65976E-003	 -4.32550E-003	 -2.08830E-003
  6.55360E+000	  8.34440E-003	  1.90009E-003	  6.39205E-003	  5.75979E-003
  7.37280E+000	  1.75424E-003	 -2.03211E-003	  6.17102E-003	  2.78943E-003
  8.19200E+000	  4.29453E-004	 -3.51604E-003	 -5.39129E-003	 -5.27440E-003
  9.01120E+000	  9.27488E-004	 -2.15876E-003	 -2.68372E-003	 -3.83098E-003
  9.83040E+000	 -7.80723E-003	 -5.68964E-003	 -6.14683E-004	 -5.57710E-003
  1.06496E+001	 -8.72527E-003	 -9.17266E-003	 -2.77403E-004	 -5.94095E-003
  1.14688E+001	 -1.59635E-003	 -9.15380E-003	  5.43770E-003	 -6.09730E-003
  1.22880E+001	  9.99794E-004	 -7.21939E-003	  1.55737E-003	 -2.74198E-004
  1.31072E+001	  5.25541E-003	 -6.32261E-003	 -5.80480E-004	  4.32518E-003
  1.47456E+001	  7.21627E-003	 -1.22929E-003	 -2.65521E-003	  2.53884E-003
  1.63840E+001	 -5.90832E-004	 -9.51586E-004	 -2.01400E-003	 -2.17682E-003
  1.80224E+001	  5.50906E-003	 -2.84912E-003	  6.92674E-006	  2.80668E-004
  1.96608E+001	 -4.51274E-005	  2.29360E-003	  2.16609E-003	 -6.41261E-004
  2.12992E+001	 -3.80470E-003	  5.29374E-003	 -1.19908E-003	 -6.40376E-003
  2.29376E+001	 -4.71995E-003	  4.78199E-004	  2.29108E-003	 -2.37833E-003
  2.45760E+001	 -7.06064E-003	  2.96646E-003	 -8.75727E-004	  3.02128E-003
  2.62144E+001	 -4.50910E-003	  2.21179E-003	 -2.15333E-003	 -1.45932E-003
  2.94912E+001	 -5.61242E-004	  3.03198E-003	 -2.21195E-003	 -1.79594E-003
  3.27680E+001	 -8.58184E-004	 -1.66622E-003	  1.96085E-003	 -5.30825E-004
  3.60448E+001	  1.19755E-003	  2.30317E-003	  7.58805E-004	 -6.34774E-003
  3.93216E+001	 -3.07528E-003	  2.36301E-003	 -5.57789E-004	  1.37223E-003
  4.25984E+001	  1.43642E-003	 -1.19584E-003	  1.52779E-003	  1.98155E-004
  4.58752E+001	  1.49879E-004	 -6.59989E-003	  5.46217E-004	 -9.50296E-004
  4.91520E+001	 -4.09233E-003	 -2.94023E-003	 -1.82062E-003	  8.74774E-004
  5.24288E+001	 -2.58823E-003	  1.42258E-003	 -8.19320E-004	  7.64948E-004
  5.89824E+001	 -1.51155E-003	  5.42946E-003	  1.60630E-003	  1.22095E-004
  6.55360E+001	  2.51137E-004	  2.85749E-003	 -1.75614E-003	 -2.17706E-003
  7.20896E+001	 -2.29362E-003	 -2.69384E-004	 -3.68030E-003	 -4.42626E-004
  7.86432E+001	  3.24193E-003	 -2.72834E-003	 -2.04298E-003	 -8.08753E-005
  8.51968E+001	  4.24896E-005	 -1.90908E-003	 -7.12003E-004	  2.58074E-003
  9.17504E+001	  2.83262E-004	  2.88646E-003	  1.53304E-003	  9.34453E-005
  9.83040E+001	  3.57473E-004	 -3.17211E-003	 -1.65275E-003	  1.60152E-003
  1.04858E+002	 -9.69784E-004	 -2.47314E-003	 -2.43226E-003	  1.49143E-003
  1.17965E+002	 -7.46716E-004	  3.34026E-003	 -2.14409E-003	 -8.04229E-004
  1.31072E+002	  1.77495E-003	 -2.97658E-003	 -6.99204E-004	  9.28427E-004
  1.44179E+002	  1.43060E-004	  1.05069E-005	  2.83001E-004	  7.52078E-004
  1.57286E+002	  1.83865E-005	 -3.98696E-003	  2.08223E-003	 -2.10549E-003
  1.70394E+002	 -9.44225E-005	  1.61171E-003	  1.05181E-003	 -2.56166E-003
  1.83501E+002	 -3.82457E-006	 -1.86824E-003	  6.32048E-004	  1.86910E-003
  1.96608E+002	 -8.53258E-004	  6.80615E-004	  1.74350E-003	  2.29071E-003
  2.09715E+002	 -9.60060E-004	 -7.08028E-004	  2.12309E-004	  1.59434E-003
  2.35930E+002	  9.80325E-004	 -9.85898E-004	  2.40076E-003	 -1.96847E-003
  2.62144E+002	  3.53285E-004	  1.01279E-003	 -2.25637E-003	  9.09803E-004
  2.88358E+002	  1.27343E-007	  1.71590E-003	 -1.75124E-003	  7.37537E-004
  3.14573E+002	 -1.08468E-003	  2.85681E-003	 -1.35559E-003	  9.23131E-004
  3.40787E+002	  3.19578E-004	  2.16751E-003	 -7.81896E-004	 -4.88503E-004
  3.67002E+002	 -2.48076E-004	 -8.79817E-005	  1.40401E-004	 -1.36811E-003
  3.93216E+002	  6.94185E-004	  1.15346E-003	  3.40194E-003	  1.68984E-003

"Count Rate"
       0.01311	     160.82764	     139.00757	     137.93945	     128.32642
       0.02621	     168.07556	     162.50610	     134.88770	     142.28821
       0.03932	     149.38354	     139.84680	     134.96399	     158.99658
       0.05243	     163.49792	     132.29370	     155.02930	     138.24463
       0.06554	     122.98584	     126.19019	     110.24475	     119.55261
       0.07864	     114.59351	     133.20923	     131.07300	     140.99121
       0.09175	     145.79773	     150.90942	     171.81396	     148.23914
       0.10486	     137.25281	     132.75146	     135.26917	     143.43262
       0.11796	     146.10291	     177.30713	     132.29370	     140.91492
       0.13107	     137.48169	     123.21472	     144.72961	     151.44348
       0.14418	     149.15466	     142.13562	     153.19824	     144.95850
       0.15729	     139.38904	     177.30713	     146.94214	     118.17932
       0.17039	     139.92310	     141.98303	     132.21741	     137.02393
       0.18350	     142.21191	     160.36987	     147.62878	     130.92041
       0.19661	     147.70508	     125.27466	     124.43542	     157.62329
       0.20972	     176.23901	     137.78687	     129.69971	     136.71875
       0.22282	     153.88489	     140.30457	     140.53345	     148.84949
       0.23593	     117.18750	     152.66418	     129.39453	     151.06201
       0.24904	     145.87402	     119.24744	     153.19824	     129.47083
       0.26214	     139.54163	     138.93127	     117.49268	     129.16565
       0.27525	     140.91492	     139.61792	     119.93408	     143.50891
       0.28836	     171.05103	     131.22559	     150.22278	     140.22827
       0.30147	     182.26624	     123.90137	     145.49255	     147.62878
       0.31457	     134.58252	     130.08118	     147.70508	     133.13293
       0.32768	     129.47083	     142.97485	     125.88501	     143.28003
       0.34079	     158.46252	     122.37549	     148.01025	     137.93945
       0.35389	     140.53345	     145.64514	     141.22009	     136.48987
       0.36700	     139.84680	     133.05664	     129.16565	     109.93958
       0.38011	     119.78149	     155.33447	     141.29639	     168.76221
       0.39322	     136.03210	     129.08936	     132.75146	     138.70239
       0.40632	     141.90674	     150.83313	     139.16016	     142.97485
       0.41943	     150.75684	     116.34827	     116.04309	     152.05383
       0.43254	     168.68591	     168.30444	     131.14929	     144.42444
       0.44564	     136.56616	     143.58521	     120.16296	     107.42188
       0.45875	     138.62610	     149.61243	     124.74060	     113.75427
       0.47186	     143.96667	     142.74597	     135.42175	     146.86584
       0.48497	     148.92578	     141.90674	     167.77039	     147.55249
       0.49807	     141.75415	     180.05371	     123.21472	     113.52539
       0.51118	     129.31824	     135.87952	     122.37549	     136.71875
       0.52429	     159.83582	     139.77051	     129.92859	     146.86584
       0.53740	     140.99121	     128.63159	     157.85217	     142.74597
       0.55050	     149.15466	     171.73767	     155.25818	     142.13562
       0.56361	     135.42175	     137.93945	     140.45715	     121.38367
       0.57672	     139.99939	     125.04578	     141.22009	     116.04309
       0.58982	     135.34546	     115.81421	     128.55530	     138.39722
       0.60293	     157.31812	     123.06213	     136.03210	     151.13831
       0.61604	     142.21191	     138.32092	     132.37000	     139.00757
       0.62915	     144.65332	     143.73779	     138.09204	     154.34265
       0.64225	     129.77600	     151.21460	     132.06482	     123.67249
       0.65536	     137.17651	     116.72974	     129.92859	     149.68872
       0.66847	     139.31274	     156.47888	     136.41357	     147.70508
       0.68157	     159.45435	     168.30444	     101.39465	     139.61792
       0.69468	     157.47070	     136.18469	     159.60693	     112.07581
       0.70779	     145.26367	     138.54980	     136.87134	     154.34265
       0.72090	     129.39453	     128.55530	     134.35364	     128.78418
       0.73400	     146.17920	     146.33179	     178.37524	     138.16833
       0.74711	     125.50354	     160.90393	     146.63696	     117.79785
