ALV-7004/USB-FAST
Date :	"3/14/2024"
Time :	"12:30:19 PM"
Samplename : 	""
SampMemo(0) : 	""
SampMemo(1) : 	""
SampMemo(2) : 	""
SampMemo(3) : 	""
SampMemo(4) : 	""
SampMemo(5) : 	""
SampMemo(6) : 	""
SampMemo(7) : 	""
SampMemo(8) : 	""
SampMemo(9) : 	""
Temperature [K] :	     298.16000
Viscosity [cp]  :	       0.89000
Refractive Index:	       1.33200
Wavelength [nm] :	       0.00000
Angle [°]       :	       0.00000
Duration [s]    :	         1
FloatDur [ms]   :	          944
Stop TP [ms]   :	      3160
Runs            :	         1
Mode            :	"A-CH0+1  A-CH2+3 "
MeanCR0 [kHz]   :	     150.02992
MeanCR1 [kHz]   :	     154.14980
MeanCR2 [kHz]   :	     149.93561
MeanCR3 [kHz]   :	     144.96909

"Correlation"
  3.12500E-006	 -1.00000E+000	 -1.00000E+000	 -1.00000E+000	 -1.00000E+000
  6.25000E-006	 -1.00000E+000	 -1.00000E+000	 -1.00000E+000	 -1.00000E+000
  9.37500E-006	 -1.00000E+000	 -1.00000E+000	 -1.00000E+000	 -1.00000E+000
  1.25000E-005	 -1.00000E+000	 -1.00000E+000	 -1.00000E+000	 -1.00000E+000
  1.56250E-005	 -1.00000E+000	 -1.00000E+000	 -1.00000E+000	 -1.00000E+000
  1.87500E-005	 -1.00000E+000	 -1.00000E+000	 -1.00000E+000	 -1.00000E+000
  2.18750E-005	 -9.39742E-001	 -3.86393E-001	 -1.55320E-001	 -9.51596E-001
  2.50000E-005	  5.64340E+000	  5.63551E+000	  5.30493E+000	  9.77787E+000
  2.81250E-005	  1.24460E+000	  1.01206E+000	  1.17203E+000	  3.75969E+000
  3.12500E-005	  8.67985E-001	  7.83740E-001	  9.60864E-001	  2.29145E+000
  3.43750E-005	  1.00356E+000	  5.69691E-001	  9.00529E-001	  1.69447E+000
  3.75000E-005	  8.83050E-001	  6.26771E-001	  5.98858E-001	  1.56539E+000
  4.06250E-005	  4.00989E-001	  5.98231E-001	  4.17855E-001	  1.22657E+000
  4.37500E-005	  7.02277E-001	  4.12722E-001	  8.40195E-001	  1.08136E+000
  4.68750E-005	  4.00989E-001	  2.98563E-001	  6.74276E-001	  1.21043E+000
  5.00000E-005	  8.98114E-001	  6.12501E-001	  6.29025E-001	  1.49279E+000
  5.62500E-005	  6.34487E-001	  4.69802E-001	  4.10313E-001	  1.31531E+000
  6.25000E-005	  5.51633E-001	  6.33906E-001	  5.08357E-001	  8.23203E-001
  6.87500E-005	  6.11890E-001	  5.26882E-001	  5.23440E-001	  9.36145E-001
  7.50000E-005	  3.70860E-001	  5.76826E-001	  6.66734E-001	  7.26396E-001
  8.12500E-005	  5.29036E-001	  7.69470E-001	  6.89359E-001	  6.86060E-001
  8.75000E-005	  4.91375E-001	  6.62446E-001	  6.21483E-001	  9.44212E-001
  9.37500E-005	  4.83843E-001	  6.90986E-001	  5.08357E-001	  5.00512E-001
  1.00000E-004	  6.04358E-001	  5.30449E-001	  5.98858E-001	  5.44882E-001
  1.12500E-004	  4.83843E-001	  5.23314E-001	  5.23440E-001	  5.81185E-001
  1.25000E-004	  4.61246E-001	  4.59099E-001	  5.49836E-001	  5.20681E-001
  1.37500E-004	  4.00989E-001	  4.98342E-001	  4.25397E-001	  5.52950E-001
  1.50000E-004	  4.27351E-001	  5.26881E-001	  4.36710E-001	  4.96479E-001
  1.62500E-004	  6.11890E-001	  5.69691E-001	  5.23440E-001	  5.20681E-001
  1.75000E-004	  4.61246E-001	  5.01909E-001	  4.55564E-001	  4.92445E-001
  1.87500E-004	  6.79680E-001	  6.37473E-001	  5.00815E-001	  4.35974E-001
  2.00000E-004	  4.44299E-001	  5.17962E-001	  4.78189E-001	  5.04546E-001
  2.25000E-004	  5.66697E-001	  4.55532E-001	  5.98858E-001	  4.74293E-001
  2.50000E-004	  4.53714E-001	  5.71475E-001	  4.48022E-001	  5.04546E-001
  2.75000E-004	  4.27351E-001	  5.37584E-001	  5.42294E-001	  5.75134E-001
  3.00000E-004	  4.33000E-001	  5.16179E-001	  5.06471E-001	  4.40008E-001
  3.25000E-004	  5.44100E-001	  5.23314E-001	  5.61149E-001	  4.94462E-001
  3.50000E-004	  5.25270E-001	  5.44719E-001	  5.14012E-001	  4.60176E-001
  3.75000E-004	  5.76112E-001	  4.71585E-001	  5.59263E-001	  5.71101E-001
  4.00000E-004	  4.84783E-001	  4.83179E-001	  5.09298E-001	  5.86226E-001
  4.50000E-004	  4.72544E-001	  5.25097E-001	  5.17783E-001	  5.20680E-001
  5.00000E-004	  5.13971E-001	  4.91206E-001	  4.79131E-001	  4.30931E-001
  5.50000E-004	  4.70661E-001	  5.83068E-001	  4.98928E-001	  5.55974E-001
  6.00000E-004	  4.36766E-001	  4.81395E-001	  4.32938E-001	  4.72276E-001
  6.50000E-004	  5.24327E-001	  5.58096E-001	  4.91386E-001	  5.01520E-001
  7.00000E-004	  5.44099E-001	  4.83179E-001	  5.11184E-001	  4.48074E-001
  7.50000E-004	  5.36567E-001	  4.25207E-001	  4.89501E-001	  4.56141E-001
  8.00000E-004	  5.37507E-001	  4.46611E-001	  4.80073E-001	  4.52611E-001
  9.00000E-004	  5.13499E-001	  5.00123E-001	  4.66874E-001	  4.97485E-001
  1.00000E-003	  4.75367E-001	  4.84961E-001	  4.83843E-001	  5.02527E-001
  1.10000E-003	  4.94197E-001	  5.38919E-001	  5.44178E-001	  4.48073E-001
  1.20000E-003	  5.05496E-001	  4.51070E-001	  4.77244E-001	  4.64712E-001
  1.30000E-003	  4.51358E-001	  5.11717E-001	  4.86200E-001	  4.66224E-001
  1.40000E-003	  4.65952E-001	  4.66678E-001	  4.42835E-001	  4.80342E-001
  1.50000E-003	  4.73955E-001	  5.06812E-001	  4.96099E-001	  4.04711E-001
  1.60000E-003	  4.69736E-001	  4.81837E-001	  4.70418E-001	  4.30423E-001
  1.80000E-003	  4.99876E-001	  4.76486E-001	  4.77959E-001	  4.80592E-001
  2.00000E-003	  4.70453E-001	  4.79831E-001	  4.47792E-001	  4.64961E-001
  2.20000E-003	  4.96580E-001	  4.62439E-001	  4.81023E-001	  4.63701E-001
  2.40000E-003	  4.53505E-001	  4.99452E-001	  4.91393E-001	  4.52608E-001
  2.60000E-003	  4.97757E-001	  5.05472E-001	  5.02470E-001	  4.60928E-001
  2.80000E-003	  4.65745E-001	  4.50845E-001	  4.92572E-001	  4.83113E-001
  3.00000E-003	  4.76808E-001	  5.04580E-001	  4.77959E-001	  4.57902E-001
  3.20000E-003	  4.61063E-001	  4.87741E-001	  4.73497E-001	  4.70503E-001
  3.60000E-003	  4.76246E-001	  4.92879E-001	  4.71730E-001	  4.71889E-001
  4.00000E-003	  4.77658E-001	  4.80059E-001	  4.62174E-001	  4.83360E-001
  4.40000E-003	  4.95312E-001	  5.04808E-001	  4.80557E-001	  4.53738E-001
  4.80000E-003	  4.64113E-001	  4.76826E-001	  4.86332E-001	  4.59662E-001
  5.20000E-003	  4.76706E-001	  4.70583E-001	  4.65002E-001	  4.35965E-001
  5.60000E-003	  4.66585E-001	  4.72143E-001	  4.67359E-001	  4.57897E-001
  6.00000E-003	  4.67526E-001	  4.98008E-001	  4.74783E-001	  4.65334E-001
  6.40000E-003	  4.76385E-001	  4.85790E-001	  4.65425E-001	  4.71890E-001
  7.20000E-003	  4.69970E-001	  4.90417E-001	  4.71141E-001	  4.59159E-001
  8.00000E-003	  4.59790E-001	  4.66894E-001	  4.61772E-001	  4.72268E-001
  8.80000E-003	  4.76444E-001	  4.71186E-001	  4.50813E-001	  4.70944E-001
  9.60000E-003	  4.67488E-001	  4.89525E-001	  4.70552E-001	  4.53487E-001
  1.04000E-002	  4.74218E-001	  4.56424E-001	  4.72545E-001	  4.48823E-001
  1.12000E-002	  4.68077E-001	  4.68465E-001	  4.51628E-001	  4.44222E-001
  1.20000E-002	  4.58367E-001	  4.59657E-001	  4.61360E-001	  4.51281E-001
  1.28000E-002	  4.51043E-001	  4.62881E-001	  4.57943E-001	  4.50747E-001
  1.44000E-002	  4.45599E-001	  4.49736E-001	  4.48349E-001	  4.29633E-001
  1.60000E-002	  4.46187E-001	  4.60737E-001	  4.50382E-001	  4.27700E-001
  1.76000E-002	  4.48708E-001	  4.43986E-001	  4.41397E-001	  4.39265E-001
  1.92000E-002	  4.30033E-001	  4.51010E-001	  4.36840E-001	  4.20515E-001
  2.08000E-002	  4.35163E-001	  4.33172E-001	  4.28002E-001	  4.16954E-001
  2.24000E-002	  4.29161E-001	  4.43317E-001	  4.26470E-001	  4.13046E-001
  2.40000E-002	  4.20372E-001	  4.31193E-001	  4.23082E-001	  4.07154E-001
  2.56000E-002	  4.16182E-001	  4.31871E-001	  4.23609E-001	  4.09255E-001
  2.88000E-002	  4.01337E-001	  4.17718E-001	  4.15832E-001	  4.00079E-001
  3.20000E-002	  4.09429E-001	  4.02895E-001	  4.09960E-001	  3.93372E-001
  3.52000E-002	  3.96658E-001	  3.93767E-001	  4.04505E-001	  3.84081E-001
  3.84000E-002	  3.90047E-001	  3.95760E-001	  3.87642E-001	  3.81418E-001
  4.16000E-002	  3.63696E-001	  3.86930E-001	  3.87701E-001	  3.68030E-001
  4.48000E-002	  3.69557E-001	  3.84365E-001	  3.71123E-001	  3.61443E-001
  4.80000E-002	  3.65354E-001	  3.69050E-001	  3.64994E-001	  3.49194E-001
  5.12000E-002	  3.59069E-001	  3.63567E-001	  3.55068E-001	  3.49478E-001
  5.76000E-002	  3.49008E-001	  3.51794E-001	  3.43629E-001	  3.32771E-001
  6.40000E-002	  3.35228E-001	  3.34936E-001	  3.34720E-001	  3.16370E-001
  7.04000E-002	  3.21326E-001	  3.24478E-001	  3.25345E-001	  3.10325E-001
  7.68000E-002	  3.05168E-001	  3.02958E-001	  3.07718E-001	  2.91675E-001
  8.32000E-002	  2.94521E-001	  2.95125E-001	  2.99196E-001	  2.78758E-001
  8.96000E-002	  2.91387E-001	  2.85378E-001	  2.86673E-001	  2.71492E-001
  9.60000E-002	  2.76746E-001	  2.81009E-001	  2.81557E-001	  2.61863E-001
  1.02400E-001	  2.70736E-001	  2.68297E-001	  2.70748E-001	  2.48370E-001
  1.15200E-001	  2.51677E-001	  2.49810E-001	  2.52033E-001	  2.32576E-001
  1.28000E-001	  2.34523E-001	  2.34261E-001	  2.37239E-001	  2.15713E-001
  1.40800E-001	  2.20271E-001	  2.19992E-001	  2.18453E-001	  1.97577E-001
  1.53600E-001	  2.09732E-001	  2.14532E-001	  2.02427E-001	  1.83859E-001
  1.66400E-001	  1.94495E-001	  1.99862E-001	  1.92083E-001	  1.77533E-001
  1.79200E-001	  1.93120E-001	  1.89940E-001	  1.82986E-001	  1.65372E-001
  1.92000E-001	  1.77081E-001	  1.83701E-001	  1.70384E-001	  1.54868E-001
  2.04800E-001	  1.69897E-001	  1.69769E-001	  1.60393E-001	  1.48483E-001
  2.30400E-001	  1.55999E-001	  1.54500E-001	  1.48432E-001	  1.32234E-001
  2.56000E-001	  1.40600E-001	  1.43660E-001	  1.38625E-001	  1.19084E-001
  2.81600E-001	  1.31038E-001	  1.26605E-001	  1.24720E-001	  1.04924E-001
  3.07200E-001	  1.19505E-001	  1.20122E-001	  1.13677E-001	  9.66934E-002
  3.32800E-001	  1.10323E-001	  1.08357E-001	  1.08407E-001	  8.29786E-002
  3.58400E-001	  1.01711E-001	  9.96528E-002	  1.01656E-001	  7.69560E-002
  3.84000E-001	  9.49399E-002	  9.36060E-002	  9.64095E-002	  6.98921E-002
  4.09600E-001	  9.01260E-002	  8.70699E-002	  9.04117E-002	  6.08294E-002
  4.60800E-001	  7.80417E-002	  7.29824E-002	  8.07594E-002	  5.19864E-002
  5.12000E-001	  6.84042E-002	  6.19766E-002	  7.19918E-002	  4.78571E-002
  5.63200E-001	  6.10171E-002	  5.39021E-002	  6.46699E-002	  4.58616E-002
  6.14400E-001	  5.33594E-002	  4.66523E-002	  5.48710E-002	  4.31273E-002
  6.65600E-001	  4.73400E-002	  4.06761E-002	  5.03365E-002	  3.97755E-002
  7.16800E-001	  4.19062E-002	  3.74734E-002	  4.77126E-002	  3.21571E-002
  7.68000E-001	  3.77270E-002	  3.09132E-002	  4.15254E-002	  3.06433E-002
  8.19200E-001	  3.40837E-002	  2.70655E-002	  3.92931E-002	  2.95767E-002
  9.21600E-001	  3.29810E-002	  1.93636E-002	  3.32111E-002	  2.75447E-002
  1.02400E+000	  2.87852E-002	  1.06887E-002	  2.45367E-002	  2.45919E-002
  1.12640E+000	  2.65283E-002	  7.26861E-003	  1.73439E-002	  2.05643E-002
  1.22880E+000	  1.78356E-002	  5.50895E-003	  1.75746E-002	  1.95176E-002
  1.33120E+000	  1.23902E-002	  4.62647E-003	  2.03341E-002	  1.58854E-002
  1.43360E+000	  1.08010E-002	  1.16571E-002	  1.19625E-002	  1.44943E-002
  1.53600E+000	  8.83514E-003	  7.08211E-003	  8.31192E-003	  1.70089E-002
  1.63840E+000	  6.54318E-003	  5.59120E-003	  6.30977E-003	  1.58140E-002
  1.84320E+000	 -9.75230E-004	  1.13912E-003	  4.62818E-003	  1.67883E-002
  2.04800E+000	  1.17732E-003	  7.11446E-003	 -1.64538E-003	  1.46007E-002
  2.25280E+000	  4.03555E-003	  6.62030E-003	 -1.00121E-002	  9.20559E-003
  2.45760E+000	  6.17176E-003	  6.74915E-003	 -8.66990E-003	  4.01079E-003
  2.66240E+000	  1.27282E-002	  1.19157E-002	 -1.74213E-003	  2.40475E-003
  2.86720E+000	  9.80347E-003	  1.01919E-002	  5.81298E-003	 -7.54262E-005
  3.07200E+000	  9.62833E-003	  6.60408E-003	  4.58327E-003	 -2.54646E-003
  3.27680E+000	  4.76950E-003	  7.02012E-004	 -4.34042E-003	  6.94436E-003
  3.68640E+000	  8.72085E-003	 -4.58267E-003	 -2.10909E-003	 -1.52701E-003
  4.09600E+000	  8.92765E-004	  2.97935E-003	  3.29582E-004	  5.76570E-003
  4.50560E+000	 -3.40437E-003	  5.03636E-003	 -1.69391E-003	  6.55221E-003
  4.91520E+000	 -9.24717E-003	  2.10006E-003	  5.27892E-003	  1.18432E-004
  5.32480E+000	 -2.07752E-003	  3.27039E-003	  1.33025E-003	  6.56322E-003
  5.73440E+000	 -3.12671E-003	  5.22543E-003	  2.75153E-003	  8.40836E-003
  6.14400E+000	  4.58890E-003	  8.63102E-003	  7.44385E-003	  1.28453E-002
  6.55360E+000	  6.24946E-003	  1.26365E-002	  6.39488E-003	  1.30480E-002
  7.37280E+000	  1.89933E-003	 -2.65183E-003	  3.19283E-003	  1.37715E-002
  8.19200E+000	 -1.09974E-002	  5.53752E-003	 -1.71279E-003	  1.26432E-002
  9.01120E+000	  4.22645E-003	  4.04178E-003	 -5.39732E-003	  8.74355E-003
  9.83040E+000	  6.28631E-003	 -3.74226E-003	 -6.44011E-003	  1.27856E-002
  1.06496E+001	  3.57711E-003	 -7.60330E-003	 -1.17435E-003	  6.61631E-003
  1.14688E+001	 -5.42371E-003	 -2.15762E-003	  4.15944E-004	  7.15728E-004
  1.22880E+001	 -7.15448E-003	 -2.31902E-003	 -2.30182E-003	 -7.13591E-003
  1.31072E+001	 -1.50596E-003	  3.15460E-003	 -7.46816E-005	 -1.95143E-006
  1.47456E+001	 -1.45741E-003	  2.58751E-003	 -2.28154E-003	  1.97000E-003
  1.63840E+001	 -5.21207E-003	 -4.12029E-003	 -3.73515E-003	  2.33747E-003
  1.80224E+001	  7.41769E-003	  2.04098E-003	 -2.50494E-003	  3.23148E-003
  1.96608E+001	  1.07352E-002	 -6.01835E-003	 -8.95063E-003	  2.69073E-004
  2.12992E+001	  9.46236E-003	 -1.03186E-002	 -7.96686E-003	 -2.20306E-003
  2.29376E+001	 -9.13813E-006	  4.35389E-003	  3.63398E-003	 -8.81185E-004
  2.45760E+001	  5.26288E-003	  6.21412E-003	 -1.94221E-003	  3.02216E-004
  2.62144E+001	 -4.54185E-003	  4.52003E-003	 -1.16351E-003	  6.73776E-003
  2.94912E+001	  2.99056E-003	 -4.05681E-003	 -2.30061E-003	 -4.25512E-003
  3.27680E+001	 -7.67240E-003	  3.72901E-003	  3.56172E-003	 -5.01368E-003
  3.60448E+001	  1.42014E-003	  4.55318E-004	  5.56831E-003	 -3.43083E-003
  3.93216E+001	  5.21198E-003	  8.51511E-004	  3.84216E-003	  3.45536E-004
  4.25984E+001	  3.51476E-003	  2.28814E-003	 -1.72346E-003	 -1.73075E-003
  4.58752E+001	 -2.42091E-003	  1.21076E-003	 -6.83327E-004	 -1.97036E-003
  4.91520E+001	 -1.97572E-003	  7.13387E-004	  3.63968E-003	 -5.14971E-003
  5.24288E+001	  3.22651E-004	  2.61245E-003	 -8.75318E-005	 -4.11459E-003
  5.89824E+001	  3.94495E-003	  2.16915E-003	  1.17483E-003	 -2.80915E-003
  6.55360E+001	 -1.54870E-003	 -3.71381E-003	 -2.17427E-003	  7.30731E-003
  7.20896E+001	 -3.90682E-004	  6.23073E-004	 -7.13360E-003	  2.43100E-003
  7.86432E+001	  1.82295E-003	  2.65426E-003	 -1.01649E-003	  3.13747E-003
  8.51968E+001	 -1.62108E-003	  3.17774E-003	 -6.14158E-004	 -1.75665E-003
  9.17504E+001	 -1.17478E-003	 -7.09881E-003	  4.14575E-004	 -1.12766E-003
  9.83040E+001	  1.67738E-003	 -1.27574E-003	  1.86751E-003	 -1.41923E-003
  1.04858E+002	  8.91251E-004	  4.25154E-004	 -5.65588E-003	 -2.75748E-003
  1.17965E+002	  2.88970E-004	 -1.38535E-003	 -1.73500E-003	 -8.49576E-003
  1.31072E+002	  7.44085E-004	  5.73024E-004	 -3.02214E-004	 -1.63455E-003
  1.44179E+002	 -2.85536E-003	  2.94072E-003	 -6.92520E-003	  8.95476E-004
  1.57286E+002	 -9.47705E-004	  4.74438E-003	  8.97600E-003	  6.53356E-003
  1.70394E+002	 -2.02430E-003	 -1.03919E-003	 -2.79188E-003	  9.36378E-004
  1.83501E+002	  1.63041E-003	  3.52567E-003	 -5.06793E-003	 -3.04205E-003
  1.96608E+002	 -9.48687E-004	 -1.29805E-003	  2.57815E-003	 -3.88832E-003
  2.09715E+002	 -1.78141E-003	  4.16372E-003	  2.37083E-003	 -5.83000E-003
  2.35930E+002	 -1.53169E-004	 -1.81739E-003	  1.04194E-003	  9.56056E-005
  2.62144E+002	 -8.98619E-006	 -1.28709E-003	 -1.91885E-003	 -2.78431E-003
  2.88358E+002	 -2.23298E-003	  3.34478E-003	 -1.12142E-003	 -3.22667E-003
  3.14573E+002	 -8.60632E-004	 -1.42638E-003	  1.62390E-003	  4.80442E-003
  3.40787E+002	 -7.53060E-005	  3.75657E-003	 -4.37554E-003	 -2.59150E-004
  3.67002E+002	 -1.86034E-003	  2.20534E-003	  4.87204E-003	 -5.42342E-003
  3.93216E+002	 -3.99912E-003	 -1.17111E-003	  4.90826E-004	  5.68904E-003

"Count Rate"
       0.01311	     168.38074	     172.80579	     178.29895	     155.02930
       0.02621	     147.78137	     128.17383	     139.84680	     166.24451
       0.03932	     164.64233	     131.45447	     121.38367	     155.02930
       0.05243	     140.83862	     152.13013	     161.13281	     126.19019
       0.06554	     164.48975	     136.56616	     155.48706	     122.29919
       0.07864	     156.47888	     171.58508	     141.37268	     129.08936
       0.09175	     196.38062	     178.98560	     139.16016	     145.18738
       0.10486	     145.64514	     145.56885	     131.14929	     119.62891
       0.11796	     133.81958	     166.54968	     146.71326	     140.45715
       0.13107	     166.32080	     179.36707	     182.49512	     116.65344
       0.14418	     162.50610	     203.70483	     113.98315	     143.66150
       0.15729	     137.02393	     167.38892	     133.28552	     160.52246
       0.17039	     147.93396	     136.64246	     163.11646	     136.79504
       0.18350	     163.42163	     174.17908	     115.05127	     131.98853
       0.19661	     169.90662	     176.23901	     126.11389	     111.69434
       0.20972	     133.13293	     132.14111	     136.56616	     143.58521
       0.22282	     138.62610	     134.20105	     150.83313	     139.00757
       0.23593	     110.93140	     167.16003	     141.29639	     161.59058
       0.24904	     125.88501	     157.24182	     137.25281	     151.59607
       0.26214	     139.23645	     141.14380	     164.18457	     145.18738
       0.27525	     167.23633	     185.08911	     165.25269	     157.24182
       0.28836	     199.43237	     152.05383	     186.53870	     114.97498
       0.30147	     151.51978	     202.48413	     150.60425	     199.12720
       0.31457	     179.51965	     133.36182	     137.10022	     214.15710
       0.32768	     197.06726	     124.05396	     201.56860	     140.07568
       0.34079	     104.82788	     164.33716	     120.54443	     160.67505
       0.35389	     149.45984	     164.64233	     154.41895	     123.29102
       0.36700	     178.07007	     160.06470	     150.83313	     123.90137
       0.38011	     159.37805	     136.64246	     156.02112	     144.95850
       0.39322	     120.77332	     152.28271	     147.01843	     133.74329
       0.40632	     153.96118	     167.16003	     126.19019	     149.45984
       0.41943	     158.08105	     111.46545	     140.60974	     134.20105
       0.43254	     150.52795	     165.25269	     136.94763	     136.10840
       0.44564	     136.64246	     149.84131	     178.75671	     162.81128
       0.45875	     133.97217	     151.59607	     109.25293	     161.89575
       0.47186	     119.78149	     140.60974	     113.52539	     181.27441
       0.48497	     137.10022	     247.80273	     198.13538	     131.07300
       0.49807	     122.52808	     133.13293	     152.89307	     120.39185
       0.51118	     127.94495	     160.14099	     132.98035	     103.07312
       0.52429	     123.21472	     129.47083	     154.41895	     132.29370
       0.53740	     159.30176	     130.84412	     151.59607	     130.15747
       0.55050	     134.42993	     135.72693	     126.34277	     128.78418
       0.56361	     139.92310	     163.72681	     132.44629	     137.25281
       0.57672	     124.05396	     132.21741	     214.08081	     124.96948
       0.58982	     118.17932	     146.63696	     111.84692	     107.87964
       0.60293	     157.69958	     127.79236	     131.68335	     143.12744
       0.61604	     156.86035	     137.17651	     145.95032	     141.83044
       0.62915	     162.65869	     170.97473	     144.72961	     159.22546
       0.64225	     144.65332	     158.92029	     156.86035	     143.35632
       0.65536	     118.02673	     171.50879	     151.97754	     166.70227
       0.66847	     144.04297	     155.94482	     129.92859	     140.83862
       0.68157	     139.00757	     135.57434	     152.58789	     101.31836
       0.69468	     127.56348	     164.94751	     155.56335	     163.04016
       0.70779	     123.21472	     148.08655	     156.25000	     157.24182
       0.72090	     169.67773	     143.43262	     157.01294	     166.39709
       0.73400	     140.30457	     151.29089	     182.57141	     141.60156
       0.74711	     118.71338	     142.13562	     160.44617	     112.83875
