ALV-7004/USB-FAST
Date :	"3/14/2024"
Time :	"12:33:31 PM"
Samplename : 	""
SampMemo(0) : 	""
SampMemo(1) : 	""
SampMemo(2) : 	""
SampMemo(3) : 	""
SampMemo(4) : 	""
SampMemo(5) : 	""
SampMemo(6) : 	""
SampMemo(7) : 	""
SampMemo(8) : 	""
SampMemo(9) : 	""
Temperature [K] :	     298.16000
Viscosity [cp]  :	       0.89000
Refractive Index:	       1.33200
Wavelength [nm] :	       0.00000
Angle [°]       :	       0.00000
Duration [s]    :	         1
FloatDur [ms]   :	          944
Stop TP [ms]   :	      3283
Runs            :	         1
Mode            :	"A-CH0+1  A-CH2+3 "
MeanCR0 [kHz]   :	     122.93180
MeanCR1 [kHz]   :	     124.56576
MeanCR2 [kHz]   :	     116.22429
MeanCR3 [kHz]   :	     119.96375

"Correlation"
  3.12500E-006	 -1.00000E+000	 -1.00000E+000	 -1.00000E+000	 -1.00000E+000
  6.25000E-006	 -1.00000E+000	 -1.00000E+000	 -1.00000E+000	 -1.00000E+000
  9.37500E-006	 -1.00000E+000	 -1.00000E+000	 -1.00000E+000	 -1.00000E+000
  1.25000E-005	 -1.00000E+000	 -1.00000E+000	 -1.00000E+000	 -1.00000E+000
  1.56250E-005	 -1.00000E+000	 -1.00000E+000	 -1.00000E+000	 -1.00000E+000
  1.87500E-005	 -1.00000E+000	 -1.00000E+000	 -1.00000E+000	 -1.00000E+000
  2.18750E-005	 -9.32687E-001	 -4.97382E-001	 -2.46931E-001	 -8.82191E-001
  2.50000E-005	  6.20251E+000	  6.23333E+000	  5.42619E+000	  1.16291E+001
  2.81250E-005	  1.69253E+000	  1.07603E+000	  1.25921E+000	  4.98468E+000
  3.12500E-005	  1.19890E+000	  8.13795E-001	  9.07776E-001	  2.76988E+000
  3.43750E-005	  7.72581E-001	  5.73413E-001	  6.56753E-001	  2.39289E+000
  3.75000E-005	  5.25766E-001	  5.95266E-001	  6.56753E-001	  1.94522E+000
  4.06250E-005	  5.70642E-001	  6.38972E-001	  9.57980E-001	  1.47398E+000
  4.37500E-005	  6.82830E-001	  7.91942E-001	  4.55934E-001	  1.87453E+000
  4.68750E-005	  7.27706E-001	  3.33030E-001	  7.32060E-001	  1.35617E+000
  5.00000E-005	  6.26736E-001	  6.06192E-001	  6.19099E-001	  1.42686E+000
  5.62500E-005	  7.16487E-001	  8.79354E-001	  8.32469E-001	  9.67406E-001
  6.25000E-005	  5.59423E-001	  5.95266E-001	  6.06548E-001	  6.13979E-001
  6.87500E-005	  4.36015E-001	  5.84339E-001	  4.55934E-001	  7.20007E-001
  7.50000E-005	  7.27706E-001	  5.18780E-001	  4.68485E-001	  8.96720E-001
  8.12500E-005	  6.37955E-001	  5.95266E-001	  6.94406E-001	  8.49597E-001
  8.75000E-005	  4.24796E-001	  9.33986E-001	  6.06548E-001	  7.55350E-001
  9.37500E-005	  5.93079E-001	  5.29707E-001	  8.57571E-001	  5.07952E-001
  1.00000E-004	  4.58453E-001	  5.02390E-001	  6.00272E-001	  6.49322E-001
  1.12500E-004	  6.43564E-001	  4.86001E-001	  6.12823E-001	  6.49322E-001
  1.25000E-004	  6.15517E-001	  5.67949E-001	  5.87721E-001	  5.07951E-001
  1.37500E-004	  4.36015E-001	  4.53221E-001	  7.38335E-001	  6.13979E-001
  1.50000E-004	  6.82830E-001	  5.84339E-001	  4.37107E-001	  4.96171E-001
  1.62500E-004	  4.41624E-001	  5.35170E-001	  6.19099E-001	  5.72746E-001
  1.75000E-004	  4.24796E-001	  3.76736E-001	  6.81855E-001	  4.90280E-001
  1.87500E-004	  4.92109E-001	  5.40633E-001	  4.12005E-001	  4.84390E-001
  2.00000E-004	  5.45399E-001	  5.13317E-001	  5.21827E-001	  5.81582E-001
  2.25000E-004	  5.48203E-001	  4.69611E-001	  4.84174E-001	  5.43294E-001
  2.50000E-004	  3.88334E-001	  5.16048E-001	  5.90858E-001	  5.13842E-001
  2.75000E-004	  5.70641E-001	  5.24243E-001	  6.28512E-001	  4.46102E-001
  3.00000E-004	  5.14547E-001	  4.88732E-001	  5.40654E-001	  4.25485E-001
  3.25000E-004	  4.83695E-001	  5.07853E-001	  6.88130E-001	  5.69801E-001
  3.50000E-004	  5.00523E-001	  5.35169E-001	  6.09685E-001	  4.75554E-001
  3.75000E-004	  5.06133E-001	  4.36831E-001	  5.06138E-001	  4.37266E-001
  4.00000E-004	  4.85097E-001	  4.39562E-001	  4.66915E-001	  4.82916E-001
  4.50000E-004	  5.84664E-001	  4.55952E-001	  5.37515E-001	  4.82916E-001
  5.00000E-004	  4.87901E-001	  5.40632E-001	  5.75169E-001	  4.96170E-001
  5.50000E-004	  4.73878E-001	  5.43364E-001	  6.04978E-001	  4.97642E-001
  6.00000E-004	  5.07534E-001	  5.18779E-001	  5.20258E-001	  4.77026E-001
  6.50000E-004	  5.59422E-001	  5.58388E-001	  6.30080E-001	  5.66855E-001
  7.00000E-004	  4.83694E-001	  4.99658E-001	  6.53614E-001	  5.55074E-001
  7.50000E-004	  4.61257E-001	  5.22877E-001	  4.96724E-001	  4.68190E-001
  8.00000E-004	  5.08935E-001	  4.98974E-001	  4.99076E-001	  4.57881E-001
  9.00000E-004	  4.73175E-001	  4.25220E-001	  5.21041E-001	  5.12367E-001
  1.00000E-003	  4.37415E-001	  5.22875E-001	  5.72814E-001	  4.76288E-001
  1.10000E-003	  4.70371E-001	  5.29034E-001	  5.40652E-001	  4.61562E-001
  1.20000E-003	  5.14545E-001	  4.34793E-001	  5.61047E-001	  4.71134E-001
  1.30000E-003	  4.47933E-001	  5.23571E-001	  5.85365E-001	  4.82915E-001
  1.40000E-003	  4.90004E-001	  5.20840E-001	  5.38299E-001	  5.15312E-001
  1.50000E-003	  5.00521E-001	  4.66890E-001	  5.07705E-001	  4.91014E-001
  1.60000E-003	  5.16295E-001	  4.78497E-001	  5.12017E-001	  4.75918E-001
  1.80000E-003	  4.51086E-001	  4.80204E-001	  4.96328E-001	  4.88803E-001
  2.00000E-003	  4.77730E-001	  4.99325E-001	  5.43003E-001	  4.95798E-001
  2.20000E-003	  4.51086E-001	  4.56302E-001	  5.37119E-001	  4.44637E-001
  2.40000E-003	  4.44425E-001	  4.95228E-001	  5.78303E-001	  4.76667E-001
  2.60000E-003	  4.54942E-001	  4.64838E-001	  4.97505E-001	  4.79612E-001
  2.80000E-003	  4.88248E-001	  4.93521E-001	  5.55946E-001	  4.18130E-001
  3.00000E-003	  4.66161E-001	  4.53229E-001	  5.13194E-001	  5.22686E-001
  3.20000E-003	  4.66181E-001	  4.97455E-001	  5.29270E-001	  4.72980E-001
  3.60000E-003	  4.71966E-001	  4.78333E-001	  5.41429E-001	  4.71508E-001
  4.00000E-003	  4.72667E-001	  4.82089E-001	  4.91224E-001	  4.74637E-001
  4.40000E-003	  4.35154E-001	  4.90626E-001	  5.65158E-001	  4.70403E-001
  4.80000E-003	  4.43217E-001	  4.55456E-001	  5.43782E-001	  4.65985E-001
  5.20000E-003	  4.20779E-001	  4.81577E-001	  5.35937E-001	  4.66354E-001
  5.60000E-003	  4.75998E-001	  4.56651E-001	  5.30446E-001	  4.62304E-001
  6.00000E-003	  4.91599E-001	  4.61431E-001	  5.28093E-001	  4.95622E-001
  6.40000E-003	  4.79119E-001	  4.84311E-001	  5.48674E-001	  4.77296E-001
  7.20000E-003	  4.57469E-001	  4.49568E-001	  5.60245E-001	  4.79610E-001
  8.00000E-003	  4.85680E-001	  4.51007E-001	  5.46909E-001	  4.62215E-001
  8.80000E-003	  4.61038E-001	  4.84128E-001	  5.17787E-001	  4.93048E-001
  9.60000E-003	  4.56480E-001	  4.56897E-001	  5.30632E-001	  4.64332E-001
  1.04000E-002	  4.73046E-001	  4.90616E-001	  5.37986E-001	  4.48869E-001
  1.12000E-002	  4.60687E-001	  4.62190E-001	  5.23670E-001	  4.74561E-001
  1.20000E-002	  4.64193E-001	  4.65775E-001	  5.38771E-001	  4.62609E-001
  1.28000E-002	  4.63235E-001	  4.64439E-001	  5.28412E-001	  4.49709E-001
  1.44000E-002	  4.56473E-001	  4.75281E-001	  5.17996E-001	  4.47605E-001
  1.60000E-002	  4.50031E-001	  4.64226E-001	  5.52492E-001	  4.58190E-001
  1.76000E-002	  4.52547E-001	  4.72037E-001	  5.36214E-001	  4.52207E-001
  1.92000E-002	  4.50006E-001	  4.58092E-001	  5.25883E-001	  4.71720E-001
  2.08000E-002	  4.51145E-001	  4.59531E-001	  5.29021E-001	  4.63666E-001
  2.24000E-002	  4.44646E-001	  4.53311E-001	  5.29819E-001	  4.43509E-001
  2.40000E-002	  4.62408E-001	  4.48830E-001	  5.21092E-001	  4.38768E-001
  2.56000E-002	  4.50454E-001	  4.54901E-001	  5.28839E-001	  4.41163E-001
  2.88000E-002	  4.47408E-001	  4.52720E-001	  5.23211E-001	  4.47870E-001
  3.20000E-002	  4.27377E-001	  4.44684E-001	  5.29291E-001	  4.47317E-001
  3.52000E-002	  4.24506E-001	  4.37385E-001	  5.16567E-001	  4.29989E-001
  3.84000E-002	  4.29456E-001	  4.41760E-001	  5.09801E-001	  4.28675E-001
  4.16000E-002	  4.40063E-001	  4.37983E-001	  5.02324E-001	  4.39437E-001
  4.48000E-002	  4.30386E-001	  4.27077E-001	  5.06040E-001	  4.34041E-001
  4.80000E-002	  4.33079E-001	  4.27193E-001	  5.04936E-001	  4.23713E-001
  5.12000E-002	  4.25930E-001	  4.30241E-001	  4.97034E-001	  4.24649E-001
  5.76000E-002	  4.15472E-001	  4.23478E-001	  4.97589E-001	  4.25062E-001
  6.40000E-002	  4.17846E-001	  4.24556E-001	  4.86165E-001	  4.20149E-001
  7.04000E-002	  4.08903E-001	  4.17207E-001	  4.76066E-001	  4.13172E-001
  7.68000E-002	  4.02098E-001	  4.12492E-001	  4.73824E-001	  4.16648E-001
  8.32000E-002	  4.05002E-001	  4.05937E-001	  4.71089E-001	  3.97797E-001
  8.96000E-002	  3.92484E-001	  4.02472E-001	  4.59690E-001	  3.88667E-001
  9.60000E-002	  3.88572E-001	  3.95388E-001	  4.59924E-001	  3.90626E-001
  1.02400E-001	  3.90403E-001	  3.86024E-001	  4.52970E-001	  3.88587E-001
  1.15200E-001	  3.79198E-001	  3.79735E-001	  4.45358E-001	  3.73855E-001
  1.28000E-001	  3.73527E-001	  3.70275E-001	  4.40272E-001	  3.71728E-001
  1.40800E-001	  3.61259E-001	  3.59311E-001	  4.27622E-001	  3.60214E-001
  1.53600E-001	  3.52651E-001	  3.54072E-001	  4.23657E-001	  3.45596E-001
  1.66400E-001	  3.46853E-001	  3.42159E-001	  4.06415E-001	  3.39718E-001
  1.79200E-001	  3.37296E-001	  3.28371E-001	  4.00551E-001	  3.28803E-001
  1.92000E-001	  3.33930E-001	  3.21621E-001	  3.91980E-001	  3.23023E-001
  2.04800E-001	  3.24828E-001	  3.11843E-001	  3.81247E-001	  3.18851E-001
  2.30400E-001	  3.05464E-001	  3.00598E-001	  3.62788E-001	  3.04028E-001
  2.56000E-001	  2.92667E-001	  2.86099E-001	  3.44312E-001	  2.87246E-001
  2.81600E-001	  2.83911E-001	  2.67667E-001	  3.27336E-001	  2.73791E-001
  3.07200E-001	  2.68550E-001	  2.54269E-001	  3.14023E-001	  2.68787E-001
  3.32800E-001	  2.55299E-001	  2.40786E-001	  2.98195E-001	  2.49426E-001
  3.58400E-001	  2.46602E-001	  2.28714E-001	  2.89912E-001	  2.41063E-001
  3.84000E-001	  2.35518E-001	  2.17231E-001	  2.76633E-001	  2.27883E-001
  4.09600E-001	  2.24506E-001	  2.05993E-001	  2.62649E-001	  2.16815E-001
  4.60800E-001	  2.04711E-001	  1.83010E-001	  2.40511E-001	  1.97382E-001
  5.12000E-001	  1.89686E-001	  1.65771E-001	  2.20698E-001	  1.81066E-001
  5.63200E-001	  1.70175E-001	  1.49100E-001	  2.05755E-001	  1.66349E-001
  6.14400E-001	  1.56896E-001	  1.34908E-001	  1.92091E-001	  1.52377E-001
  6.65600E-001	  1.43588E-001	  1.22669E-001	  1.84047E-001	  1.37228E-001
  7.16800E-001	  1.33129E-001	  1.10865E-001	  1.73356E-001	  1.26288E-001
  7.68000E-001	  1.22405E-001	  1.02091E-001	  1.60044E-001	  1.17150E-001
  8.19200E-001	  1.14640E-001	  9.27737E-002	  1.53756E-001	  1.08452E-001
  9.21600E-001	  9.58927E-002	  8.18224E-002	  1.36926E-001	  9.09441E-002
  1.02400E+000	  8.49340E-002	  7.19519E-002	  1.23348E-001	  7.62916E-002
  1.12640E+000	  7.50330E-002	  6.41491E-002	  1.09520E-001	  6.76339E-002
  1.22880E+000	  6.23827E-002	  5.49497E-002	  9.97319E-002	  5.56915E-002
  1.33120E+000	  5.31575E-002	  4.83512E-002	  9.47863E-002	  4.69916E-002
  1.43360E+000	  4.83687E-002	  3.88809E-002	  8.90497E-002	  3.79986E-002
  1.53600E+000	  4.79940E-002	  3.51223E-002	  8.46720E-002	  3.34934E-002
  1.63840E+000	  4.50406E-002	  2.98570E-002	  7.97560E-002	  2.80532E-002
  1.84320E+000	  3.88476E-002	  2.21815E-002	  6.67047E-002	  1.89901E-002
  2.04800E+000	  3.05318E-002	  1.71976E-002	  5.50077E-002	  1.20959E-002
  2.25280E+000	  2.09910E-002	  1.44354E-002	  4.68251E-002	  4.61371E-003
  2.45760E+000	  1.32793E-002	  1.52244E-002	  3.90410E-002	  5.64261E-004
  2.66240E+000	  2.72828E-003	  1.58961E-002	  2.86705E-002	 -4.70556E-003
  2.86720E+000	 -5.93293E-003	  1.28588E-002	  2.15580E-002	 -9.48516E-003
  3.07200E+000	 -1.10300E-002	  4.73633E-003	  1.69389E-002	 -1.03346E-002
  3.27680E+000	 -1.80968E-002	  2.98061E-003	  2.05564E-002	 -1.38085E-002
  3.68640E+000	 -1.92985E-002	  8.35203E-004	  1.14512E-002	 -1.76001E-002
  4.09600E+000	 -2.29998E-002	  1.07051E-002	 -1.46736E-003	 -7.34966E-003
  4.50560E+000	 -1.66373E-002	  4.97071E-003	 -9.35553E-003	 -3.02444E-003
  4.91520E+000	 -1.78164E-002	 -7.41994E-003	  2.98090E-003	  5.90394E-003
  5.32480E+000	 -2.08249E-002	 -9.27027E-003	  9.49171E-003	  1.06559E-002
  5.73440E+000	 -1.61267E-002	  8.40705E-004	  3.30388E-003	  1.96143E-002
  6.14400E+000	 -1.74861E-002	 -9.10547E-004	 -9.14178E-003	  2.16184E-002
  6.55360E+000	 -1.68940E-002	  2.19078E-003	 -6.38734E-003	  2.46601E-002
  7.37280E+000	 -1.06512E-002	  4.90702E-003	 -3.10432E-003	  2.56092E-002
  8.19200E+000	 -6.10521E-003	 -1.01996E-004	 -3.96280E-003	  1.44450E-002
  9.01120E+000	 -1.32540E-003	  3.97698E-003	 -5.44109E-003	 -4.92950E-003
  9.83040E+000	 -2.81927E-003	 -3.38993E-003	  7.90946E-004	 -7.53731E-003
  1.06496E+001	 -1.18022E-002	 -1.39057E-002	  1.29768E-003	 -3.22835E-003
  1.14688E+001	 -1.04467E-002	 -1.74219E-002	 -6.44471E-003	  1.00723E-002
  1.22880E+001	  1.84506E-003	 -1.22769E-002	 -1.82887E-002	  9.34357E-003
  1.31072E+001	  3.79938E-003	 -9.35900E-003	 -9.92864E-003	  2.65158E-003
  1.47456E+001	 -3.69611E-003	 -6.06330E-003	 -1.52543E-002	 -1.06197E-003
  1.63840E+001	  2.82248E-003	  7.26303E-003	 -7.11233E-003	  8.26547E-003
  1.80224E+001	 -3.45051E-004	  3.40395E-003	 -7.78945E-004	  5.52410E-003
  1.96608E+001	 -9.76779E-003	 -6.79862E-003	  2.49066E-002	  9.94798E-003
  2.12992E+001	 -7.36161E-003	  1.23353E-002	  2.68190E-002	  2.16861E-002
  2.29376E+001	  6.57391E-003	  3.21780E-003	  2.42638E-002	  1.04447E-002
  2.45760E+001	  1.20627E-003	 -4.51459E-003	  2.35555E-002	  1.17528E-002
  2.62144E+001	 -9.51113E-003	  6.45896E-003	 -2.80628E-003	 -1.92901E-003
  2.94912E+001	 -3.07522E-003	  8.16876E-004	 -1.24873E-002	  6.91582E-003
  3.27680E+001	  3.78755E-003	 -1.79779E-002	 -1.20346E-002	 -1.16420E-003
  3.60448E+001	 -1.31573E-003	 -5.08134E-003	 -8.31390E-003	  1.21600E-002
  3.93216E+001	 -2.73350E-003	 -8.74472E-004	 -7.14427E-003	 -5.47491E-003
  4.25984E+001	  8.94796E-004	  4.93047E-003	  9.31638E-004	  8.72679E-004
  4.58752E+001	  3.95748E-003	  4.75234E-003	 -1.20584E-003	 -1.04631E-002
  4.91520E+001	  6.14490E-003	  8.14549E-003	  1.88973E-002	 -3.08451E-003
  5.24288E+001	  1.95093E-003	  6.69894E-003	  4.23628E-003	 -2.60569E-003
  5.89824E+001	 -5.50534E-003	 -1.00563E-003	 -1.64408E-002	 -4.00417E-003
  6.55360E+001	 -7.55019E-003	  7.54747E-003	  5.14479E-003	 -4.66003E-003
  7.20896E+001	 -1.43056E-003	  6.12479E-003	  2.71724E-002	 -1.34500E-003
  7.86432E+001	  3.36673E-003	 -5.25130E-003	 -1.04138E-002	 -2.06538E-003
  8.51968E+001	  1.57569E-002	 -8.94556E-004	 -6.24654E-003	 -6.20644E-003
  9.17504E+001	  6.24312E-004	  1.30462E-002	  2.37967E-002	  1.92083E-003
  9.83040E+001	  1.78442E-003	  1.97381E-003	 -6.80609E-003	 -1.96034E-003
  1.04858E+002	 -5.06722E-004	 -5.82030E-003	 -8.82547E-003	  3.50003E-003
  1.17965E+002	 -3.86139E-003	  1.71417E-002	  5.02829E-004	 -1.66366E-003
  1.31072E+002	  1.04864E-002	  3.04800E-003	  5.36380E-003	 -3.82706E-003
  1.44179E+002	 -5.51937E-003	 -8.45435E-004	  1.15123E-002	 -1.16309E-003
  1.57286E+002	 -1.30777E-003	 -4.10906E-003	  8.12979E-003	  1.60454E-003
  1.70394E+002	  9.43051E-003	  2.58733E-003	  9.18815E-003	 -1.04182E-003
  1.83501E+002	  2.35774E-003	  5.72065E-003	 -3.49543E-003	 -1.70716E-003
  1.96608E+002	 -4.24037E-003	 -3.67528E-003	  5.15069E-003	  2.33051E-003
  2.09715E+002	 -2.08249E-003	 -2.68258E-003	  1.58355E-003	 -4.51078E-003
  2.35930E+002	 -2.13296E-003	  1.07138E-002	  3.37843E-003	  1.50870E-003
  2.62144E+002	  2.42673E-003	 -3.15652E-003	 -4.87938E-003	 -3.89525E-003
  2.88358E+002	  1.06626E-003	  2.64302E-003	 -9.03273E-003	 -7.02233E-003
  3.14573E+002	  3.28175E-003	 -6.47999E-003	  2.22277E-003	  2.78881E-003
  3.40787E+002	 -2.97908E-003	  2.11986E-003	 -2.00919E-004	  4.51477E-003
  3.67002E+002	  2.09301E-003	 -4.31287E-003	  1.52057E-002	  3.12544E-003
  3.93216E+002	 -2.69026E-003	 -5.65785E-003	 -2.50804E-003	  6.03318E-003

"Count Rate"
       0.01311	     123.90137	      98.41919	     101.47095	     111.92322
       0.02621	      89.56909	     127.79236	      88.27209	     155.56335
       0.03932	     138.24463	     126.34277	      67.97791	     165.48157
       0.05243	      81.78711	     127.56348	     108.94775	     151.13831
       0.06554	     108.03223	     146.02661	     159.22546	     116.50085
       0.07864	     116.95862	     112.91504	     109.02405	     149.30725
       0.09175	      93.38379	     107.87964	     111.92322	     111.00769
       0.10486	     172.72949	     120.69702	     178.68042	     104.59900
       0.11796	     131.37817	     115.50903	     155.79224	      99.33472
       0.13107	     114.89868	     112.60986	      99.71619	     123.74878
       0.14418	     118.48450	     117.95044	     127.41089	     108.87146
       0.15729	     117.41638	     164.41345	      71.18225	      83.16040
       0.17039	      94.52820	     170.13550	     127.48718	      98.11401
       0.18350	     131.30188	     114.82239	     100.78430	      91.85791
       0.19661	     126.57166	      89.87427	     177.45972	     119.32373
       0.20972	     114.66980	     160.59875	     134.20105	     105.59082
       0.22282	      87.12769	      96.81702	      93.23120	     124.89319
       0.23593	     126.26648	     140.76233	     161.81946	     157.47070
       0.24904	     116.95862	     166.09192	     126.80054	     119.40002
       0.26214	     100.25024	     128.40271	     180.51147	      92.69714
       0.27525	     113.67798	     122.37549	      74.84436	     104.90417
       0.28836	     159.07288	     102.53906	      89.87427	     141.75415
       0.30147	     100.93689	     175.01831	      93.38379	     132.21741
       0.31457	     132.75146	     108.71887	     128.25012	      92.08679
       0.32768	     104.98047	     138.77869	     124.66431	     123.97766
       0.34079	     138.39722	     152.20642	     124.43542	     121.68884
       0.35389	     101.47095	     130.84412	     123.67249	     118.71338
       0.36700	     116.42456	     185.77576	     118.63708	      74.15771
       0.38011	     128.70789	     110.16846	      72.70813	     101.69983
       0.39322	     138.70239	     139.38904	     131.14929	     105.05676
       0.40632	      84.07593	     110.85510	     203.24707	     131.14929
       0.41943	     151.97754	     149.30725	     111.23657	     147.93396
       0.43254	     105.05676	     108.56628	     126.26648	     158.99658
       0.44564	     132.29370	      95.52002	     140.38086	     138.77869
       0.45875	     121.91772	     143.20374	      98.03772	     134.04846
       0.47186	     126.72424	     105.81970	      91.93420	     115.50903
       0.48497	     106.27747	     162.12463	     122.45178	     120.23926
       0.49807	     132.98035	     122.68066	      95.06226	     114.05945
       0.51118	     120.77332	     117.11121	      96.96960	      98.03772
       0.52429	     107.65076	     102.92053	     116.95862	     125.96130
       0.53740	      88.72986	     132.37000	      94.45190	     100.40283
       0.55050	     120.46814	     120.23926	      90.48462	     124.43542
       0.56361	     132.59888	      84.53369	     140.53345	     115.12756
       0.57672	     120.84961	     106.65894	     135.26917	     135.34546
       0.58982	     198.36426	     130.46265	     133.13293	     136.48987
       0.60293	     127.63977	     182.72400	      88.80615	      87.81433
       0.61604	      86.13586	     106.50635	     111.38916	      93.76526
       0.62915	     137.02393	     127.25830	     102.31018	      82.47375
       0.64225	     155.18188	      58.97522	      80.79529	     121.91772
       0.65536	     132.67517	     134.27734	      93.38379	     117.79785
       0.66847	     127.02942	     118.78967	     105.51453	      93.76526
       0.68157	     111.08398	      74.15771	      81.02417	     146.02661
       0.69468	     119.85779	      92.31567	     131.45447	      83.69446
       0.70779	     134.65881	     125.96130	      80.49011	      92.23938
       0.72090	     160.36987	      94.07043	     113.29651	     137.93945
       0.73400	     106.04858	     118.25562	      90.86609	     106.58264
       0.74711	     137.48169	     118.71338	      78.50647	     101.39465
