ALV-7004/USB-FAST
Date :	"3/14/2024"
Time :	"12:30:13 PM"
Samplename : 	""
SampMemo(0) : 	""
SampMemo(1) : 	""
SampMemo(2) : 	""
SampMemo(3) : 	""
SampMemo(4) : 	""
SampMemo(5) : 	""
SampMemo(6) : 	""
SampMemo(7) : 	""
SampMemo(8) : 	""
SampMemo(9) : 	""
Temperature [K] :	     298.16000
Viscosity [cp]  :	       0.89000
Refractive Index:	       1.33200
Wavelength [nm] :	       0.00000
Angle [°]       :	       0.00000
Duration [s]    :	         1
FloatDur [ms]   :	          944
Stop TP [ms]   :	      3157
Runs            :	         1
Mode            :	"A-CH0+1  A-CH2+3 "
MeanCR0 [kHz]   :	     153.30739
MeanCR1 [kHz]   :	     154.45286
MeanCR2 [kHz]   :	     143.67952
MeanCR3 [kHz]   :	     147.81952

"Correlation"
  3.12500E-006	 -1.00000E+000	 -1.00000E+000	 -1.00000E+000	 -1.00000E+000
  6.25000E-006	 -1.00000E+000	 -1.00000E+000	 -1.00000E+000	 -1.00000E+000
  9.37500E-006	 -1.00000E+000	 -1.00000E+000	 -1.00000E+000	 -1.00000E+000
  1.25000E-005	 -1.00000E+000	 -1.00000E+000	 -1.00000E+000	 -1.00000E+000
  1.56250E-005	 -1.00000E+000	 -1.00000E+000	 -1.00000E+000	 -1.00000E+000
  1.87500E-005	 -1.00000E+000	 -1.00000E+000	 -1.00000E+000	 -1.00000E+000
  2.18750E-005	 -8.99010E-001	 -2.18231E-001	 -2.93705E-001	 -9.68963E-001
  2.50000E-005	  4.90072E+000	  5.79428E+000	  5.35666E+000	  9.72314E+000
  2.81250E-005	  1.81330E+000	  1.16052E+000	  1.56237E+000	  3.73308E+000
  3.12500E-005	  7.45688E-001	  5.77752E-001	  6.09696E-001	  2.19677E+000
  3.43750E-005	  7.88970E-001	  5.77752E-001	  7.90376E-001	  2.10366E+000
  3.75000E-005	  4.71572E-001	  5.77752E-001	  7.73951E-001	  1.80881E+000
  4.06250E-005	  7.74543E-001	  7.76747E-001	  6.09696E-001	  8.77714E-001
  4.37500E-005	  8.75533E-001	  6.77249E-001	  5.43994E-001	  1.32774E+000
  4.68750E-005	  6.59125E-001	  3.92970E-001	  2.81187E-001	  1.20360E+000
  5.00000E-005	  7.09620E-001	  5.99073E-001	  4.78292E-001	  1.20360E+000
  5.62500E-005	  7.96184E-001	  5.56431E-001	  5.76845E-001	  1.02514E+000
  6.25000E-005	  5.36494E-001	  7.76747E-001	  6.09696E-001	  9.08750E-001
  6.87500E-005	  2.69592E-001	  5.42217E-001	  3.87952E-001	  8.93232E-001
  7.50000E-005	  5.07640E-001	  5.91965E-001	  4.86505E-001	  7.76845E-001
  8.12500E-005	  4.78786E-001	  5.77752E-001	  6.83611E-001	  8.23399E-001
  8.75000E-005	  5.65349E-001	  3.85863E-001	  7.57525E-001	  8.85473E-001
  9.37500E-005	  5.00426E-001	  6.34607E-001	  5.11143E-001	  9.00991E-001
  1.00000E-004	  4.67965E-001	  6.09733E-001	  5.19356E-001	  6.44939E-001
  1.12500E-004	  3.85009E-001	  4.14291E-001	  4.04378E-001	  5.28552E-001
  1.25000E-004	  5.40101E-001	  4.46272E-001	  5.02930E-001	  5.67347E-001
  1.37500E-004	  4.57145E-001	  4.74700E-001	  5.31675E-001	  5.24672E-001
  1.50000E-004	  6.15844E-001	  5.42216E-001	  4.37229E-001	  5.90625E-001
  1.62500E-004	  5.90596E-001	  6.16840E-001	  5.64526E-001	  4.12164E-001
  1.75000E-004	  4.85999E-001	  5.35109E-001	  5.97377E-001	  4.54840E-001
  1.87500E-004	  5.22067E-001	  5.06682E-001	  5.56313E-001	  5.20793E-001
  2.00000E-004	  3.65171E-001	  5.29779E-001	  4.84451E-001	  5.59588E-001
  2.25000E-004	  5.25673E-001	  5.20895E-001	  4.47494E-001	  5.05274E-001
  2.50000E-004	  4.60751E-001	  4.23174E-001	  5.19356E-001	  5.40190E-001
  2.75000E-004	  4.82392E-001	  5.40439E-001	  4.49547E-001	  5.38250E-001
  3.00000E-004	  4.60751E-001	  5.06681E-001	  5.50153E-001	  5.14973E-001
  3.25000E-004	  4.64358E-001	  5.47546E-001	  5.39887E-001	  5.16913E-001
  3.50000E-004	  4.53538E-001	  5.28002E-001	  4.84451E-001	  5.80926E-001
  3.75000E-004	  4.28290E-001	  3.84086E-001	  5.46047E-001	  3.96646E-001
  4.00000E-004	  4.84195E-001	  4.32057E-001	  4.17722E-001	  5.32430E-001
  4.50000E-004	  4.49930E-001	  4.91578E-001	  4.93690E-001	  4.28652E-001
  5.00000E-004	  4.80588E-001	  4.88025E-001	  4.16696E-001	  4.78116E-001
  5.50000E-004	  4.76981E-001	  4.77364E-001	  4.36201E-001	  4.67447E-001
  6.00000E-004	  4.95917E-001	  5.00462E-001	  4.97796E-001	  4.46110E-001
  6.50000E-004	  5.14852E-001	  4.72034E-001	  4.39281E-001	  4.92665E-001
  7.00000E-004	  5.23869E-001	  4.54267E-001	  4.41334E-001	  4.49989E-001
  7.50000E-004	  4.36405E-001	  4.92467E-001	  4.83424E-001	  4.30592E-001
  8.00000E-004	  4.50380E-001	  5.08456E-001	  4.83423E-001	  4.47078E-001
  9.00000E-004	  4.99071E-001	  4.61372E-001	  4.62891E-001	  4.94603E-001
  1.00000E-003	  4.44519E-001	  5.11121E-001	  4.89582E-001	  5.19335E-001
  1.10000E-003	  4.67512E-001	  4.79140E-001	  4.85989E-001	  5.06242E-001
  1.20000E-003	  4.95465E-001	  4.54710E-001	  4.55192E-001	  4.99938E-001
  1.30000E-003	  5.02227E-001	  4.60040E-001	  4.40819E-001	  5.21760E-001
  1.40000E-003	  4.77882E-001	  4.92909E-001	  4.44926E-001	  4.59202E-001
  1.50000E-003	  4.54437E-001	  4.68479E-001	  4.07969E-001	  5.17396E-001
  1.60000E-003	  4.77203E-001	  4.68477E-001	  4.49030E-001	  4.89024E-001
  1.80000E-003	  4.43389E-001	  4.81358E-001	  4.31578E-001	  4.71808E-001
  2.00000E-003	  4.55562E-001	  4.96683E-001	  4.19772E-001	  4.92661E-001
  2.20000E-003	  4.56238E-001	  4.46267E-001	  4.56729E-001	  4.50471E-001
  2.40000E-003	  4.79006E-001	  4.68255E-001	  4.88297E-001	  4.84902E-001
  2.60000E-003	  4.53984E-001	  4.69365E-001	  4.51853E-001	  4.67444E-001
  2.80000E-003	  4.48349E-001	  5.09564E-001	  4.38764E-001	  4.62594E-001
  3.00000E-003	  4.90052E-001	  4.89353E-001	  4.41074E-001	  4.34467E-001
  3.20000E-003	  4.85344E-001	  4.83352E-001	  4.48255E-001	  4.50587E-001
  3.60000E-003	  4.70691E-001	  4.65706E-001	  4.43635E-001	  4.86594E-001
  4.00000E-003	  4.51981E-001	  4.57599E-001	  4.50051E-001	  4.71197E-001
  4.40000E-003	  4.71029E-001	  4.87582E-001	  4.53259E-001	  4.47920E-001
  4.80000E-003	  4.79257E-001	  4.71702E-001	  4.31573E-001	  4.69742E-001
  5.20000E-003	  4.46232E-001	  4.84028E-001	  4.30931E-001	  4.74592E-001
  5.60000E-003	  4.61336E-001	  4.78809E-001	  4.63525E-001	  4.51799E-001
  6.00000E-003	  4.42625E-001	  4.61153E-001	  4.33113E-001	  4.75925E-001
  6.40000E-003	  4.69989E-001	  4.53203E-001	  4.52608E-001	  4.66116E-001
  7.20000E-003	  4.72515E-001	  4.66973E-001	  4.34386E-001	  4.64722E-001
  8.00000E-003	  4.57355E-001	  4.81853E-001	  4.46064E-001	  4.77876E-001
  8.80000E-003	  4.61561E-001	  4.81076E-001	  4.26430E-001	  4.52356E-001
  9.60000E-003	  4.51755E-001	  4.65141E-001	  4.41251E-001	  4.60842E-001
  1.04000E-002	  4.59993E-001	  4.62087E-001	  4.29253E-001	  4.44415E-001
  1.12000E-002	  4.57176E-001	  4.71637E-001	  4.39327E-001	  4.60176E-001
  1.20000E-002	  4.36492E-001	  4.61476E-001	  4.36632E-001	  4.51810E-001
  1.28000E-002	  4.48950E-001	  4.73255E-001	  4.29715E-001	  4.41517E-001
  1.44000E-002	  4.39651E-001	  4.50352E-001	  4.21054E-001	  4.37111E-001
  1.60000E-002	  4.38495E-001	  4.48020E-001	  4.21310E-001	  4.39566E-001
  1.76000E-002	  4.37622E-001	  4.41080E-001	  4.27598E-001	  4.32252E-001
  1.92000E-002	  4.27674E-001	  4.36221E-001	  4.07163E-001	  4.34889E-001
  2.08000E-002	  4.29891E-001	  4.35777E-001	  3.98405E-001	  4.26008E-001
  2.24000E-002	  4.25137E-001	  4.31502E-001	  4.04276E-001	  4.29554E-001
  2.40000E-002	  4.12569E-001	  4.21119E-001	  3.93368E-001	  4.13339E-001
  2.56000E-002	  4.09398E-001	  4.33107E-001	  3.90983E-001	  4.01056E-001
  2.88000E-002	  3.92419E-001	  4.13494E-001	  3.86384E-001	  4.03875E-001
  3.20000E-002	  3.96998E-001	  4.08493E-001	  3.64836E-001	  3.90645E-001
  3.52000E-002	  3.83913E-001	  4.02367E-001	  3.60361E-001	  3.76374E-001
  3.84000E-002	  3.83490E-001	  3.89528E-001	  3.63098E-001	  3.72136E-001
  4.16000E-002	  3.70302E-001	  3.77063E-001	  3.41556E-001	  3.71687E-001
  4.48000E-002	  3.58908E-001	  3.66028E-001	  3.39551E-001	  3.53431E-001
  4.80000E-002	  3.49999E-001	  3.69998E-001	  3.23703E-001	  3.45020E-001
  5.12000E-002	  3.44870E-001	  3.54744E-001	  3.19284E-001	  3.40904E-001
  5.76000E-002	  3.28765E-001	  3.38994E-001	  3.06572E-001	  3.22926E-001
  6.40000E-002	  3.14702E-001	  3.28556E-001	  2.89953E-001	  3.11910E-001
  7.04000E-002	  2.96907E-001	  3.11561E-001	  2.74948E-001	  2.97711E-001
  7.68000E-002	  2.84895E-001	  3.02608E-001	  2.64564E-001	  2.83595E-001
  8.32000E-002	  2.64681E-001	  2.87918E-001	  2.51821E-001	  2.72487E-001
  8.96000E-002	  2.62953E-001	  2.76230E-001	  2.43691E-001	  2.61635E-001
  9.60000E-002	  2.47221E-001	  2.68172E-001	  2.29183E-001	  2.51933E-001
  1.02400E-001	  2.38787E-001	  2.53275E-001	  2.17528E-001	  2.47072E-001
  1.15200E-001	  2.19319E-001	  2.37365E-001	  1.95801E-001	  2.24820E-001
  1.28000E-001	  2.01739E-001	  2.20477E-001	  1.78841E-001	  2.13657E-001
  1.40800E-001	  1.88294E-001	  2.06517E-001	  1.66345E-001	  1.94819E-001
  1.53600E-001	  1.73672E-001	  1.89514E-001	  1.48749E-001	  1.79019E-001
  1.66400E-001	  1.65574E-001	  1.80707E-001	  1.39992E-001	  1.69848E-001
  1.79200E-001	  1.56283E-001	  1.66249E-001	  1.30050E-001	  1.61300E-001
  1.92000E-001	  1.47686E-001	  1.51866E-001	  1.16279E-001	  1.50532E-001
  2.04800E-001	  1.39687E-001	  1.44009E-001	  1.08136E-001	  1.44710E-001
  2.30400E-001	  1.21950E-001	  1.30548E-001	  8.87842E-002	  1.25373E-001
  2.56000E-001	  1.13025E-001	  1.15190E-001	  7.47454E-002	  1.17386E-001
  2.81600E-001	  1.05793E-001	  1.03891E-001	  6.23890E-002	  1.03978E-001
  3.07200E-001	  9.47133E-002	  9.46980E-002	  5.55035E-002	  9.85552E-002
  3.32800E-001	  8.61351E-002	  8.66319E-002	  5.04544E-002	  9.78090E-002
  3.58400E-001	  7.21235E-002	  8.17709E-002	  4.69420E-002	  8.62525E-002
  3.84000E-001	  6.50205E-002	  7.51776E-002	  4.06158E-002	  7.75592E-002
  4.09600E-001	  6.04290E-002	  6.91466E-002	  4.09713E-002	  6.87354E-002
  4.60800E-001	  5.32958E-002	  6.15666E-002	  3.81818E-002	  5.84980E-002
  5.12000E-001	  4.47927E-002	  5.38298E-002	  3.46909E-002	  4.63559E-002
  5.63200E-001	  3.70937E-002	  4.58153E-002	  2.44955E-002	  3.88858E-002
  6.14400E-001	  3.03965E-002	  4.05804E-002	  2.06945E-002	  3.42369E-002
  6.65600E-001	  2.22525E-002	  3.92818E-002	  1.38461E-002	  2.98788E-002
  7.16800E-001	  1.82939E-002	  3.73177E-002	  7.35753E-003	  2.55511E-002
  7.68000E-001	  1.29925E-002	  2.99549E-002	  8.44546E-003	  2.35103E-002
  8.19200E-001	  1.48225E-002	  2.66423E-002	  1.16121E-002	  2.12335E-002
  9.21600E-001	  2.03459E-002	  1.87594E-002	  7.08901E-003	  1.63415E-002
  1.02400E+000	  1.53138E-002	  1.53747E-002	  7.18591E-004	  1.72394E-002
  1.12640E+000	  1.01387E-002	  9.68191E-003	  1.65391E-003	  1.15837E-002
  1.22880E+000	  1.14540E-002	  4.26777E-003	 -7.59706E-004	  1.41884E-002
  1.33120E+000	  7.73210E-003	  3.22551E-003	 -1.00621E-003	  1.29093E-002
  1.43360E+000	  3.17335E-003	 -3.77283E-004	 -3.08601E-003	  1.16586E-002
  1.53600E+000	  6.91034E-003	 -3.74331E-003	 -5.80027E-003	  1.53201E-002
  1.63840E+000	  3.72684E-003	 -5.14502E-003	 -5.63636E-003	  1.40657E-002
  1.84320E+000	  1.01370E-002	 -4.91533E-003	  5.34288E-003	  1.61183E-002
  2.04800E+000	  1.27707E-002	  1.55947E-003	  7.45877E-003	  1.55836E-002
  2.25280E+000	  9.44021E-003	  8.26174E-003	  2.96746E-003	  1.58727E-002
  2.45760E+000	  6.23227E-003	  2.81788E-003	  4.09575E-003	  1.79777E-002
  2.66240E+000	  2.44613E-003	  5.73910E-004	  5.91634E-003	  9.53999E-003
  2.86720E+000	  6.62893E-003	 -1.50585E-004	  5.86230E-003	  4.03125E-003
  3.07200E+000	  7.56617E-004	 -5.76046E-003	  4.57442E-003	  9.68030E-003
  3.27680E+000	  3.90704E-003	 -1.57623E-003	  4.66369E-004	  6.25381E-003
  3.68640E+000	  4.04643E-003	  1.87833E-003	  4.62241E-003	  3.86450E-003
  4.09600E+000	  1.22021E-002	  1.12360E-004	  1.23090E-002	  6.11480E-003
  4.50560E+000	  8.06811E-003	  1.16856E-002	  6.09381E-003	  1.24128E-002
  4.91520E+000	 -8.24450E-004	  9.14735E-004	  3.09329E-003	  6.54969E-003
  5.32480E+000	  2.99648E-004	 -1.23240E-003	  2.82968E-003	  2.59863E-003
  5.73440E+000	 -5.62813E-004	 -2.04946E-003	  8.87525E-003	  9.78924E-004
  6.14400E+000	 -9.86495E-004	  9.56476E-004	  1.23804E-002	 -3.07249E-003
  6.55360E+000	 -3.48693E-005	  3.78352E-003	  5.31480E-003	  2.17740E-003
  7.37280E+000	 -1.10667E-002	  2.64034E-003	  7.69575E-003	 -3.56870E-003
  8.19200E+000	 -5.65326E-003	 -3.59294E-003	  5.48784E-003	 -1.20493E-002
  9.01120E+000	 -2.76309E-003	  4.52936E-003	 -1.42058E-003	 -1.28036E-002
  9.83040E+000	 -9.58120E-003	  2.17053E-004	  4.57460E-003	 -4.10239E-003
  1.06496E+001	 -1.02920E-002	 -3.12683E-003	 -6.65423E-003	 -5.84473E-004
  1.14688E+001	 -7.10976E-003	  3.92335E-003	 -1.42120E-003	  2.58981E-003
  1.22880E+001	 -6.26043E-003	 -6.47702E-004	  9.92009E-003	  7.43941E-004
  1.31072E+001	 -8.01832E-003	  1.24649E-004	  3.27760E-003	 -3.95475E-003
  1.47456E+001	 -9.19321E-003	 -5.89067E-003	  2.63896E-003	 -5.18312E-003
  1.63840E+001	 -2.91605E-003	 -9.79096E-004	 -7.69431E-004	 -3.80219E-003
  1.80224E+001	 -1.31854E-003	  9.55434E-003	  2.49091E-003	 -3.88924E-003
  1.96608E+001	  7.10282E-003	  8.17995E-003	  6.84952E-004	 -3.31063E-003
  2.12992E+001	  4.32716E-003	 -3.07760E-003	  2.20598E-003	 -4.49538E-003
  2.29376E+001	  1.18524E-002	 -2.10616E-003	  5.02847E-003	 -6.04950E-003
  2.45760E+001	  7.44900E-003	 -2.62392E-003	 -1.47835E-003	 -4.81851E-003
  2.62144E+001	  6.40447E-003	  1.26171E-003	  2.10415E-003	 -1.51165E-003
  2.94912E+001	 -1.58272E-003	 -4.09141E-003	  7.34589E-004	  4.77680E-004
  3.27680E+001	 -3.79151E-003	 -8.08143E-004	 -3.40251E-003	  6.25224E-003
  3.60448E+001	 -3.31247E-003	 -8.72010E-004	  6.74073E-003	  1.55458E-003
  3.93216E+001	 -1.17838E-004	  7.57793E-003	 -2.52484E-003	 -2.76255E-003
  4.25984E+001	  4.13126E-003	 -3.81926E-003	  2.39222E-003	 -9.06185E-004
  4.58752E+001	 -2.99232E-003	 -2.85830E-003	  1.37048E-003	  8.01357E-003
  4.91520E+001	 -2.39167E-003	  3.45421E-003	  1.70020E-003	  6.88931E-004
  5.24288E+001	  3.27372E-003	  1.33092E-003	 -2.73621E-004	 -7.93099E-004
  5.89824E+001	 -1.38505E-003	 -2.26912E-003	  5.05938E-004	 -1.13959E-002
  6.55360E+001	 -3.15178E-003	  1.49571E-003	  1.51072E-003	 -4.46363E-003
  7.20896E+001	  4.62233E-004	  2.80080E-003	 -8.90069E-004	  2.52566E-003
  7.86432E+001	  2.91900E-003	  2.59198E-003	 -5.11688E-003	  5.87786E-003
  8.51968E+001	 -3.33588E-003	  1.69442E-003	  1.56425E-004	 -2.10048E-003
  9.17504E+001	  1.59735E-003	  4.38202E-004	  9.80000E-004	 -1.39780E-004
  9.83040E+001	 -2.43967E-003	 -8.76641E-004	 -1.55132E-003	 -1.25002E-003
  1.04858E+002	 -4.05455E-004	 -2.26503E-003	 -1.61729E-004	 -8.28175E-004
  1.17965E+002	 -2.36864E-003	 -3.90449E-003	 -1.77634E-003	  4.82124E-003
  1.31072E+002	  3.17079E-003	 -2.65266E-003	  7.87517E-004	 -3.06981E-003
  1.44179E+002	 -5.15929E-004	 -5.23737E-004	  1.53970E-003	 -4.89005E-004
  1.57286E+002	 -1.09569E-003	  5.24718E-004	  2.78574E-003	  1.88135E-003
  1.70394E+002	 -2.70576E-005	 -1.23097E-003	 -4.96776E-004	 -2.05992E-003
  1.83501E+002	 -9.61694E-004	  8.70368E-004	 -2.12158E-003	 -2.71774E-003
  1.96608E+002	  1.06391E-004	  1.20430E-003	 -9.75023E-004	  4.24551E-003
  2.09715E+002	  1.83769E-003	 -2.37014E-003	  4.07345E-004	 -1.22512E-003
  2.35930E+002	 -2.58557E-004	 -9.15826E-004	 -3.11353E-003	 -1.38488E-003
  2.62144E+002	 -1.31402E-003	  4.08442E-003	 -4.09358E-003	 -2.17562E-003
  2.88358E+002	 -2.03787E-003	 -1.66239E-003	 -1.79409E-003	 -1.00122E-003
  3.14573E+002	  1.22792E-004	  2.10397E-003	 -2.99254E-003	  4.06719E-003
  3.40787E+002	  5.15820E-004	  3.86803E-003	 -2.58882E-003	 -9.77932E-004
  3.67002E+002	  2.88865E-004	 -8.25581E-004	 -6.36313E-004	 -1.89302E-003
  3.93216E+002	 -2.27005E-004	  8.29765E-004	 -4.38466E-003	  1.07357E-003

"Count Rate"
       0.01311	     135.49805	     126.87683	     143.89038	     178.75671
       0.02621	     156.02112	     165.55786	     128.93677	     138.47351
       0.03932	     151.44348	     160.44617	     129.31824	     150.14648
       0.05243	     168.68591	     171.89026	     154.80042	     146.17920
       0.06554	     149.84131	     136.64246	     179.36707	     132.52258
       0.07864	     141.98303	     161.43799	     150.07019	     144.72961
       0.09175	     136.41357	     147.24731	     143.35632	     151.29089
       0.10486	     187.68311	     166.16821	     131.07300	     141.22009
       0.11796	     133.74329	     161.59058	     135.87952	     165.25269
       0.13107	     167.99927	     151.29089	     134.65881	     177.68860
       0.14418	     120.08667	     130.53894	     112.30469	     117.95044
       0.15729	     192.71851	     201.41602	     128.47900	     113.67798
       0.17039	     142.51709	     145.95032	     118.63708	     127.63977
       0.18350	     148.39172	     129.69971	     128.55530	     139.46533
       0.19661	     161.51428	     133.28552	     154.72412	     134.58252
       0.20972	     134.50623	     130.31006	     139.69421	     164.48975
       0.22282	     122.07031	     134.50623	     158.76770	     146.33179
       0.23593	     162.50610	     165.02380	     117.64526	     159.83582
       0.24904	     144.34814	     126.26648	     121.45996	     164.87122
       0.26214	     157.69958	     137.93945	     128.25012	     125.12207
       0.27525	     161.89575	     115.66162	     154.49524	     129.47083
       0.28836	     154.41895	     130.53894	     154.57153	     153.19824
       0.30147	     133.59070	     155.48706	     131.37817	     165.40527
       0.31457	     138.01575	     175.01831	     137.63428	     152.74048
       0.32768	     167.23633	     133.81958	     152.28271	     151.67236
       0.34079	     148.08655	     160.82764	     163.49792	     132.67517
       0.35389	     135.19287	     162.58240	     155.25818	     135.72693
       0.36700	     164.18457	     134.20105	     147.93396	     149.45984
       0.38011	     132.98035	     161.20911	     143.81409	     147.17102
       0.39322	     138.54980	     172.72949	     135.19287	     145.41626
       0.40632	     147.47620	     165.48157	     133.13293	     142.82227
       0.41943	     163.72681	     146.25549	     137.63428	     135.95581
       0.43254	     129.31824	     174.48425	     132.90405	     127.79236
       0.44564	     131.14929	     137.86316	     163.26904	     203.32336
       0.45875	     148.46802	     140.99121	     128.09753	     127.10571
       0.47186	     165.78674	     158.99658	     151.90125	     138.54980
       0.48497	     187.98828	     162.58240	     156.32629	     135.65063
       0.49807	     135.87952	     174.48425	     169.67773	     126.64795
       0.51118	     162.73499	     116.50085	     168.45703	     145.41626
       0.52429	     129.62341	     133.05664	     159.53064	     134.27734
       0.53740	     138.93127	     149.00208	     149.00208	     138.39722
       0.55050	     146.86584	     158.46252	     159.07288	     150.22278
       0.56361	     128.47900	     165.86304	     153.80859	     150.83313
       0.57672	     141.06750	     189.59045	     145.95032	     126.80054
       0.58982	     137.40540	     130.84412	     103.53088	     157.08923
       0.60293	     142.21191	     125.27466	     127.94495	     131.30188
       0.61604	     154.49524	     133.51440	     141.44897	     129.31824
       0.62915	     131.98853	     164.03198	     139.92310	     122.98584
       0.64225	     153.27454	     157.24182	     144.11926	     160.36987
       0.65536	     150.98572	     142.59338	     161.74316	     120.16296
       0.66847	     135.49805	     169.37256	     143.12744	     167.84668
       0.68157	     196.07544	     136.33728	     111.38916	     122.52808
       0.69468	     177.07825	     190.73486	     130.84412	     129.24194
       0.70779	     161.97205	     167.77039	     163.87939	     189.66675
       0.72090	     147.70508	     153.27454	     122.52808	     174.40796
       0.73400	     171.35620	     183.56323	     122.52808	     148.62061
       0.74711	     163.34534	     184.32617	     136.18469	     180.28259
