ALV-7004/USB-FAST
Date :	"3/14/2024"
Time :	"12:33:42 PM"
Samplename : 	""
SampMemo(0) : 	""
SampMemo(1) : 	""
SampMemo(2) : 	""
SampMemo(3) : 	""
SampMemo(4) : 	""
SampMemo(5) : 	""
SampMemo(6) : 	""
SampMemo(7) : 	""
SampMemo(8) : 	""
SampMemo(9) : 	""
Temperature [K] :	     298.16000
Viscosity [cp]  :	       0.89000
Refractive Index:	       1.33200
Wavelength [nm] :	       0.00000
Angle [°]       :	       0.00000
Duration [s]    :	         1
FloatDur [ms]   :	          944
Stop TP [ms]   :	      3323
Runs            :	         1
Mode            :	"A-CH0+1  A-CH2+3 "
MeanCR0 [kHz]   :	     119.90335
MeanCR1 [kHz]   :	     119.03233
MeanCR2 [kHz]   :	     109.83361
MeanCR3 [kHz]   :	     117.70142

"Correlation"
  3.12500E-006	 -1.00000E+000	 -1.00000E+000	 -1.00000E+000	 -1.00000E+000
  6.25000E-006	 -1.00000E+000	 -1.00000E+000	 -1.00000E+000	 -1.00000E+000
  9.37500E-006	 -1.00000E+000	 -1.00000E+000	 -1.00000E+000	 -1.00000E+000
  1.25000E-005	 -1.00000E+000	 -1.00000E+000	 -1.00000E+000	 -1.00000E+000
  1.56250E-005	 -1.00000E+000	 -1.00000E+000	 -1.00000E+000	 -1.00000E+000
  1.87500E-005	 -1.00000E+000	 -1.00000E+000	 -1.00000E+000	 -1.00000E+000
  2.18750E-005	 -8.82073E-001	 -3.53838E-001	 -1.56754E-001	 -9.75524E-001
  2.50000E-005	  5.67469E+000	  6.20351E+000	  5.99894E+000	  1.08219E+001
  2.81250E-005	  1.73592E+000	  1.48892E+000	  1.50163E+000	  4.58052E+000
  3.12500E-005	  1.16987E+000	  7.47031E-001	  5.45950E-001	  2.47559E+000
  3.43750E-005	  7.45326E-001	  3.64120E-001	  7.70816E-001	  2.13293E+000
  3.75000E-005	  8.39668E-001	  3.16256E-001	  8.27032E-001	  1.25179E+000
  4.06250E-005	  4.38715E-001	  5.31643E-001	  6.86491E-001	  1.61893E+000
  4.37500E-005	  8.63254E-001	  3.40188E-001	  7.98924E-001	  1.27627E+000
  4.68750E-005	  6.74570E-001	  6.27371E-001	  7.42707E-001	  1.27627E+000
  5.00000E-005	  4.74093E-001	  5.67541E-001	  5.31896E-001	  1.32522E+000
  5.62500E-005	  5.21264E-001	  5.91473E-001	  8.12978E-001	  1.06822E+000
  6.25000E-005	  7.33533E-001	  4.83779E-001	  5.31896E-001	  1.06822E+000
  6.87500E-005	  4.26922E-001	  3.88052E-001	  6.44329E-001	  9.45841E-001
  7.50000E-005	  5.92020E-001	  8.54724E-001	  4.05409E-001	  6.03177E-001
  8.12500E-005	  6.86362E-001	  3.40188E-001	  5.17842E-001	  1.00703E+000
  8.75000E-005	  5.80228E-001	  3.88052E-001	  3.77301E-001	  5.54225E-001
  9.37500E-005	  4.26922E-001	  5.19677E-001	  6.02167E-001	  9.70317E-001
  1.00000E-004	  5.97917E-001	  4.77796E-001	  4.33517E-001	  5.97058E-001
  1.12500E-004	  5.09471E-001	  3.58137E-001	  5.88112E-001	  6.39891E-001
  1.25000E-004	  4.68196E-001	  5.31643E-001	  4.82707E-001	  7.56152E-001
  1.37500E-004	  5.44849E-001	  4.11983E-001	  7.35680E-001	  6.15415E-001
  1.50000E-004	  4.32818E-001	  4.11983E-001	  3.91355E-001	  5.72582E-001
  1.62500E-004	  3.32580E-001	  5.55575E-001	  4.96761E-001	  5.66463E-001
  1.75000E-004	  4.91782E-001	  5.13694E-001	  4.96761E-001	  5.23630E-001
  1.87500E-004	  5.09471E-001	  4.17966E-001	  5.74058E-001	  4.01250E-001
  2.00000E-004	  5.56642E-001	  4.62838E-001	  5.70544E-001	  5.81760E-001
  2.25000E-004	  4.03336E-001	  4.08992E-001	  5.17841E-001	  4.93035E-001
  2.50000E-004	  4.97678E-001	  4.26941E-001	  5.31896E-001	  4.62440E-001
  2.75000E-004	  4.65248E-001	  4.00017E-001	  5.00274E-001	  5.45046E-001
  3.00000E-004	  4.82937E-001	  2.80358E-001	  5.42436E-001	  6.15414E-001
  3.25000E-004	  4.88833E-001	  4.41898E-001	  4.26490E-001	  5.14451E-001
  3.50000E-004	  4.06284E-001	  4.71813E-001	  4.22976E-001	  4.96094E-001
  3.75000E-004	  5.15367E-001	  4.41898E-001	  5.14328E-001	  5.90938E-001
  4.00000E-004	  3.97439E-001	  4.19461E-001	  5.33652E-001	  5.69521E-001
  4.50000E-004	  4.84411E-001	  5.70531E-001	  5.31895E-001	  4.71617E-001
  5.00000E-004	  5.21263E-001	  4.46385E-001	  4.77435E-001	  4.51731E-001
  5.50000E-004	  4.94729E-001	  4.58351E-001	  4.54597E-001	  4.44082E-001
  6.00000E-004	  4.41662E-001	  4.94248E-001	  4.96760E-001	  4.22666E-001
  6.50000E-004	  4.97677E-001	  4.41897E-001	  4.35273E-001	  5.60357E-001
  7.00000E-004	  5.31581E-001	  5.07710E-001	  5.26625E-001	  4.39506E-001
  7.50000E-004	  4.81462E-001	  4.34419E-001	  4.52841E-001	  4.50214E-001
  8.00000E-004	  5.19787E-001	  4.40400E-001	  5.01165E-001	  4.70113E-001
  9.00000E-004	  5.36002E-001	  4.33670E-001	  4.39678E-001	  4.29574E-001
  1.00000E-003	  5.42636E-001	  4.68072E-001	  4.51097E-001	  3.78326E-001
  1.10000E-003	  5.20525E-001	  4.12729E-001	  4.84475E-001	  4.24972E-001
  1.20000E-003	  4.71879E-001	  4.73307E-001	  4.35272E-001	  4.81573E-001
  1.30000E-003	  4.41661E-001	  5.19675E-001	  5.38042E-001	  4.16558E-001
  1.40000E-003	  4.52716E-001	  4.44140E-001	  4.43177E-001	  4.50978E-001
  1.50000E-003	  4.44609E-001	  5.03222E-001	  4.22096E-001	  4.15041E-001
  1.60000E-003	  4.53095E-001	  5.07706E-001	  4.44946E-001	  4.44117E-001
  1.80000E-003	  4.99898E-001	  4.31424E-001	  4.51973E-001	  4.81980E-001
  2.00000E-003	  4.82946E-001	  4.61712E-001	  4.62513E-001	  4.31114E-001
  2.20000E-003	  5.00266E-001	  4.48251E-001	  4.87547E-001	  4.86569E-001
  2.40000E-003	  4.70784E-001	  4.41146E-001	  4.78324E-001	  4.74726E-001
  2.60000E-003	  4.62308E-001	  4.87140E-001	  4.72176E-001	  4.60958E-001
  2.80000E-003	  4.88842E-001	  4.74800E-001	  4.58107E-001	  4.42970E-001
  3.00000E-003	  4.69310E-001	  4.25441E-001	  4.62499E-001	  4.51384E-001
  3.20000E-003	  4.77070E-001	  4.32727E-001	  4.52407E-001	  4.42417E-001
  3.60000E-003	  4.99367E-001	  4.68064E-001	  4.29349E-001	  4.58289E-001
  4.00000E-003	  4.36335E-001	  4.65634E-001	  4.74586E-001	  4.38975E-001
  4.40000E-003	  4.92167E-001	  4.66942E-001	  4.86883E-001	  4.47580E-001
  4.80000E-003	  4.73925E-001	  4.21136E-001	  4.43623E-001	  4.64791E-001
  5.20000E-003	  4.44996E-001	  4.74982E-001	  4.49991E-001	  4.67086E-001
  5.60000E-003	  4.67107E-001	  4.46002E-001	  4.37255E-001	  4.32856E-001
  6.00000E-003	  4.71898E-001	  4.41702E-001	  4.31751E-001	  4.31122E-001
  6.40000E-003	  4.50841E-001	  4.49451E-001	  4.22971E-001	  4.46667E-001
  7.20000E-003	  4.66043E-001	  4.39542E-001	  4.53166E-001	  4.55355E-001
  8.00000E-003	  4.59226E-001	  4.31316E-001	  4.51519E-001	  4.62908E-001
  8.80000E-003	  4.52131E-001	  4.53097E-001	  4.29559E-001	  4.42829E-001
  9.60000E-003	  4.52579E-001	  4.49451E-001	  4.59314E-001	  4.57841E-001
  1.04000E-002	  4.85931E-001	  4.30194E-001	  4.50860E-001	  4.49905E-001
  1.12000E-002	  5.00212E-001	  4.45244E-001	  4.48678E-001	  4.36040E-001
  1.20000E-002	  4.45590E-001	  4.45899E-001	  4.31110E-001	  4.29539E-001
  1.28000E-002	  4.55308E-001	  4.34615E-001	  4.31310E-001	  4.41588E-001
  1.44000E-002	  4.49227E-001	  4.39055E-001	  4.24942E-001	  4.47994E-001
  1.60000E-002	  4.52867E-001	  4.40551E-001	  4.48494E-001	  4.26788E-001
  1.76000E-002	  4.44562E-001	  4.25173E-001	  4.27797E-001	  4.36733E-001
  1.92000E-002	  4.47405E-001	  4.18115E-001	  4.30446E-001	  4.24589E-001
  2.08000E-002	  4.57540E-001	  4.20219E-001	  4.31722E-001	  4.18600E-001
  2.24000E-002	  4.40943E-001	  4.04666E-001	  4.27289E-001	  4.18696E-001
  2.40000E-002	  4.40746E-001	  4.13874E-001	  4.13509E-001	  4.33851E-001
  2.56000E-002	  4.33727E-001	  4.17460E-001	  4.25494E-001	  4.29979E-001
  2.88000E-002	  4.29063E-001	  3.98332E-001	  4.27100E-001	  4.27947E-001
  3.20000E-002	  4.22959E-001	  4.05414E-001	  4.12853E-001	  4.18360E-001
  3.52000E-002	  4.24203E-001	  3.93051E-001	  4.10383E-001	  4.12955E-001
  3.84000E-002	  4.22163E-001	  3.94091E-001	  4.12743E-001	  4.09344E-001
  4.16000E-002	  4.19123E-001	  3.89160E-001	  4.00130E-001	  4.10764E-001
  4.48000E-002	  4.10529E-001	  3.89254E-001	  3.98332E-001	  4.03233E-001
  4.80000E-002	  4.16989E-001	  3.82850E-001	  3.96026E-001	  4.13452E-001
  5.12000E-002	  4.10189E-001	  3.76889E-001	  3.88757E-001	  3.99194E-001
  5.76000E-002	  3.95789E-001	  3.76573E-001	  3.85984E-001	  3.88672E-001
  6.40000E-002	  3.95893E-001	  3.68790E-001	  3.68965E-001	  3.85299E-001
  7.04000E-002	  3.89637E-001	  3.59091E-001	  3.75155E-001	  3.82849E-001
  7.68000E-002	  3.77255E-001	  3.52011E-001	  3.62596E-001	  3.67117E-001
  8.32000E-002	  3.72244E-001	  3.46742E-001	  3.57284E-001	  3.74325E-001
  8.96000E-002	  3.74997E-001	  3.46088E-001	  3.51052E-001	  3.61245E-001
  9.60000E-002	  3.62533E-001	  3.45095E-001	  3.46207E-001	  3.58925E-001
  1.02400E-001	  3.57392E-001	  3.35475E-001	  3.47637E-001	  3.52747E-001
  1.15200E-001	  3.37227E-001	  3.20307E-001	  3.26919E-001	  3.40311E-001
  1.28000E-001	  3.35066E-001	  3.09655E-001	  3.17564E-001	  3.26476E-001
  1.40800E-001	  3.25749E-001	  3.04694E-001	  3.09828E-001	  3.15733E-001
  1.53600E-001	  3.15961E-001	  2.95994E-001	  3.05627E-001	  3.06077E-001
  1.66400E-001	  3.05454E-001	  2.83997E-001	  2.92760E-001	  2.95562E-001
  1.79200E-001	  2.92954E-001	  2.75507E-001	  2.88059E-001	  2.93417E-001
  1.92000E-001	  2.91179E-001	  2.65807E-001	  2.83029E-001	  2.86005E-001
  2.04800E-001	  2.82360E-001	  2.59481E-001	  2.70726E-001	  2.73564E-001
  2.30400E-001	  2.65101E-001	  2.43731E-001	  2.55023E-001	  2.55979E-001
  2.56000E-001	  2.49746E-001	  2.30732E-001	  2.38767E-001	  2.41250E-001
  2.81600E-001	  2.33331E-001	  2.16342E-001	  2.27509E-001	  2.29943E-001
  3.07200E-001	  2.23234E-001	  2.03528E-001	  2.13551E-001	  2.16220E-001
  3.32800E-001	  2.06808E-001	  1.90970E-001	  2.00569E-001	  2.03620E-001
  3.58400E-001	  1.94029E-001	  1.80776E-001	  1.91169E-001	  1.94081E-001
  3.84000E-001	  1.84572E-001	  1.75680E-001	  1.83268E-001	  1.81295E-001
  4.09600E-001	  1.72429E-001	  1.67247E-001	  1.71505E-001	  1.71313E-001
  4.60800E-001	  1.56059E-001	  1.51202E-001	  1.47143E-001	  1.50940E-001
  5.12000E-001	  1.36483E-001	  1.40249E-001	  1.34189E-001	  1.37592E-001
  5.63200E-001	  1.18562E-001	  1.27410E-001	  1.22246E-001	  1.20829E-001
  6.14400E-001	  1.05918E-001	  1.18028E-001	  1.08521E-001	  1.06796E-001
  6.65600E-001	  9.58709E-002	  1.11792E-001	  9.62085E-002	  9.09946E-002
  7.16800E-001	  8.71697E-002	  1.01000E-001	  8.22281E-002	  8.01790E-002
  7.68000E-001	  8.04006E-002	  9.32395E-002	  7.54212E-002	  7.37998E-002
  8.19200E-001	  7.41760E-002	  8.59659E-002	  6.77529E-002	  6.61172E-002
  9.21600E-001	  6.18700E-002	  7.25010E-002	  5.36433E-002	  5.00924E-002
  1.02400E+000	  4.89890E-002	  6.11017E-002	  4.62005E-002	  3.88406E-002
  1.12640E+000	  4.12930E-002	  4.80228E-002	  3.75272E-002	  3.07126E-002
  1.22880E+000	  2.66932E-002	  4.06584E-002	  3.15485E-002	  2.48963E-002
  1.33120E+000	  2.23896E-002	  3.70429E-002	  2.69319E-002	  1.60117E-002
  1.43360E+000	  1.38344E-002	  2.81463E-002	  2.34138E-002	  1.11956E-002
  1.53600E+000	  7.30009E-003	  2.34540E-002	  2.01883E-002	  9.29674E-003
  1.63840E+000	  6.89154E-003	  2.47330E-002	  1.38170E-002	  6.07854E-003
  1.84320E+000	  3.21452E-003	  2.96012E-002	  6.94883E-003	 -2.10450E-003
  2.04800E+000	  1.81101E-003	  2.57616E-002	  6.53525E-003	 -9.06841E-003
  2.25280E+000	  3.23478E-003	  2.15294E-002	  4.86932E-003	 -1.19942E-002
  2.45760E+000	  8.51370E-003	  1.70950E-002	  5.32784E-003	 -1.12662E-002
  2.66240E+000	  1.19363E-002	  1.29516E-002	 -1.14993E-002	 -8.58799E-003
  2.86720E+000	  1.45000E-002	  1.14099E-002	 -1.35784E-002	 -5.92716E-003
  3.07200E+000	  1.65241E-002	  6.98719E-003	 -4.41815E-003	 -3.89503E-003
  3.27680E+000	  1.67885E-002	  2.96629E-003	 -2.65498E-003	 -3.72509E-003
  3.68640E+000	  1.92040E-002	 -1.28893E-003	  2.81535E-005	 -1.15976E-002
  4.09600E+000	  1.35079E-002	  4.70881E-003	 -1.82160E-004	 -9.17487E-003
  4.50560E+000	  4.39424E-003	 -7.52038E-004	 -2.60653E-003	 -7.68468E-003
  4.91520E+000	  4.52558E-003	  7.34419E-004	  3.13833E-003	 -1.41856E-002
  5.32480E+000	  3.66173E-003	  9.27027E-003	  6.06548E-003	 -9.06794E-003
  5.73440E+000	  3.02242E-003	  3.52808E-003	  1.44615E-002	 -1.08881E-003
  6.14400E+000	 -3.65622E-003	  4.98600E-003	  1.32299E-002	 -2.48606E-003
  6.55360E+000	 -9.44858E-003	  4.47194E-003	  4.15349E-003	  8.23162E-003
  7.37280E+000	 -5.13875E-003	  8.91155E-003	 -1.16946E-002	 -2.92424E-003
  8.19200E+000	  2.21800E-003	  6.39226E-004	 -1.06105E-002	  8.94801E-004
  9.01120E+000	 -4.65352E-003	 -8.87631E-003	 -1.50563E-003	  7.58870E-003
  9.83040E+000	 -7.41029E-003	 -7.31357E-003	 -2.76257E-004	  5.66852E-003
  1.06496E+001	 -8.29226E-003	 -2.43506E-003	 -3.93487E-003	 -9.14914E-003
  1.14688E+001	 -2.07418E-003	 -2.88492E-003	 -4.85484E-003	 -1.71023E-002
  1.22880E+001	 -7.55789E-003	 -5.01696E-004	 -8.98374E-003	 -1.38489E-002
  1.31072E+001	  2.17190E-003	 -1.31159E-002	 -1.26396E-002	 -1.84612E-003
  1.47456E+001	  6.03085E-004	  1.98412E-003	  7.03883E-003	  4.78627E-003
  1.63840E+001	 -7.21340E-003	  3.14748E-003	  2.99259E-003	  4.80512E-003
  1.80224E+001	  1.17727E-002	 -4.88180E-003	 -9.38646E-003	  5.49300E-003
  1.96608E+001	  2.90954E-003	  8.05070E-004	 -2.70120E-003	 -9.38875E-003
  2.12992E+001	  9.63887E-003	  1.05631E-002	  3.59155E-003	 -4.54697E-003
  2.29376E+001	  2.72088E-003	  4.97867E-003	  1.10815E-002	  5.70939E-003
  2.45760E+001	 -1.42055E-003	 -1.22441E-002	  7.19166E-003	  8.95111E-003
  2.62144E+001	  7.92674E-005	 -1.20717E-003	  1.06174E-003	  6.26250E-003
  2.94912E+001	 -9.10730E-003	  6.82220E-003	  6.35166E-004	  8.44970E-003
  3.27680E+001	 -4.60415E-003	 -3.64537E-003	 -3.08173E-003	  7.02313E-003
  3.60448E+001	 -3.65154E-003	 -2.99951E-004	 -4.71250E-004	 -2.57676E-003
  3.93216E+001	  8.31351E-003	  1.28524E-002	 -1.19914E-003	 -8.64575E-003
  4.25984E+001	 -2.38965E-003	  1.43958E-002	 -5.04464E-003	 -4.56100E-004
  4.58752E+001	 -6.26093E-003	  1.24361E-002	  1.94989E-003	  1.08531E-002
  4.91520E+001	 -8.52860E-003	  1.37491E-002	  2.22000E-003	  5.89254E-003
  5.24288E+001	 -4.37881E-003	  5.57320E-004	 -3.76258E-003	 -9.87693E-003
  5.89824E+001	  1.07967E-002	 -8.83715E-003	  4.93054E-004	  1.23945E-003
  6.55360E+001	  8.36058E-004	 -3.31708E-003	 -2.92517E-004	 -1.25276E-004
  7.20896E+001	 -3.23857E-003	 -1.34376E-003	  1.25278E-003	  3.53665E-003
  7.86432E+001	 -1.23320E-004	 -3.29589E-003	 -6.82498E-003	  2.14727E-003
  8.51968E+001	 -4.91372E-003	 -3.37953E-003	 -6.88775E-003	  2.87623E-005
  9.17504E+001	 -1.02554E-002	  4.80624E-003	  1.35574E-003	 -7.46461E-004
  9.83040E+001	  4.84007E-003	  3.23974E-004	 -8.18717E-003	 -8.01879E-004
  1.04858E+002	 -5.05306E-003	 -8.74879E-003	 -1.09656E-002	 -3.58431E-003
  1.17965E+002	 -1.37483E-003	 -9.27939E-003	  5.08149E-003	  2.09687E-003
  1.31072E+002	 -1.41225E-003	  2.51462E-003	 -3.79116E-003	 -4.26828E-003
  1.44179E+002	  4.74060E-003	  3.26170E-003	  4.45543E-003	  1.01608E-002
  1.57286E+002	  4.99817E-004	  2.52757E-003	 -1.81663E-003	 -7.33683E-003
  1.70394E+002	 -3.72574E-003	  9.18910E-003	 -3.33046E-003	 -2.48277E-004
  1.83501E+002	  2.56915E-003	  7.77938E-003	  1.01555E-003	 -3.18333E-003
  1.96608E+002	  6.68500E-003	 -1.06947E-003	  6.00390E-003	 -5.59695E-003
  2.09715E+002	  3.50339E-003	 -1.46827E-003	  5.55680E-003	 -4.72484E-004
  2.35930E+002	 -2.01908E-003	  3.43886E-003	  2.86696E-004	 -3.22746E-003
  2.62144E+002	  2.33001E-003	 -3.90978E-003	  6.56822E-004	 -9.27735E-004
  2.88358E+002	 -4.26963E-003	 -8.53841E-003	 -3.90955E-003	  5.51409E-003
  3.14573E+002	 -4.98326E-003	 -3.18257E-003	 -6.44557E-003	 -2.63295E-003
  3.40787E+002	  4.35044E-003	 -3.47288E-003	  1.66222E-003	 -3.11463E-003
  3.67002E+002	  1.04998E-003	  9.01892E-004	  9.74351E-004	  5.85743E-004
  3.93216E+002	 -1.23510E-003	  4.80207E-003	  7.21966E-003	 -2.67436E-003

"Count Rate"
       0.01311	     127.56348	     148.31543	     120.62073	     125.65613
       0.02621	     117.03491	      94.45190	     105.74341	     124.74060
       0.03932	     117.26379	     111.61804	      81.40564	     109.17664
       0.05243	     107.19299	     117.26379	      95.90149	     107.72705
       0.06554	     121.15479	     114.74609	      91.17126	     114.05945
       0.07864	     116.88232	     129.24194	     100.17395	      99.56360
       0.09175	     110.16846	     117.64526	     101.62354	     113.29651
       0.10486	      93.46008	     136.87134	     120.69702	     109.25293
       0.11796	     119.62891	     109.93958	      88.88245	     110.77881
       0.13107	     126.49536	     114.36462	     121.38367	     117.72156
       0.14418	     105.74341	     149.84131	     107.57446	      93.30750
       0.15729	     123.06213	     124.05396	     125.80872	     136.48987
       0.17039	      99.94507	     126.80054	      96.43555	     125.04578
       0.18350	      94.45190	      99.18213	      86.13586	      86.97510
       0.19661	      84.91516	     112.76245	      85.52551	     124.13025
       0.20972	     105.74341	     133.81958	      96.74072	     134.96399
       0.22282	     171.27991	     119.55261	     115.81421	      97.80884
       0.23593	     125.96130	     111.77063	      96.81702	     122.45178
       0.24904	     132.44629	     179.06189	      95.36743	     100.09766
       0.26214	     109.32922	     123.82507	      98.26660	     108.94775
       0.27525	     151.21460	     146.02661	     113.44910	     120.92590
       0.28836	     109.32922	     108.10852	     119.24744	     103.53088
       0.30147	      94.45190	     139.84680	     105.43823	     117.72156
       0.31457	      84.38110	     102.08130	     128.47900	      93.23120
       0.32768	     111.99951	     139.69421	     127.02942	      87.81433
       0.34079	     121.53625	     104.82788	     104.67529	     115.28015
       0.35389	     125.04578	     112.99133	     127.63977	     134.27734
       0.36700	     104.90417	     132.59888	     107.72705	     108.79517
       0.38011	      81.10046	     105.51453	      99.10583	     148.31543
       0.39322	     111.61804	      92.16309	      68.58826	     108.71887
       0.40632	      97.04590	     127.33459	     112.07581	     137.02393
       0.41943	     149.00208	     132.90405	     122.29919	     122.98584
       0.43254	     121.45996	     130.15747	     111.46545	     112.07581
       0.44564	     126.64795	     126.72424	      63.62915	     144.88220
       0.45875	     110.09216	     116.11938	     111.99951	      99.48730
       0.47186	     121.07849	     100.02136	     118.40820	     144.34814
       0.48497	     172.19543	     124.28284	     108.87146	     128.25012
       0.49807	     107.95593	     104.75159	     131.30188	     151.13831
       0.51118	     124.66431	     119.85779	      93.23120	     119.40002
       0.52429	     107.95593	     126.19019	     132.44629	     133.81958
       0.53740	     111.16028	      81.10046	      99.71619	     108.33740
       0.55050	     106.43005	      89.56909	     114.36462	      99.18213
       0.56361	     153.42712	      76.98059	     109.10034	     149.07837
       0.57672	      96.51184	     106.12488	     119.09485	      94.29932
       0.58982	     119.40002	     107.80334	      98.49548	     101.31836
       0.60293	     116.19568	      70.19043	      94.90967	      86.05957
       0.61604	      89.34021	     126.26648	     158.08105	      88.34839
       0.62915	     147.85767	     109.71069	      97.35107	     101.69983
       0.64225	     150.90942	     112.68616	     107.11670	     150.52795
       0.65536	     124.96948	     124.20654	      97.73254	     108.18481
       0.66847	     154.80042	     198.13538	      88.72986	     126.34277
       0.68157	     112.68616	     106.65894	     116.57715	     105.43823
       0.69468	     159.68323	      97.12219	     149.84131	     112.76245
       0.70779	      99.18213	     130.00488	     104.06494	     111.16028
       0.72090	      80.49011	      87.50916	      89.79797	      99.56360
       0.73400	     102.23389	     100.40283	     155.56335	     111.38916
       0.74711	     135.72693	     111.31287	     113.06763	      94.29932
