ALV-7004/USB-FAST
Date :	"3/14/2024"
Time :	"12:35:07 PM"
Samplename : 	""
SampMemo(0) : 	""
SampMemo(1) : 	""
SampMemo(2) : 	""
SampMemo(3) : 	""
SampMemo(4) : 	""
SampMemo(5) : 	""
SampMemo(6) : 	""
SampMemo(7) : 	""
SampMemo(8) : 	""
SampMemo(9) : 	""
Temperature [K] :	     298.16000
Viscosity [cp]  :	       0.89000
Refractive Index:	       1.33200
Wavelength [nm] :	       0.00000
Angle [°]       :	       0.00000
Duration [s]    :	         1
FloatDur [ms]   :	          944
Stop TP [ms]   :	      3771
Runs            :	         1
Mode            :	"A-CH0+1  A-CH2+3 "
MeanCR0 [kHz]   :	     106.35058
MeanCR1 [kHz]   :	     100.03938
MeanCR2 [kHz]   :	      99.01259
MeanCR3 [kHz]   :	      98.69470

"Correlation"
  3.12500E-006	 -1.00000E+000	 -1.00000E+000	 -1.00000E+000	 -1.00000E+000
  6.25000E-006	 -1.00000E+000	 -1.00000E+000	 -1.00000E+000	 -1.00000E+000
  9.37500E-006	 -1.00000E+000	 -1.00000E+000	 -1.00000E+000	 -1.00000E+000
  1.25000E-005	 -1.00000E+000	 -1.00000E+000	 -1.00000E+000	 -1.00000E+000
  1.56250E-005	 -1.00000E+000	 -1.00000E+000	 -1.00000E+000	 -1.00000E+000
  1.87500E-005	 -1.00000E+000	 -1.00000E+000	 -1.00000E+000	 -1.00000E+000
  2.18750E-005	 -9.40041E-001	 -2.20720E-001	 -2.04465E-001	 -9.30377E-001
  2.50000E-005	  6.76475E+000	  6.86056E+000	  6.29817E+000	  1.22631E+001
  2.81250E-005	  1.90803E+000	  1.67666E+000	  1.24825E+000	  5.30084E+000
  3.12500E-005	  6.48885E-001	  9.31259E-001	  8.67777E-001	  2.72481E+000
  3.43750E-005	  5.58946E-001	  5.58560E-001	  1.28284E+000	  2.30707E+000
  3.75000E-005	  4.09048E-001	  4.23033E-001	  5.91070E-001	  2.62037E+000
  4.06250E-005	  9.78663E-001	  6.60205E-001	  7.64012E-001	  1.81971E+000
  4.37500E-005	  4.09048E-001	  5.92441E-001	  4.87304E-001	  1.88934E+000
  4.68750E-005	  4.69007E-001	  6.26323E-001	  5.56481E-001	  1.43679E+000
  5.00000E-005	  2.44159E-001	  4.56914E-001	  7.46718E-001	  1.36717E+000
  5.62500E-005	  7.38825E-001	  6.60205E-001	  6.25658E-001	  9.49431E-001
  6.25000E-005	  6.63875E-001	  5.24678E-001	  4.70010E-001	  1.17570E+000
  6.87500E-005	  7.23835E-001	  5.75500E-001	  5.21893E-001	  1.14089E+000
  7.50000E-005	  9.18703E-001	  6.26323E-001	  5.73775E-001	  8.62403E-001
  8.12500E-005	  4.09048E-001	  6.09382E-001	  6.94835E-001	  8.97214E-001
  8.75000E-005	  4.98987E-001	  6.26323E-001	  1.93302E-001	  6.70941E-001
  9.37500E-005	  5.28966E-001	  5.75500E-001	  1.58714E-001	  6.01318E-001
  1.00000E-004	  7.53814E-001	  6.00911E-001	  3.74892E-001	  6.70941E-001
  1.12500E-004	  2.36664E-001	  5.67030E-001	  5.21892E-001	  6.27427E-001
  1.25000E-004	  5.36461E-001	  4.48444E-001	  7.38070E-001	  5.31696E-001
  1.37500E-004	  7.46319E-001	  6.85616E-001	  5.99717E-001	  8.79808E-001
  1.50000E-004	  3.11613E-001	  5.50089E-001	  3.83539E-001	  5.05587E-001
  1.62500E-004	  4.83997E-001	  3.29858E-001	  7.20776E-001	  6.44832E-001
  1.75000E-004	  5.88926E-001	  5.41618E-001	  3.48950E-001	  6.79644E-001
  1.87500E-004	  3.19108E-001	  4.90796E-001	  5.21892E-001	  4.53370E-001
  2.00000E-004	  5.21471E-001	  6.30558E-001	  4.91627E-001	  5.83912E-001
  2.25000E-004	  3.94057E-001	  5.07736E-001	  4.31097E-001	  5.31695E-001
  2.50000E-004	  5.13976E-001	  5.75500E-001	  5.99716E-001	  5.49101E-001
  2.75000E-004	  5.58946E-001	  5.11972E-001	  4.70009E-001	  4.88181E-001
  3.00000E-004	  4.91491E-001	  3.93386E-001	  3.70568E-001	  4.96884E-001
  3.25000E-004	  4.76501E-001	  5.24677E-001	  5.65128E-001	  5.31695E-001
  3.50000E-004	  4.54017E-001	  6.17852E-001	  4.65686E-001	  4.09856E-001
  3.75000E-004	  5.13976E-001	  5.92441E-001	  5.52157E-001	  4.14207E-001
  4.00000E-004	  5.00859E-001	  5.14089E-001	  5.24053E-001	  4.75127E-001
  4.50000E-004	  4.50269E-001	  5.43735E-001	  4.85141E-001	  4.59897E-001
  5.00000E-004	  5.27092E-001	  5.35265E-001	  5.75936E-001	  4.57721E-001
  5.50000E-004	  5.47703E-001	  4.14561E-001	  4.70009E-001	  4.99059E-001
  6.00000E-004	  4.50269E-001	  4.23032E-001	  4.59200E-001	  4.46842E-001
  6.50000E-004	  5.02733E-001	  4.08208E-001	  5.19730E-001	  4.44667E-001
  7.00000E-004	  3.75319E-001	  4.61148E-001	  6.06201E-001	  4.29437E-001
  7.50000E-004	  5.04607E-001	  4.67501E-001	  5.41348E-001	  4.55545E-001
  8.00000E-004	  4.77436E-001	  4.32560E-001	  5.01353E-001	  4.92531E-001
  9.00000E-004	  4.69941E-001	  4.00795E-001	  5.18648E-001	  5.42572E-001
  1.00000E-003	  5.01795E-001	  5.00323E-001	  4.82978E-001	  4.53368E-001
  1.10000E-003	  4.73689E-001	  4.32560E-001	  4.76493E-001	  5.61065E-001
  1.20000E-003	  4.86805E-001	  4.53736E-001	  5.05677E-001	  4.68598E-001
  1.30000E-003	  5.05542E-001	  4.28324E-001	  4.11640E-001	  4.49017E-001
  1.40000E-003	  4.72752E-001	  5.04558E-001	  4.25691E-001	  4.90355E-001
  1.50000E-003	  4.33404E-001	  4.55853E-001	  4.95949E-001	  5.15376E-001
  1.60000E-003	  4.88676E-001	  4.87085E-001	  4.96487E-001	  4.57173E-001
  1.80000E-003	  5.04135E-001	  4.39439E-001	  5.02972E-001	  4.83282E-001
  2.00000E-003	  5.04135E-001	  4.92379E-001	  4.42983E-001	  5.03983E-001
  2.20000E-003	  4.58697E-001	  4.64866E-001	  4.50009E-001	  4.57749E-001
  2.40000E-003	  4.69471E-001	  4.54278E-001	  5.40820E-001	  4.74611E-001
  2.60000E-003	  5.17251E-001	  4.11925E-001	  4.71102E-001	  4.80050E-001
  2.80000E-003	  5.00387E-001	  4.38396E-001	  4.27325E-001	  5.67624E-001
  3.00000E-003	  4.55418E-001	  4.60631E-001	  4.24083E-001	  5.36619E-001
  3.20000E-003	  4.75555E-001	  4.68038E-001	  4.53802E-001	  5.04522E-001
  3.60000E-003	  4.77195E-001	  4.79155E-001	  4.89202E-001	  4.74606E-001
  4.00000E-003	  4.42531E-001	  4.41318E-001	  5.20007E-001	  4.80317E-001
  4.40000E-003	  4.61034E-001	  4.35245E-001	  4.80014E-001	  4.69438E-001
  4.80000E-003	  4.99445E-001	  4.41598E-001	  4.57586E-001	  4.90108E-001
  5.20000E-003	  4.31523E-001	  4.25715E-001	  4.88932E-001	  4.77325E-001
  5.60000E-003	  4.90779E-001	  4.53245E-001	  4.87851E-001	  4.99083E-001
  6.00000E-003	  4.65484E-001	  4.38951E-001	  4.54883E-001	  4.86572E-001
  6.40000E-003	  4.51304E-001	  4.44383E-001	  4.71222E-001	  4.72828E-001
  7.20000E-003	  4.41247E-001	  4.60001E-001	  4.72438E-001	  4.86986E-001
  8.00000E-003	  4.75326E-001	  4.56824E-001	  4.67033E-001	  4.89842E-001
  8.80000E-003	  4.74506E-001	  4.43721E-001	  4.91894E-001	  4.65228E-001
  9.60000E-003	  4.81649E-001	  4.37368E-001	  4.87451E-001	  4.67404E-001
  1.04000E-002	  4.63849E-001	  4.47956E-001	  4.88802E-001	  4.63597E-001
  1.12000E-002	  4.86685E-001	  4.28368E-001	  4.92856E-001	  4.58021E-001
  1.20000E-002	  4.69822E-001	  4.43192E-001	  4.51376E-001	  4.77075E-001
  1.28000E-002	  4.47463E-001	  4.36188E-001	  4.69529E-001	  4.65972E-001
  1.44000E-002	  4.56598E-001	  4.39695E-001	  4.71639E-001	  4.72771E-001
  1.60000E-002	  4.64444E-001	  4.43401E-001	  4.59479E-001	  4.66396E-001
  1.76000E-002	  4.59350E-001	  4.46181E-001	  4.68261E-001	  4.53341E-001
  1.92000E-002	  4.55661E-001	  4.33408E-001	  4.63194E-001	  4.74759E-001
  2.08000E-002	  4.49805E-001	  4.40291E-001	  4.57992E-001	  4.47290E-001
  2.24000E-002	  4.39441E-001	  4.34202E-001	  4.58159E-001	  4.49753E-001
  2.40000E-002	  4.57476E-001	  4.41813E-001	  4.51200E-001	  4.54732E-001
  2.56000E-002	  4.38670E-001	  4.27426E-001	  4.46039E-001	  4.44015E-001
  2.88000E-002	  4.39739E-001	  4.34275E-001	  4.51849E-001	  4.44556E-001
  3.20000E-002	  4.37309E-001	  4.17114E-001	  4.41378E-001	  4.42498E-001
  3.52000E-002	  4.30897E-001	  4.20952E-001	  4.38556E-001	  4.32026E-001
  3.84000E-002	  4.33137E-001	  4.22225E-001	  4.50191E-001	  4.33556E-001
  4.16000E-002	  4.28599E-001	  4.24839E-001	  4.31613E-001	  4.39574E-001
  4.48000E-002	  4.19933E-001	  4.18850E-001	  4.40868E-001	  4.37822E-001
  4.80000E-002	  4.23212E-001	  4.06309E-001	  4.38909E-001	  4.35627E-001
  5.12000E-002	  4.22368E-001	  4.10181E-001	  4.30478E-001	  4.29918E-001
  5.76000E-002	  4.05314E-001	  4.09371E-001	  4.41624E-001	  4.15093E-001
  6.40000E-002	  4.13336E-001	  4.03459E-001	  4.31406E-001	  4.15222E-001
  7.04000E-002	  4.07348E-001	  3.95979E-001	  4.14450E-001	  4.14536E-001
  7.68000E-002	  4.15458E-001	  3.92006E-001	  4.15208E-001	  4.13295E-001
  8.32000E-002	  4.09969E-001	  3.94205E-001	  4.11474E-001	  4.10063E-001
  8.96000E-002	  3.92549E-001	  3.80669E-001	  3.95445E-001	  3.89255E-001
  9.60000E-002	  3.94145E-001	  3.83513E-001	  4.01118E-001	  3.92311E-001
  1.02400E-001	  3.97275E-001	  3.79790E-001	  3.99191E-001	  3.92783E-001
  1.15200E-001	  3.81788E-001	  3.68067E-001	  3.92498E-001	  3.92326E-001
  1.28000E-001	  3.71908E-001	  3.64799E-001	  3.78031E-001	  3.81039E-001
  1.40800E-001	  3.64662E-001	  3.50470E-001	  3.72531E-001	  3.78151E-001
  1.53600E-001	  3.54947E-001	  3.46215E-001	  3.76570E-001	  3.69517E-001
  1.66400E-001	  3.51990E-001	  3.45493E-001	  3.64560E-001	  3.58114E-001
  1.79200E-001	  3.40980E-001	  3.43007E-001	  3.60001E-001	  3.53363E-001
  1.92000E-001	  3.41802E-001	  3.21791E-001	  3.50405E-001	  3.49166E-001
  2.04800E-001	  3.36498E-001	  3.18945E-001	  3.47160E-001	  3.41876E-001
  2.30400E-001	  3.21698E-001	  3.05881E-001	  3.32360E-001	  3.32976E-001
  2.56000E-001	  3.09877E-001	  2.95274E-001	  3.23034E-001	  3.18641E-001
  2.81600E-001	  3.01422E-001	  2.84489E-001	  3.11438E-001	  3.07368E-001
  3.07200E-001	  2.83356E-001	  2.70913E-001	  3.02403E-001	  3.01486E-001
  3.32800E-001	  2.76541E-001	  2.64370E-001	  2.88948E-001	  2.90015E-001
  3.58400E-001	  2.70975E-001	  2.47266E-001	  2.80420E-001	  2.77871E-001
  3.84000E-001	  2.60103E-001	  2.39426E-001	  2.70650E-001	  2.64481E-001
  4.09600E-001	  2.48774E-001	  2.26048E-001	  2.56852E-001	  2.58243E-001
  4.60800E-001	  2.26015E-001	  2.09481E-001	  2.38448E-001	  2.38119E-001
  5.12000E-001	  2.05324E-001	  1.91921E-001	  2.24463E-001	  2.19623E-001
  5.63200E-001	  1.83147E-001	  1.78127E-001	  2.08534E-001	  2.06594E-001
  6.14400E-001	  1.68383E-001	  1.64828E-001	  1.92679E-001	  1.86756E-001
  6.65600E-001	  1.49076E-001	  1.46860E-001	  1.73846E-001	  1.71646E-001
  7.16800E-001	  1.40993E-001	  1.37672E-001	  1.60494E-001	  1.61790E-001
  7.68000E-001	  1.24328E-001	  1.26091E-001	  1.47651E-001	  1.41060E-001
  8.19200E-001	  1.15958E-001	  1.18702E-001	  1.37263E-001	  1.32716E-001
  9.21600E-001	  9.58279E-002	  1.05849E-001	  1.15918E-001	  1.08948E-001
  1.02400E+000	  7.80351E-002	  9.03374E-002	  9.58646E-002	  9.17163E-002
  1.12640E+000	  6.44076E-002	  8.27269E-002	  7.94061E-002	  7.86601E-002
  1.22880E+000	  5.60288E-002	  7.06231E-002	  6.61884E-002	  6.20256E-002
  1.33120E+000	  4.75030E-002	  5.98049E-002	  5.05345E-002	  4.88899E-002
  1.43360E+000	  3.96527E-002	  5.47916E-002	  3.63868E-002	  3.50907E-002
  1.53600E+000	  3.62036E-002	  5.13998E-002	  2.07053E-002	  2.53350E-002
  1.63840E+000	  3.45173E-002	  4.47696E-002	  1.28181E-002	  1.53567E-002
  1.84320E+000	  3.06863E-002	  4.22888E-002	  1.31188E-003	  4.68401E-003
  2.04800E+000	  2.75172E-002	  4.01427E-002	 -1.30598E-002	 -4.29074E-003
  2.25280E+000	  2.23949E-002	  3.19323E-002	 -2.32667E-002	 -1.09544E-002
  2.45760E+000	  1.88357E-002	  2.63661E-002	 -2.22286E-002	 -1.57502E-002
  2.66240E+000	  1.29521E-002	  1.92119E-002	 -2.06218E-002	 -1.98654E-002
  2.86720E+000	  1.13078E-002	  1.33309E-002	 -1.77777E-002	 -2.02354E-002
  3.07200E+000	  1.25603E-002	  9.52005E-003	 -1.64606E-002	 -2.43772E-002
  3.27680E+000	  7.79270E-003	  1.46841E-002	 -1.64574E-002	 -2.80923E-002
  3.68640E+000	 -1.31834E-003	  1.09918E-002	 -7.54741E-003	 -2.80258E-002
  4.09600E+000	 -3.49095E-003	  2.07353E-002	  1.09373E-002	 -2.16188E-002
  4.50560E+000	 -3.88692E-003	  3.04662E-002	  1.67278E-002	 -8.96423E-003
  4.91520E+000	  3.57786E-003	  2.95347E-002	  1.60510E-002	 -2.88706E-003
  5.32480E+000	  1.09757E-002	  2.90715E-002	  9.00766E-003	 -6.52529E-003
  5.73440E+000	  9.99743E-003	  3.26917E-002	 -2.90995E-003	 -7.41719E-003
  6.14400E+000	  5.56541E-003	  2.72700E-002	 -7.89784E-003	 -2.00476E-002
  6.55360E+000	  2.10043E-003	  1.71964E-002	 -1.46545E-002	 -2.60583E-002
  7.37280E+000	 -4.94392E-003	  9.45791E-003	 -2.14629E-002	 -2.10545E-002
  8.19200E+000	 -1.92266E-002	  6.01236E-004	 -1.96882E-002	 -1.96273E-002
  9.01120E+000	 -1.44354E-002	 -3.31261E-003	 -1.29139E-002	 -1.65773E-002
  9.83040E+000	 -2.87756E-002	  5.96670E-003	 -4.62299E-003	 -1.59492E-002
  1.06496E+001	 -1.81237E-002	  3.01993E-003	 -1.10612E-003	 -1.04305E-002
  1.14688E+001	 -2.93732E-003	  3.56277E-003	 -2.88109E-003	 -8.89888E-003
  1.22880E+001	 -1.24743E-003	  7.33661E-003	 -6.98049E-003	  1.27889E-003
  1.31072E+001	 -6.71721E-003	  4.22950E-003	 -1.40534E-002	  9.40970E-003
  1.47456E+001	 -4.98631E-003	 -4.94574E-003	  5.62624E-003	  2.28259E-002
  1.63840E+001	  6.68238E-003	  2.02207E-002	 -1.23390E-002	  1.50835E-002
  1.80224E+001	 -2.68172E-003	  1.15140E-002	 -5.29257E-003	 -9.25154E-003
  1.96608E+001	 -3.41785E-003	  1.35112E-002	 -7.18887E-003	 -1.07740E-002
  2.12992E+001	  3.41523E-003	  1.60764E-002	 -1.20793E-002	  7.79566E-003
  2.29376E+001	  5.85242E-003	  1.78200E-002	 -1.50602E-002	 -1.30631E-002
  2.45760E+001	  1.77592E-002	  6.52856E-004	 -8.65615E-003	 -1.06483E-002
  2.62144E+001	  1.88525E-003	 -9.07333E-004	  1.12509E-002	 -7.97593E-003
  2.94912E+001	 -3.41759E-003	  7.80557E-003	  5.45950E-003	 -7.58347E-003
  3.27680E+001	 -1.69729E-002	  1.53814E-002	 -8.98892E-003	  5.86586E-003
  3.60448E+001	  6.46390E-003	  6.41011E-003	  8.64270E-003	  7.88286E-003
  3.93216E+001	  4.70561E-003	 -4.30017E-003	  7.24132E-003	  3.07903E-003
  4.25984E+001	  5.17572E-003	 -6.71743E-003	 -1.18174E-002	 -2.05238E-003
  4.58752E+001	  6.53514E-003	 -8.67194E-003	  2.33968E-003	  6.91967E-003
  4.91520E+001	 -4.68963E-003	 -1.43685E-002	 -1.00038E-002	  5.74643E-004
  5.24288E+001	 -2.87707E-003	 -6.43671E-003	 -1.17909E-002	  6.82292E-003
  5.89824E+001	 -5.02129E-003	 -4.87728E-003	 -2.10577E-003	  5.05358E-003
  6.55360E+001	  2.05567E-003	  1.19332E-003	 -1.15699E-003	 -1.02300E-002
  7.20896E+001	  5.21640E-003	  2.08378E-003	  1.36938E-002	 -6.91066E-004
  7.86432E+001	 -1.01587E-002	 -8.37204E-003	 -4.99512E-003	  6.99880E-003
  8.51968E+001	  5.90162E-003	 -4.06151E-003	  4.86938E-003	 -1.09810E-002
  9.17504E+001	  6.75151E-003	 -4.67068E-003	 -1.45756E-003	  8.05296E-003
  9.83040E+001	  2.90480E-003	  1.34866E-002	 -1.58884E-003	 -5.24921E-003
  1.04858E+002	  9.03716E-003	 -4.33673E-003	  1.79905E-003	  3.64416E-003
  1.17965E+002	 -2.25794E-002	 -3.62154E-003	 -1.60000E-003	 -1.61671E-003
  1.31072E+002	  1.42873E-003	  3.69486E-003	 -4.14303E-003	  3.83737E-003
  1.44179E+002	 -6.46022E-003	 -8.78752E-004	 -3.06440E-003	 -2.19032E-003
  1.57286E+002	 -4.00954E-003	 -1.23836E-002	  7.29015E-003	 -3.25402E-003
  1.70394E+002	 -2.15823E-003	 -1.09476E-003	 -5.79932E-003	 -2.80214E-003
  1.83501E+002	 -2.25339E-003	 -1.41761E-003	  3.93928E-003	  6.92292E-003
  1.96608E+002	  3.96772E-003	  2.80250E-003	 -2.39860E-003	 -3.54138E-003
  2.09715E+002	  1.20056E-003	 -4.29543E-003	  2.96310E-003	  4.72445E-005
  2.35930E+002	  5.02736E-003	  5.71479E-003	 -5.12736E-003	 -5.22769E-003
  2.62144E+002	  3.64265E-003	  5.55673E-003	  1.27590E-003	 -2.37776E-003
  2.88358E+002	  3.13088E-003	  2.04144E-003	  2.66285E-003	 -3.69696E-003
  3.14573E+002	 -3.70802E-003	 -2.77212E-003	  1.99421E-004	 -4.87410E-004
  3.40787E+002	 -6.69758E-003	 -6.28404E-003	  4.24761E-004	 -1.86825E-003
  3.67002E+002	 -3.14272E-003	 -8.31021E-003	  2.65979E-003	 -1.82465E-003
  3.93216E+002	 -7.90038E-004	 -5.06222E-003	 -2.59832E-003	  1.61980E-003

"Count Rate"
       0.01311	     105.97229	     148.23914	     106.20117	     105.89600
       0.02621	     145.79773	     138.70239	      72.02148	     104.59900
       0.03932	     118.48450	      88.72986	      85.75439	     113.90686
       0.05243	     130.84412	     136.41357	     104.82788	     128.47900
       0.06554	      66.52832	     103.14941	     109.10034	      67.36755
       0.07864	     131.37817	      77.28577	      76.06506	     102.38647
       0.09175	     106.43005	     119.78149	      81.25305	     142.44080
       0.10486	     117.03491	     105.05676	      92.08679	      98.87695
       0.11796	     107.11670	     147.01843	      93.30750	      68.96973
       0.13107	      80.56641	     119.85779	     121.07849	     118.33191
       0.14418	      99.18213	     105.89600	     124.96948	      96.28296
       0.15729	     107.72705	     173.18726	      89.64539	      78.35388
       0.17039	     145.03479	     108.18481	      81.71082	      86.36475
       0.18350	      98.64807	     110.47363	      75.14954	      85.52551
       0.19661	     144.72961	      76.21765	      95.59631	      78.50647
       0.20972	     107.11670	      77.97241	     112.99133	     104.14124
       0.22282	      87.89063	      87.89063	      88.57727	      81.86340
       0.23593	     110.54993	      79.04053	      86.13586	      88.19580
       0.24904	      96.89331	      91.09497	      91.70532	      85.90698
       0.26214	     110.77881	      89.49280	      85.83069	     108.56628
       0.27525	     141.83044	      89.56909	     107.80334	     113.75427
       0.28836	      92.23938	     126.80054	     110.93140	      80.18494
       0.30147	     118.86597	     101.62354	     125.96130	      92.92603
       0.31457	      75.98877	      68.13049	      86.97510	      86.51733
       0.32768	      75.83618	      90.10315	     106.43005	      93.00232
       0.34079	      85.52551	      96.58813	      91.70532	      98.03772
       0.35389	     102.23389	     137.32910	      85.52551	      97.57996
       0.36700	     100.63171	     104.82788	      99.94507	      93.84155
       0.38011	     101.24207	      85.67810	     116.04309	     103.30200
       0.39322	      85.44922	      88.88245	     112.30469	      81.55823
       0.40632	     128.47900	     104.44641	      97.50366	      95.13855
       0.41943	      70.19043	      93.46008	     103.68347	      77.81982
       0.43254	     131.30188	     113.67798	     117.87415	      99.48730
       0.44564	     117.18750	      71.94519	     102.00500	     116.04309
       0.45875	      94.52820	      82.77893	     122.68066	     130.23376
       0.47186	     109.10034	      91.09497	      93.84155	      97.35107
       0.48497	      96.66443	      81.71082	     100.93689	     107.72705
       0.49807	      88.34839	      70.03784	     101.39465	      82.24487
       0.51118	      97.50366	      85.37292	      79.49829	     101.16577
       0.52429	      86.89880	      90.86609	      84.91516	     108.64258
       0.53740	      94.14673	      83.61816	     104.37012	     101.31836
       0.55050	      89.56909	     114.28833	      69.04602	      85.29663
       0.56361	      98.64807	     101.77612	     112.91504	      98.03772
       0.57672	     122.45178	      69.80896	      75.60730	      94.98596
       0.58982	      74.84436	      91.01868	      89.41650	     124.74060
       0.60293	     105.59082	     100.40283	     109.02405	      90.25574
       0.61604	      76.75171	     114.59351	      99.25842	      90.78979
       0.62915	      96.51184	      97.80884	      37.91809	      81.78711
       0.64225	      86.21216	     117.41638	     116.80603	     150.75684
       0.65536	     144.27185	     120.01038	     121.38367	     102.69165
       0.66847	     146.78955	     119.09485	      88.04321	      99.18213
       0.68157	      81.71082	     100.86060	     131.53076	      88.95874
       0.69468	      94.45190	     131.83594	      60.34851	      97.04590
       0.70779	     171.12732	      61.11145	     106.35376	      80.79529
       0.72090	      96.20667	      75.07324	     125.96130	      86.59363
       0.73400	     117.26379	      56.30493	      58.97522	      98.41919
       0.74711	     121.07849	      65.15503	     115.89050	     108.56628
