ALV-7004/USB-FAST
Date :	"3/14/2024"
Time :	"12:31:37 PM"
Samplename : 	""
SampMemo(0) : 	""
SampMemo(1) : 	""
SampMemo(2) : 	""
SampMemo(3) : 	""
SampMemo(4) : 	""
SampMemo(5) : 	""
SampMemo(6) : 	""
SampMemo(7) : 	""
SampMemo(8) : 	""
SampMemo(9) : 	""
Temperature [K] :	     298.16000
Viscosity [cp]  :	       0.89000
Refractive Index:	       1.33200
Wavelength [nm] :	       0.00000
Angle [°]       :	       0.00000
Duration [s]    :	         1
FloatDur [ms]   :	          944
Stop TP [ms]   :	      3191
Runs            :	         1
Mode            :	"A-CH0+1  A-CH2+3 "
MeanCR0 [kHz]   :	     147.85872
MeanCR1 [kHz]   :	     150.60002
MeanCR2 [kHz]   :	     145.96303
MeanCR3 [kHz]   :	     146.84253

"Correlation"
  3.12500E-006	 -1.00000E+000	 -1.00000E+000	 -1.00000E+000	 -1.00000E+000
  6.25000E-006	 -1.00000E+000	 -1.00000E+000	 -1.00000E+000	 -1.00000E+000
  9.37500E-006	 -1.00000E+000	 -1.00000E+000	 -1.00000E+000	 -1.00000E+000
  1.25000E-005	 -1.00000E+000	 -1.00000E+000	 -1.00000E+000	 -1.00000E+000
  1.56250E-005	 -1.00000E+000	 -1.00000E+000	 -1.00000E+000	 -1.00000E+000
  1.87500E-005	 -1.00000E+000	 -1.00000E+000	 -1.00000E+000	 -1.00000E+000
  2.18750E-005	 -9.37960E-001	 -2.67422E-001	 -3.63378E-001	 -9.84275E-001
  2.50000E-005	  5.34362E+000	  4.98023E+000	  4.71368E+000	  9.78768E+000
  2.81250E-005	  1.77630E+000	  1.15288E+000	  1.00536E+000	  3.37168E+000
  3.12500E-005	  9.69778E-001	  5.24957E-001	  1.02128E+000	  2.11364E+000
  3.43750E-005	  8.61208E-001	  6.89414E-001	  6.55218E-001	  1.53180E+000
  3.75000E-005	  5.51006E-001	  7.94068E-001	  6.87049E-001	  1.65761E+000
  4.06250E-005	  9.54268E-001	  6.29611E-001	  3.52822E-001	  1.56325E+000
  4.37500E-005	  8.45698E-001	  7.19315E-001	  6.71133E-001	  1.09149E+000
  4.68750E-005	  8.30188E-001	  7.49216E-001	  5.59724E-001	  1.06004E+000
  5.00000E-005	  6.05292E-001	  6.74463E-001	  6.55218E-001	  1.29592E+000
  5.62500E-005	  7.52637E-001	  5.99710E-001	  3.13033E-001	  8.94920E-001
  6.25000E-005	  5.43251E-001	  5.84760E-001	  5.91555E-001	  8.55606E-001
  6.87500E-005	  4.88966E-001	  7.04364E-001	  5.04020E-001	  7.92704E-001
  7.50000E-005	  5.97537E-001	  6.22136E-001	  6.23387E-001	  6.03998E-001
  8.12500E-005	  6.13047E-001	  3.97878E-001	  5.27893E-001	  7.06214E-001
  8.75000E-005	  5.04476E-001	  3.82927E-001	  4.48315E-001	  5.96136E-001
  9.37500E-005	  4.88966E-001	  3.67976E-001	  5.99513E-001	  6.19724E-001
  1.00000E-004	  6.01414E-001	  5.58596E-001	  6.15429E-001	  6.00067E-001
  1.12500E-004	  5.12231E-001	  5.10007E-001	  4.16484E-001	  3.95636E-001
  1.25000E-004	  5.00599E-001	  4.72630E-001	  5.19935E-001	  6.82626E-001
  1.37500E-004	  3.80396E-001	  4.83843E-001	  4.72189E-001	  6.07930E-001
  1.50000E-004	  4.65701E-001	  4.50204E-001	  4.92083E-001	  7.06214E-001
  1.62500E-004	  3.76518E-001	  6.29611E-001	  4.56273E-001	  5.29302E-001
  1.75000E-004	  3.45498E-001	  5.28695E-001	  4.60252E-001	  5.17508E-001
  1.87500E-004	  5.43251E-001	  5.10007E-001	  4.88104E-001	  4.34949E-001
  2.00000E-004	  5.16108E-001	  5.49251E-001	  4.74178E-001	  5.13577E-001
  2.25000E-004	  4.90904E-001	  5.17482E-001	  5.06009E-001	  5.09645E-001
  2.50000E-004	  6.26617E-001	  4.68892E-001	  5.11977E-001	  5.86307E-001
  2.75000E-004	  5.64577E-001	  4.35253E-001	  5.19935E-001	  5.90238E-001
  3.00000E-004	  4.90904E-001	  4.68892E-001	  5.51766E-001	  5.58787E-001
  3.25000E-004	  5.31618E-001	  4.55810E-001	  4.96062E-001	  4.68366E-001
  3.50000E-004	  5.39373E-001	  5.17482E-001	  4.88104E-001	  4.66400E-001
  3.75000E-004	  5.21925E-001	  4.83843E-001	  4.52294E-001	  4.54606E-001
  4.00000E-004	  4.98659E-001	  4.54875E-001	  4.79151E-001	  4.14309E-001
  4.50000E-004	  5.06414E-001	  4.96924E-001	  5.17945E-001	  5.53872E-001
  5.00000E-004	  4.70547E-001	  5.18415E-001	  5.24908E-001	  4.66399E-001
  5.50000E-004	  4.71516E-001	  4.51138E-001	  4.53288E-001	  4.85073E-001
  6.00000E-004	  4.70547E-001	  4.53007E-001	  5.13966E-001	  4.09395E-001
  6.50000E-004	  4.95751E-001	  4.90383E-001	  4.58262E-001	  4.91953E-001
  7.00000E-004	  4.75394E-001	  5.06268E-001	  4.74177E-001	  4.42811E-001
  7.50000E-004	  4.11415E-001	  4.76367E-001	  4.95066E-001	  4.93919E-001
  8.00000E-004	  4.52612E-001	  4.76833E-001	  5.31870E-001	  4.96866E-001
  9.00000E-004	  4.58913E-001	  4.89447E-001	  5.08991E-001	  4.74752E-001
  1.00000E-003	  5.31627E-001	  4.81972E-001	  5.08494E-001	  5.01289E-001
  1.10000E-003	  4.91398E-001	  4.83374E-001	  4.49805E-001	  4.48216E-001
  1.20000E-003	  5.00122E-001	  4.79636E-001	  4.88599E-001	  5.43060E-001
  1.30000E-003	  5.04000E-001	  4.85710E-001	  4.83128E-001	  4.71804E-001
  1.40000E-003	  4.84612E-001	  5.24488E-001	  5.55743E-001	  4.62958E-001
  1.50000E-003	  4.89944E-001	  5.10472E-001	  4.59752E-001	  5.12100E-001
  1.60000E-003	  4.76370E-001	  5.14207E-001	  4.46829E-001	  4.75487E-001
  1.80000E-003	  5.32109E-001	  5.02760E-001	  5.14719E-001	  4.70819E-001
  2.00000E-003	  5.14903E-001	  4.93182E-001	  4.68724E-001	  4.79920E-001
  2.20000E-003	  4.98423E-001	  5.03695E-001	  5.01052E-001	  4.79675E-001
  2.40000E-003	  4.94546E-001	  4.89211E-001	  4.80660E-001	  4.75006E-001
  2.60000E-003	  5.02786E-001	  4.91080E-001	  5.12243E-001	  4.52646E-001
  2.80000E-003	  5.05209E-001	  4.67253E-001	  4.21225E-001	  5.04246E-001
  3.00000E-003	  4.76370E-001	  4.47864E-001	  4.46840E-001	  4.53384E-001
  3.20000E-003	  4.72851E-001	  4.81614E-001	  4.76812E-001	  4.82250E-001
  3.60000E-003	  5.10657E-001	  4.79629E-001	  4.81537E-001	  4.85444E-001
  4.00000E-003	  4.66308E-001	  4.82782E-001	  5.14974E-001	  4.86181E-001
  4.40000E-003	  4.75153E-001	  4.80446E-001	  4.88116E-001	  4.79301E-001
  4.80000E-003	  5.02175E-001	  4.82432E-001	  4.89359E-001	  4.71561E-001
  5.20000E-003	  4.99145E-001	  4.65039E-001	  4.87743E-001	  4.71561E-001
  5.60000E-003	  4.90906E-001	  4.91319E-001	  4.94582E-001	  4.70087E-001
  6.00000E-003	  4.62309E-001	  4.76252E-001	  4.97815E-001	  4.65173E-001
  6.40000E-003	  4.62481E-001	  4.84126E-001	  4.67860E-001	  4.59031E-001
  7.20000E-003	  4.73326E-001	  4.74081E-001	  4.78367E-001	  4.74142E-001
  8.00000E-003	  4.69691E-001	  4.73730E-001	  4.82532E-001	  4.77029E-001
  8.80000E-003	  4.58846E-001	  4.73672E-001	  4.88376E-001	  4.73220E-001
  9.60000E-003	  4.56301E-001	  4.66159E-001	  4.48338E-001	  4.63576E-001
  1.04000E-002	  4.83504E-001	  4.62713E-001	  4.72450E-001	  4.61365E-001
  1.12000E-002	  4.72538E-001	  4.71182E-001	  4.64927E-001	  4.42998E-001
  1.20000E-002	  4.60118E-001	  4.50040E-001	  4.69528E-001	  4.52468E-001
  1.28000E-002	  4.58836E-001	  4.45582E-001	  4.72245E-001	  4.63365E-001
  1.44000E-002	  4.39671E-001	  4.58343E-001	  4.40806E-001	  4.52379E-001
  1.60000E-002	  4.46245E-001	  4.42837E-001	  4.60028E-001	  4.47280E-001
  1.76000E-002	  4.57453E-001	  4.28685E-001	  4.43926E-001	  4.35189E-001
  1.92000E-002	  4.42701E-001	  4.28929E-001	  4.52101E-001	  4.33489E-001
  2.08000E-002	  4.36279E-001	  4.31626E-001	  4.35128E-001	  4.42796E-001
  2.24000E-002	  4.22980E-001	  4.29406E-001	  4.27823E-001	  4.19790E-001
  2.40000E-002	  4.29776E-001	  4.23781E-001	  4.32299E-001	  4.27991E-001
  2.56000E-002	  4.20564E-001	  4.16875E-001	  4.27763E-001	  4.10521E-001
  2.88000E-002	  4.05660E-001	  4.05911E-001	  4.19448E-001	  4.11606E-001
  3.20000E-002	  3.98778E-001	  3.97121E-001	  4.01837E-001	  4.04863E-001
  3.52000E-002	  3.90185E-001	  3.85699E-001	  3.96272E-001	  3.93139E-001
  3.84000E-002	  3.77174E-001	  3.78764E-001	  3.96257E-001	  3.86760E-001
  4.16000E-002	  3.79158E-001	  3.70033E-001	  3.84232E-001	  3.79281E-001
  4.48000E-002	  3.60210E-001	  3.70904E-001	  3.73413E-001	  3.65309E-001
  4.80000E-002	  3.55075E-001	  3.58815E-001	  3.70072E-001	  3.57400E-001
  5.12000E-002	  3.50097E-001	  3.45901E-001	  3.63925E-001	  3.55631E-001
  5.76000E-002	  3.37566E-001	  3.33841E-001	  3.45095E-001	  3.33282E-001
  6.40000E-002	  3.20954E-001	  3.16137E-001	  3.22938E-001	  3.27076E-001
  7.04000E-002	  3.11133E-001	  3.14783E-001	  3.16417E-001	  3.12178E-001
  7.68000E-002	  2.98834E-001	  3.02174E-001	  3.04152E-001	  3.02722E-001
  8.32000E-002	  2.83263E-001	  2.88522E-001	  2.91875E-001	  2.85056E-001
  8.96000E-002	  2.78836E-001	  2.73212E-001	  2.85239E-001	  2.79458E-001
  9.60000E-002	  2.67445E-001	  2.57861E-001	  2.74756E-001	  2.71531E-001
  1.02400E-001	  2.53953E-001	  2.52386E-001	  2.62591E-001	  2.60903E-001
  1.15200E-001	  2.36455E-001	  2.31523E-001	  2.46583E-001	  2.42609E-001
  1.28000E-001	  2.16002E-001	  2.16974E-001	  2.35093E-001	  2.28800E-001
  1.40800E-001	  2.00872E-001	  2.01203E-001	  2.17308E-001	  2.08724E-001
  1.53600E-001	  1.92100E-001	  1.90706E-001	  2.01615E-001	  1.98763E-001
  1.66400E-001	  1.77577E-001	  1.78833E-001	  1.87567E-001	  1.85817E-001
  1.79200E-001	  1.66697E-001	  1.66963E-001	  1.73240E-001	  1.71753E-001
  1.92000E-001	  1.51679E-001	  1.57693E-001	  1.64771E-001	  1.59421E-001
  2.04800E-001	  1.42226E-001	  1.45969E-001	  1.56228E-001	  1.52339E-001
  2.30400E-001	  1.31192E-001	  1.32301E-001	  1.41846E-001	  1.34579E-001
  2.56000E-001	  1.16736E-001	  1.18248E-001	  1.27519E-001	  1.18859E-001
  2.81600E-001	  1.03709E-001	  1.02550E-001	  1.16309E-001	  1.09484E-001
  3.07200E-001	  9.30753E-002	  9.17411E-002	  1.02164E-001	  9.53728E-002
  3.32800E-001	  7.87787E-002	  7.68015E-002	  8.87580E-002	  8.62474E-002
  3.58400E-001	  7.13293E-002	  6.87464E-002	  7.95937E-002	  7.76211E-002
  3.84000E-001	  6.53872E-002	  5.86473E-002	  7.34052E-002	  7.39387E-002
  4.09600E-001	  6.34280E-002	  5.63824E-002	  6.70737E-002	  6.98593E-002
  4.60800E-001	  5.33970E-002	  4.78099E-002	  5.85678E-002	  6.00629E-002
  5.12000E-001	  4.46674E-002	  3.89925E-002	  4.77403E-002	  5.16618E-002
  5.63200E-001	  3.70086E-002	  3.21295E-002	  4.02813E-002	  4.58081E-002
  6.14400E-001	  3.08110E-002	  3.40226E-002	  2.88024E-002	  4.29845E-002
  6.65600E-001	  2.32141E-002	  3.28682E-002	  2.08610E-002	  3.86745E-002
  7.16800E-001	  1.96636E-002	  3.04053E-002	  1.83461E-002	  3.23263E-002
  7.68000E-001	  1.65601E-002	  2.80075E-002	  1.22581E-002	  3.05379E-002
  8.19200E-001	  1.56290E-002	  2.34736E-002	  1.01886E-002	  2.78619E-002
  9.21600E-001	  1.31313E-002	  1.99570E-002	  1.03264E-002	  1.86960E-002
  1.02400E+000	  1.46985E-002	  1.63460E-002	  1.22890E-002	  1.38508E-002
  1.12640E+000	  1.32453E-002	  1.54528E-002	  1.06204E-002	  9.82105E-003
  1.22880E+000	  1.17325E-002	  9.74531E-003	  1.15089E-002	  9.06468E-003
  1.33120E+000	  1.03320E-002	  6.58001E-003	  1.31741E-002	  9.94715E-003
  1.43360E+000	  3.93537E-003	  6.44768E-003	  1.41008E-002	  9.80943E-003
  1.53600E+000	  4.45287E-003	  2.15549E-003	  1.35485E-002	  1.25641E-002
  1.63840E+000	  4.64138E-003	  1.36629E-003	  1.27592E-002	  8.64789E-003
  1.84320E+000	  9.41463E-004	 -5.67552E-003	  1.06586E-002	 -3.31033E-003
  2.04800E+000	 -5.47707E-003	 -5.06030E-003	  1.01601E-002	 -7.41917E-003
  2.25280E+000	 -5.42992E-004	  1.35266E-003	  7.42875E-003	  3.43102E-003
  2.45760E+000	  6.30208E-003	  3.17376E-003	  5.16581E-003	  4.84106E-004
  2.66240E+000	  2.00504E-003	  1.70036E-003	 -4.22953E-003	  4.55746E-003
  2.86720E+000	 -3.64704E-003	  7.01469E-004	 -7.52934E-003	  3.36078E-003
  3.07200E+000	 -3.57218E-003	  9.83126E-003	 -7.32950E-003	  3.68007E-003
  3.27680E+000	 -4.57140E-003	  9.23676E-003	 -3.26224E-003	 -3.88277E-003
  3.68640E+000	 -7.85562E-003	  6.74882E-003	 -5.91608E-003	 -1.16736E-002
  4.09600E+000	  1.63721E-003	  6.37688E-003	 -7.01532E-003	 -2.89516E-004
  4.50560E+000	  1.10452E-002	 -3.14583E-003	  1.60166E-003	 -2.22023E-003
  4.91520E+000	  3.04626E-003	 -7.99299E-004	 -1.98841E-003	 -1.12716E-002
  5.32480E+000	 -3.37116E-003	  3.98654E-003	  1.45546E-003	 -9.59206E-003
  5.73440E+000	  5.98665E-003	 -3.93702E-003	  5.14018E-003	 -5.33902E-003
  6.14400E+000	  8.48226E-004	 -3.48032E-003	 -2.32924E-003	  8.68759E-004
  6.55360E+000	 -3.45103E-003	  2.29388E-003	  8.74125E-003	  2.50694E-004
  7.37280E+000	 -1.84482E-003	 -1.63835E-003	  1.08477E-002	  5.79357E-003
  8.19200E+000	  3.04433E-003	 -4.51417E-003	  1.22192E-002	 -1.06704E-004
  9.01120E+000	  1.92301E-003	  5.60541E-004	 -9.77833E-004	  1.45920E-003
  9.83040E+000	  2.96982E-003	 -6.92809E-004	 -1.89833E-003	 -3.25173E-003
  1.06496E+001	  6.99633E-004	  1.25436E-003	  1.74550E-003	  1.53046E-003
  1.14688E+001	 -2.28294E-004	  5.33663E-003	  6.76266E-003	  1.54347E-003
  1.22880E+001	  3.45276E-003	  3.62306E-003	  1.01684E-002	  2.30238E-004
  1.31072E+001	 -2.66894E-003	 -4.83631E-003	  9.73101E-003	  5.37200E-003
  1.47456E+001	  2.09365E-003	  3.57123E-003	 -5.59767E-003	  7.29502E-003
  1.63840E+001	  7.41933E-003	  1.66662E-003	 -3.48151E-003	 -1.43036E-003
  1.80224E+001	 -5.38315E-003	 -5.29687E-003	 -1.62926E-003	  2.72942E-003
  1.96608E+001	 -1.89365E-003	 -4.93194E-003	  8.73337E-004	  1.93139E-003
  2.12992E+001	  4.54129E-003	 -2.10029E-003	 -3.59374E-003	 -7.75135E-003
  2.29376E+001	 -2.99035E-003	 -5.38210E-004	 -7.25329E-003	 -8.41688E-003
  2.45760E+001	 -2.52257E-003	 -3.03613E-003	 -5.54225E-004	 -1.34254E-003
  2.62144E+001	 -2.76676E-004	  1.76527E-003	 -7.53873E-003	  1.03054E-003
  2.94912E+001	  2.05603E-003	 -2.36499E-003	 -6.60724E-003	  9.72392E-003
  3.27680E+001	  2.90928E-003	 -6.67537E-003	  1.37845E-003	 -2.99428E-003
  3.60448E+001	  5.66849E-003	 -3.69685E-003	 -1.75974E-003	 -4.52835E-003
  3.93216E+001	 -2.57430E-003	 -4.11936E-004	 -2.58896E-003	  1.80650E-003
  4.25984E+001	 -1.13634E-003	  3.26952E-003	 -3.34681E-003	 -1.92796E-003
  4.58752E+001	  4.29408E-003	 -3.47718E-003	 -2.70827E-003	  4.32659E-004
  4.91520E+001	 -2.33181E-003	  1.21662E-003	 -1.42464E-003	 -6.47053E-003
  5.24288E+001	 -3.73116E-003	  3.06639E-003	 -1.51522E-006	 -3.90260E-003
  5.89824E+001	  8.13533E-004	  1.37213E-003	 -2.44292E-003	 -1.60195E-003
  6.55360E+001	 -6.90269E-003	  3.90562E-003	  8.12057E-004	 -2.53455E-003
  7.20896E+001	  2.68870E-003	  6.07986E-003	  2.35319E-003	  3.60891E-004
  7.86432E+001	  3.23452E-003	 -5.92001E-004	 -2.68697E-003	 -2.06523E-003
  8.51968E+001	 -1.38302E-003	 -1.59781E-003	  3.98770E-004	 -3.17894E-003
  9.17504E+001	 -4.04630E-003	  1.66130E-003	 -7.18466E-004	  7.90279E-004
  9.83040E+001	 -3.05731E-003	 -2.20947E-003	 -3.03551E-003	 -2.29671E-003
  1.04858E+002	 -7.99814E-004	 -5.74184E-003	 -2.09468E-003	  9.06869E-004
  1.17965E+002	 -2.14178E-003	  3.07138E-004	 -7.20335E-004	 -3.59800E-004
  1.31072E+002	 -1.82478E-003	  6.14569E-004	  1.74402E-003	 -6.60908E-004
  1.44179E+002	 -4.70663E-004	  2.97502E-003	  3.13035E-003	 -5.44464E-003
  1.57286E+002	  4.02599E-003	 -2.14998E-003	 -3.30114E-003	 -2.12037E-003
  1.70394E+002	 -2.06925E-004	 -3.27874E-003	 -2.29872E-003	 -1.03377E-003
  1.83501E+002	 -1.53739E-004	 -3.14513E-003	 -1.63682E-003	  2.04996E-003
  1.96608E+002	  9.60843E-004	  2.44743E-003	 -3.88593E-003	  2.13436E-003
  2.09715E+002	  6.94296E-004	  3.63471E-003	 -2.19048E-003	  4.15061E-003
  2.35930E+002	 -8.42836E-004	 -1.53447E-003	  1.51374E-003	  2.18084E-003
  2.62144E+002	 -1.97192E-004	 -7.40382E-005	 -2.49691E-004	 -2.25892E-003
  2.88358E+002	 -8.21996E-004	  2.38696E-003	 -2.68628E-003	 -2.33449E-003
  3.14573E+002	 -1.33955E-003	 -1.63254E-003	  9.93461E-004	  1.48523E-003
  3.40787E+002	  1.90594E-003	  2.21773E-003	  2.73217E-004	  1.33027E-003
  3.67002E+002	  1.81486E-003	 -1.02459E-004	  5.42863E-003	 -4.82121E-004
  3.93216E+002	 -3.80811E-004	 -1.10332E-003	 -3.17595E-003	 -8.00453E-005

"Count Rate"
       0.01311	     117.72156	     159.07288	     125.65613	     145.87402
       0.02621	     113.14392	     153.27454	     146.94214	     147.47620
       0.03932	     184.40247	     133.20923	     127.10571	     137.78687
       0.05243	     182.64771	     159.68323	     115.66162	     196.22803
       0.06554	     154.95300	     140.07568	     150.45166	     133.59070
       0.07864	     137.78687	     135.95581	     155.48706	     124.43542
       0.09175	     172.80579	     138.77869	     149.53613	     138.01575
       0.10486	     166.01563	     131.91223	     140.45715	     145.11108
       0.11796	     147.55249	     139.00757	     152.28271	     142.21191
       0.13107	     123.13843	     133.89587	     165.86304	     145.72144
       0.14418	     133.74329	     143.96667	     127.56348	     135.95581
       0.15729	     136.79504	     133.20923	     145.87402	     139.23645
       0.17039	     125.57983	     133.13293	     156.47888	     169.37256
       0.18350	     167.31262	     173.87390	     113.06763	     131.45447
       0.19661	     163.11646	     154.34265	     137.02393	     170.89844
       0.20972	     143.58521	     144.50073	     182.34253	     155.48706
       0.22282	     148.16284	     130.31006	     149.00208	     153.80859
       0.23593	     154.26636	     158.99658	     112.15210	     144.34814
       0.24904	     169.90662	     171.20361	     147.24731	     130.15747
       0.26214	     188.59863	     122.37549	     134.73511	     121.07849
       0.27525	     136.94763	     177.84119	     140.30457	     138.85498
       0.28836	     137.86316	     142.89856	     121.45996	     149.61243
       0.30147	     143.28003	     166.39709	     177.91748	     122.07031
       0.31457	     146.33179	     150.37537	     138.32092	     153.27454
       0.32768	     129.85229	     153.04565	     132.29370	     166.39709
       0.34079	     138.47351	     133.51440	     149.00208	     136.10840
       0.35389	     146.33179	     158.08105	     139.54163	     144.19556
       0.36700	     160.98022	     168.07556	     153.96118	     130.69153
       0.38011	     128.86047	     146.48438	     156.09741	     139.69421
       0.39322	     135.04028	     145.03479	     119.24744	     137.55798
       0.40632	     163.19275	     118.48450	     147.47620	     135.57434
       0.41943	     149.30725	     192.33704	     156.17371	     129.08936
       0.43254	     138.93127	     150.75684	     172.50061	     146.48438
       0.44564	     165.78674	     160.82764	     165.10010	     148.46802
       0.45875	     144.88220	     135.57434	     141.83044	     136.18469
       0.47186	     152.43530	     134.65881	     151.29089	     126.41907
       0.48497	     148.08655	     132.14111	     150.37537	     126.19019
       0.49807	     128.47900	     197.29614	     149.30725	     136.94763
       0.51118	     142.36450	     156.40259	     152.51160	     195.54138
       0.52429	     151.82495	     130.08118	     136.64246	     181.27441
       0.53740	     137.40540	     112.60986	     118.33191	     168.22815
       0.55050	     149.45984	     161.28540	     164.18457	     162.12463
       0.56361	     132.06482	     157.85217	     198.28796	     153.57971
       0.57672	     137.25281	     159.91211	     135.80322	     112.53357
       0.58982	     129.47083	     145.56885	     131.91223	     158.15735
       0.60293	     186.99646	     151.44348	     101.39465	     134.65881
       0.61604	     155.18188	     173.41614	     123.13843	     157.31812
       0.62915	     136.71875	     156.17371	     189.59045	     135.04028
       0.64225	     116.50085	     152.96936	     127.18201	     156.93665
       0.65536	     133.13293	     197.75391	     152.66418	     132.06482
       0.66847	     101.24207	     140.45715	     128.40271	     104.67529
       0.68157	     177.45972	     114.89868	     138.16833	     123.59619
       0.69468	     143.43262	     173.72131	     158.84399	     142.36450
       0.70779	     128.55530	     156.09741	     144.88220	     130.99670
       0.72090	     149.38354	     184.86023	     131.14929	     152.13013
       0.73400	     130.69153	     117.87415	     137.10022	     152.20642
       0.74711	     135.42175	     158.76770	     133.13293	     180.05371
