ALV-7004/USB-FAST
Date :	"3/14/2024"
Time :	"12:33:24 PM"
Samplename : 	""
SampMemo(0) : 	""
SampMemo(1) : 	""
SampMemo(2) : 	""
SampMemo(3) : 	""
SampMemo(4) : 	""
SampMemo(5) : 	""
SampMemo(6) : 	""
SampMemo(7) : 	""
SampMemo(8) : 	""
SampMemo(9) : 	""
Temperature [K] :	     298.16000
Viscosity [cp]  :	       0.89000
Refractive Index:	       1.33200
Wavelength [nm] :	       0.00000
Angle [°]       :	       0.00000
Duration [s]    :	         1
FloatDur [ms]   :	          944
Stop TP [ms]   :	      3262
Runs            :	         1
Mode            :	"A-CH0+1  A-CH2+3 "
MeanCR0 [kHz]   :	     124.09634
MeanCR1 [kHz]   :	     122.85233
MeanCR2 [kHz]   :	     117.82434
MeanCR3 [kHz]   :	     121.49811

"Correlation"
  3.12500E-006	 -1.00000E+000	 -1.00000E+000	 -1.00000E+000	 -1.00000E+000
  6.25000E-006	 -1.00000E+000	 -1.00000E+000	 -1.00000E+000	 -1.00000E+000
  9.37500E-006	 -1.00000E+000	 -1.00000E+000	 -1.00000E+000	 -1.00000E+000
  1.25000E-005	 -1.00000E+000	 -1.00000E+000	 -1.00000E+000	 -1.00000E+000
  1.56250E-005	 -1.00000E+000	 -1.00000E+000	 -1.00000E+000	 -1.00000E+000
  1.87500E-005	 -1.00000E+000	 -1.00000E+000	 -1.00000E+000	 -1.00000E+000
  2.18750E-005	 -8.89907E-001	 -1.68729E-001	 -4.13796E-001	 -9.77030E-001
  2.50000E-005	  5.89182E+000	  5.82990E+000	  6.01002E+000	  1.11284E+001
  2.81250E-005	  1.44406E+000	  1.15681E+000	  1.51579E+000	  5.15607E+000
  3.12500E-005	  1.17984E+000	  5.95141E-001	  8.31887E-001	  2.19289E+000
  3.43750E-005	  8.71580E-001	  6.40075E-001	  6.12061E-001	  2.42259E+000
  3.75000E-005	  8.71580E-001	  8.87209E-001	  9.05163E-001	  1.80239E+000
  4.06250E-005	  6.29376E-001	  7.29942E-001	  5.87636E-001	  1.68754E+000
  4.37500E-005	  9.15618E-001	  6.40075E-001	  1.07614E+000	  1.59565E+000
  4.68750E-005	  5.19283E-001	  5.72674E-001	  3.67809E-001	  1.22813E+000
  5.00000E-005	  7.72497E-001	  4.82807E-001	  5.02147E-001	  1.28555E+000
  5.62500E-005	  6.29376E-001	  6.28841E-001	  4.89935E-001	  9.40998E-001
  6.25000E-005	  5.96348E-001	  3.92940E-001	  5.63210E-001	  9.06543E-001
  6.87500E-005	  8.27543E-001	  6.06374E-001	  4.28872E-001	  8.03176E-001
  7.50000E-005	  6.40385E-001	  5.72674E-001	  7.70824E-001	  7.45750E-001
  8.12500E-005	  6.40385E-001	  4.49107E-001	  6.73124E-001	  9.29513E-001
  8.75000E-005	  5.19283E-001	  3.36773E-001	  5.87636E-001	  8.60602E-001
  9.37500E-005	  6.29376E-001	  6.06374E-001	  3.92234E-001	  8.95058E-001
  1.00000E-004	  6.23871E-001	  4.71574E-001	  5.75423E-001	  7.91691E-001
  1.12500E-004	  4.42218E-001	  4.43490E-001	  4.71616E-001	  6.99809E-001
  1.25000E-004	  6.51394E-001	  4.88424E-001	  4.28872E-001	  5.56244E-001
  1.37500E-004	  5.46806E-001	  5.27741E-001	  5.20466E-001	  3.20798E-001
  1.50000E-004	  5.19283E-001	  5.95141E-001	  8.44100E-001	  7.05552E-001
  1.62500E-004	  5.02769E-001	  4.21023E-001	  5.50998E-001	  4.64363E-001
  1.75000E-004	  6.73413E-001	  2.97456E-001	  6.73123E-001	  6.07928E-001
  1.87500E-004	  5.24787E-001	  5.38974E-001	  5.02147E-001	  7.34265E-001
  2.00000E-004	  5.44053E-001	  4.65957E-001	  5.26572E-001	  4.58620E-001
  2.25000E-004	  5.00016E-001	  4.96848E-001	  4.50244E-001	  5.73472E-001
  2.50000E-004	  4.75245E-001	  5.24932E-001	  5.38785E-001	  3.63867E-001
  2.75000E-004	  5.49558E-001	  3.76090E-001	  4.31925E-001	  4.75847E-001
  3.00000E-004	  5.11025E-001	  4.91232E-001	  4.80775E-001	  6.13670E-001
  3.25000E-004	  6.07357E-001	  5.55824E-001	  4.86881E-001	  5.36145E-001
  3.50000E-004	  5.27539E-001	  4.94040E-001	  5.60157E-001	  5.44759E-001
  3.75000E-004	  6.01852E-001	  5.08082E-001	  6.02901E-001	  5.70600E-001
  4.00000E-004	  5.23410E-001	  4.96848E-001	  5.37257E-001	  4.77282E-001
  4.50000E-004	  5.66071E-001	  4.29448E-001	  5.35731E-001	  5.82085E-001
  5.00000E-004	  5.60567E-001	  4.37885E-001	  4.09026E-001	  4.93075E-001
  5.50000E-004	  5.24786E-001	  4.11205E-001	  4.97567E-001	  5.14609E-001
  6.00000E-004	  4.66988E-001	  3.55038E-001	  4.73142E-001	  4.88768E-001
  6.50000E-004	  5.12401E-001	  4.35077E-001	  5.37257E-001	  4.97382E-001
  7.00000E-004	  4.82125E-001	  4.88436E-001	  4.76195E-001	  5.44758E-001
  7.50000E-004	  4.94511E-001	  5.22136E-001	  4.45663E-001	  4.78718E-001
  8.00000E-004	  4.69739E-001	  5.20028E-001	  4.51005E-001	  5.29682E-001
  9.00000E-004	  5.68822E-001	  4.68776E-001	  4.83826E-001	  5.53371E-001
  1.00000E-003	  5.20657E-001	  4.56840E-001	  4.72377E-001	  4.62925E-001
  1.10000E-003	  4.75931E-001	  4.58244E-001	  4.55585E-001	  4.97380E-001
  1.20000E-003	  5.33042E-001	  4.61053E-001	  4.47189E-001	  5.14621E-001
  1.30000E-003	  5.06895E-001	  5.01072E-001	  5.47942E-001	  5.44770E-001
  1.40000E-003	  4.36711E-001	  4.53330E-001	  4.74667E-001	  5.30414E-001
  1.50000E-003	  5.44051E-001	  4.58244E-001	  4.45662E-001	  4.32071E-001
  1.60000E-003	  5.01732E-001	  4.57540E-001	  4.75046E-001	  4.99544E-001
  1.80000E-003	  5.22374E-001	  4.81060E-001	  4.59399E-001	  5.22874E-001
  2.00000E-003	  5.21686E-001	  4.81762E-001	  4.53674E-001	  5.39025E-001
  2.20000E-003	  5.06893E-001	  4.54029E-001	  4.81152E-001	  5.01698E-001
  2.40000E-003	  5.07581E-001	  4.72986E-001	  4.78099E-001	  5.15695E-001
  2.60000E-003	  5.12053E-001	  4.64210E-001	  4.58635E-001	  4.84111E-001
  2.80000E-003	  5.27879E-001	  4.54380E-001	  4.84205E-001	  5.12106E-001
  3.00000E-003	  4.87282E-001	  4.50870E-001	  4.79626E-001	  5.38666E-001
  3.20000E-003	  4.97426E-001	  4.69132E-001	  4.48912E-001	  5.22523E-001
  3.60000E-003	  5.29766E-001	  4.49824E-001	  4.67994E-001	  5.23061E-001
  4.00000E-003	  5.17725E-001	  4.86158E-001	  4.87076E-001	  5.29342E-001
  4.40000E-003	  4.65259E-001	  4.54739E-001	  4.79443E-001	  5.02783E-001
  4.80000E-003	  5.09468E-001	  4.67903E-001	  4.72383E-001	  4.85196E-001
  5.20000E-003	  4.69731E-001	  4.71589E-001	  4.76772E-001	  5.21267E-001
  5.60000E-003	  5.10500E-001	  4.60005E-001	  4.78107E-001	  4.85555E-001
  6.00000E-003	  5.22369E-001	  4.73696E-001	  4.56735E-001	  4.81786E-001
  6.40000E-003	  5.04912E-001	  4.61688E-001	  4.72195E-001	  5.10233E-001
  7.20000E-003	  5.26930E-001	  4.64132E-001	  4.74758E-001	  5.04324E-001
  8.00000E-003	  5.05355E-001	  4.48511E-001	  4.66744E-001	  4.98671E-001
  8.80000E-003	  4.99691E-001	  4.62026E-001	  4.71132E-001	  5.05683E-001
  9.60000E-003	  5.02099E-001	  4.50705E-001	  4.69428E-001	  5.04503E-001
  1.04000E-002	  4.74748E-001	  4.54917E-001	  4.59601E-001	  4.92121E-001
  1.12000E-002	  4.80682E-001	  4.64045E-001	  4.68188E-001	  4.89339E-001
  1.20000E-002	  4.82575E-001	  4.55005E-001	  4.55117E-001	  5.05132E-001
  1.28000E-002	  4.89332E-001	  4.63843E-001	  4.67765E-001	  4.86563E-001
  1.44000E-002	  4.94492E-001	  4.39984E-001	  4.73789E-001	  4.99049E-001
  1.60000E-002	  4.93546E-001	  4.61123E-001	  4.66898E-001	  4.93409E-001
  1.76000E-002	  4.84502E-001	  4.35991E-001	  4.60983E-001	  5.01844E-001
  1.92000E-002	  4.78697E-001	  4.56352E-001	  4.70489E-001	  4.83269E-001
  2.08000E-002	  4.95727E-001	  4.36988E-001	  4.51059E-001	  4.87442E-001
  2.24000E-002	  4.79170E-001	  4.45896E-001	  4.60614E-001	  4.72892E-001
  2.40000E-002	  4.94996E-001	  4.43570E-001	  4.54841E-001	  4.82045E-001
  2.56000E-002	  4.77751E-001	  4.32669E-001	  4.50287E-001	  4.78865E-001
  2.88000E-002	  4.81772E-001	  4.43311E-001	  4.41604E-001	  4.82880E-001
  3.20000E-002	  4.63451E-001	  4.23673E-001	  4.40436E-001	  4.61322E-001
  3.52000E-002	  4.59589E-001	  4.20062E-001	  4.43597E-001	  4.69958E-001
  3.84000E-002	  4.62255E-001	  4.24319E-001	  4.39863E-001	  4.63857E-001
  4.16000E-002	  4.54643E-001	  4.17551E-001	  4.26828E-001	  4.63991E-001
  4.48000E-002	  4.56996E-001	  4.22532E-001	  4.33555E-001	  4.69218E-001
  4.80000E-002	  4.72027E-001	  4.18483E-001	  4.36048E-001	  4.56229E-001
  5.12000E-002	  4.63464E-001	  4.08098E-001	  4.21376E-001	  4.48372E-001
  5.76000E-002	  4.48998E-001	  3.95502E-001	  4.08579E-001	  4.44214E-001
  6.40000E-002	  4.42277E-001	  3.99682E-001	  4.06874E-001	  4.51409E-001
  7.04000E-002	  4.44274E-001	  3.90619E-001	  3.95315E-001	  4.28647E-001
  7.68000E-002	  4.32531E-001	  3.95896E-001	  3.98022E-001	  4.33550E-001
  8.32000E-002	  4.16843E-001	  3.80152E-001	  3.89341E-001	  4.19978E-001
  8.96000E-002	  4.23499E-001	  3.78363E-001	  3.90223E-001	  4.07483E-001
  9.60000E-002	  4.07627E-001	  3.76486E-001	  3.73689E-001	  4.07563E-001
  1.02400E-001	  4.07779E-001	  3.67148E-001	  3.71586E-001	  3.99509E-001
  1.15200E-001	  3.94995E-001	  3.57881E-001	  3.58484E-001	  3.92914E-001
  1.28000E-001	  3.76804E-001	  3.48615E-001	  3.51587E-001	  3.74606E-001
  1.40800E-001	  3.79182E-001	  3.31011E-001	  3.36070E-001	  3.70508E-001
  1.53600E-001	  3.56010E-001	  3.28576E-001	  3.26298E-001	  3.58549E-001
  1.66400E-001	  3.53113E-001	  3.14114E-001	  3.14020E-001	  3.49479E-001
  1.79200E-001	  3.37843E-001	  3.05155E-001	  3.03645E-001	  3.30543E-001
  1.92000E-001	  3.27726E-001	  2.99966E-001	  3.00065E-001	  3.26090E-001
  2.04800E-001	  3.19437E-001	  2.89697E-001	  2.88336E-001	  3.17864E-001
  2.30400E-001	  2.96763E-001	  2.74570E-001	  2.71238E-001	  2.97864E-001
  2.56000E-001	  2.77265E-001	  2.58380E-001	  2.56079E-001	  2.84465E-001
  2.81600E-001	  2.56453E-001	  2.42673E-001	  2.37962E-001	  2.64737E-001
  3.07200E-001	  2.39477E-001	  2.32924E-001	  2.19963E-001	  2.51012E-001
  3.32800E-001	  2.27235E-001	  2.14067E-001	  2.11023E-001	  2.38721E-001
  3.58400E-001	  2.10324E-001	  2.06861E-001	  1.93001E-001	  2.27748E-001
  3.84000E-001	  1.93735E-001	  1.94155E-001	  1.80502E-001	  2.15285E-001
  4.09600E-001	  1.81355E-001	  1.83934E-001	  1.69585E-001	  2.03577E-001
  4.60800E-001	  1.53780E-001	  1.65639E-001	  1.47205E-001	  1.79655E-001
  5.12000E-001	  1.32729E-001	  1.48101E-001	  1.30516E-001	  1.60829E-001
  5.63200E-001	  1.15789E-001	  1.30139E-001	  1.20227E-001	  1.39756E-001
  6.14400E-001	  1.05180E-001	  1.17602E-001	  1.07585E-001	  1.21121E-001
  6.65600E-001	  9.12069E-002	  1.05902E-001	  9.38302E-002	  1.10595E-001
  7.16800E-001	  8.14424E-002	  9.27985E-002	  8.16512E-002	  1.00448E-001
  7.68000E-001	  7.80838E-002	  8.49220E-002	  6.86952E-002	  8.94847E-002
  8.19200E-001	  7.27763E-002	  7.42732E-002	  6.49740E-002	  7.62799E-002
  9.21600E-001	  6.39772E-002	  6.17560E-002	  5.07751E-002	  5.44431E-002
  1.02400E+000	  6.00570E-002	  5.10245E-002	  4.53266E-002	  3.86971E-002
  1.12640E+000	  5.28239E-002	  4.32690E-002	  3.96096E-002	  2.24260E-002
  1.22880E+000	  3.97905E-002	  3.43474E-002	  3.46042E-002	  1.33329E-002
  1.33120E+000	  2.88331E-002	  2.77591E-002	  3.46411E-002	  6.45544E-004
  1.43360E+000	  2.00251E-002	  1.98814E-002	  3.04185E-002	 -4.77580E-003
  1.53600E+000	  1.32050E-002	  1.14966E-002	  2.44879E-002	 -8.61935E-003
  1.63840E+000	  1.30580E-002	  4.61438E-003	  2.07427E-002	 -5.49123E-003
  1.84320E+000	  9.67031E-003	 -5.30612E-003	  9.92312E-003	 -7.04716E-003
  2.04800E+000	  7.45741E-003	 -1.19087E-002	  4.88310E-003	 -1.26115E-002
  2.25280E+000	  8.80056E-003	 -1.54183E-002	  6.81135E-004	 -1.70192E-002
  2.45760E+000	  4.43310E-003	 -1.38214E-002	 -2.02121E-003	 -1.85251E-002
  2.66240E+000	 -4.01379E-003	 -1.20921E-002	 -7.00595E-003	 -1.44960E-002
  2.86720E+000	 -8.13093E-003	 -1.05332E-002	 -7.43717E-003	 -1.18450E-002
  3.07200E+000	 -1.21447E-002	 -9.58098E-003	 -1.13842E-002	 -1.24821E-002
  3.27680E+000	 -8.82222E-003	 -5.60413E-003	 -3.22298E-003	 -1.37572E-002
  3.68640E+000	 -9.52624E-003	 -6.01092E-003	  3.79530E-003	 -2.12160E-002
  4.09600E+000	 -1.24270E-002	 -8.80100E-003	  6.01709E-003	 -1.32248E-002
  4.50560E+000	 -6.37471E-003	 -1.24629E-002	  6.12700E-003	 -1.73736E-003
  4.91520E+000	 -2.21260E-003	 -1.22279E-002	  1.10184E-002	  8.88436E-005
  5.32480E+000	  5.24458E-003	  6.46818E-003	  1.27562E-002	 -5.17822E-003
  5.73440E+000	  1.02433E-002	  1.81266E-002	  7.29311E-003	 -4.39886E-003
  6.14400E+000	  9.87967E-003	  1.65171E-002	  8.09818E-003	 -3.30023E-003
  6.55360E+000	  6.00606E-003	  9.21640E-003	  4.64158E-003	 -1.26875E-002
  7.37280E+000	 -1.41702E-002	 -2.60066E-003	 -5.23696E-003	 -5.70249E-004
  8.19200E+000	 -3.66282E-003	 -5.46892E-003	 -1.22333E-003	  1.61151E-002
  9.01120E+000	 -1.20953E-002	  1.12301E-002	 -1.31285E-002	  1.02379E-002
  9.83040E+000	 -6.95338E-003	  1.81109E-002	 -2.03640E-002	  2.50771E-002
  1.06496E+001	  1.22374E-002	  1.89848E-003	 -1.47581E-002	  9.22960E-003
  1.14688E+001	  7.92363E-004	 -2.22405E-005	 -5.44984E-003	  8.81888E-003
  1.22880E+001	  7.33225E-003	 -1.13254E-003	  3.51619E-003	  1.19387E-002
  1.31072E+001	 -1.70581E-003	  1.48409E-003	 -5.06277E-003	  7.06469E-003
  1.47456E+001	 -6.38834E-003	 -1.96203E-002	 -6.55743E-003	  2.92638E-003
  1.63840E+001	  3.79077E-003	 -1.85019E-002	 -2.22977E-003	  4.50656E-003
  1.80224E+001	  1.00389E-002	  2.45674E-003	  2.14492E-003	  3.81689E-003
  1.96608E+001	  1.94854E-004	  9.06726E-003	  2.53678E-003	  3.52288E-003
  2.12992E+001	  4.48727E-004	  4.19512E-003	 -1.32955E-002	 -4.58290E-003
  2.29376E+001	 -1.54604E-002	  1.63919E-003	 -2.81188E-003	 -7.80247E-003
  2.45760E+001	 -1.17368E-002	 -1.63015E-002	 -3.92715E-003	 -5.22854E-003
  2.62144E+001	 -3.88860E-003	 -6.88985E-003	  1.19919E-003	 -1.31074E-002
  2.94912E+001	  1.70422E-002	  1.13076E-002	 -2.70015E-003	  5.63821E-003
  3.27680E+001	  3.16722E-003	  3.39186E-004	  6.98836E-003	 -1.17497E-002
  3.60448E+001	 -7.46055E-003	 -7.54914E-003	  3.54213E-003	  1.85917E-003
  3.93216E+001	  8.30749E-003	  1.18333E-003	  5.15695E-003	 -1.03574E-002
  4.25984E+001	  4.96168E-003	  3.85793E-003	  5.10502E-003	 -2.03479E-003
  4.58752E+001	  4.83248E-003	 -1.61313E-002	  1.50549E-003	  1.51027E-002
  4.91520E+001	  9.22952E-003	  4.25280E-003	 -4.54921E-003	 -6.82217E-003
  5.24288E+001	 -2.71183E-003	  4.39084E-003	 -3.57675E-003	  7.16756E-004
  5.89824E+001	  9.14489E-003	  5.38418E-003	 -1.38176E-003	  4.68877E-003
  6.55360E+001	  3.33669E-003	 -8.32303E-003	 -3.17712E-003	  5.08246E-003
  7.20896E+001	 -4.97332E-003	  1.17528E-004	  3.32537E-003	 -2.64633E-004
  7.86432E+001	 -4.56998E-004	 -1.57848E-003	 -3.22783E-003	 -2.21275E-003
  8.51968E+001	 -1.27641E-003	 -5.75585E-003	 -9.23682E-004	 -4.79699E-003
  9.17504E+001	 -1.21256E-002	  4.53451E-003	 -7.53409E-003	 -3.00358E-003
  9.83040E+001	 -1.62172E-003	  1.35572E-003	  3.08716E-003	 -6.63391E-003
  1.04858E+002	 -1.76714E-004	 -5.78244E-003	 -6.60168E-003	 -2.14584E-003
  1.17965E+002	 -2.10410E-003	  5.60805E-003	 -4.50032E-003	 -3.49234E-003
  1.31072E+002	 -5.92855E-003	 -1.35428E-004	  3.77352E-003	 -3.27918E-003
  1.44179E+002	 -7.46297E-003	 -1.93451E-003	  2.98985E-003	 -3.09761E-003
  1.57286E+002	 -7.50754E-003	  1.64996E-003	  8.94725E-004	 -7.03332E-003
  1.70394E+002	  6.64263E-004	  3.39373E-003	  2.60681E-003	  1.27662E-003
  1.83501E+002	 -7.06692E-003	  7.93881E-004	  4.60101E-004	  5.31984E-003
  1.96608E+002	 -4.51516E-003	 -3.43423E-003	  1.25911E-003	  1.01131E-003
  2.09715E+002	 -3.09119E-004	 -2.20913E-003	 -3.55863E-003	 -4.58621E-003
  2.35930E+002	  3.93227E-003	 -3.86754E-003	 -5.20613E-004	 -3.51117E-003
  2.62144E+002	  3.31886E-003	 -1.78716E-003	 -9.26352E-004	  7.26510E-004
  2.88358E+002	  1.03955E-002	  1.56430E-003	 -1.23079E-004	 -4.99120E-004
  3.14573E+002	  3.31750E-003	  4.39864E-003	  2.13676E-003	 -1.90005E-003
  3.40787E+002	  2.34181E-003	  2.35729E-003	  2.90507E-003	 -2.43740E-003
  3.67002E+002	 -2.11751E-003	 -2.18460E-003	  1.95464E-003	  7.10116E-003
  3.93216E+002	 -6.45343E-003	  4.67098E-004	  5.55518E-006	  7.24072E-004

"Count Rate"
       0.01311	     110.85510	      97.27478	     119.93408	     129.92859
       0.02621	      96.81702	     110.62622	      87.58545	     135.80322
       0.03932	      74.69177	     126.87683	      88.80615	     142.44080
       0.05243	     168.99109	     149.61243	     136.03210	     114.74609
       0.06554	      91.62903	     115.73792	      98.80066	     112.76245
       0.07864	     100.09766	     123.21472	     130.23376	     124.35913
       0.09175	     119.55261	     177.84119	     110.01587	     126.41907
       0.10486	      94.75708	     125.42725	     127.86865	     106.27747
       0.11796	     141.98303	     141.90674	     159.60693	      99.18213
       0.13107	     113.98315	     109.25293	      91.93420	     108.64258
       0.14418	     194.39697	     134.88770	     111.69434	     129.69971
       0.15729	     143.35632	     138.39722	     133.43811	     104.14124
       0.17039	     145.56885	      97.65625	     101.92871	      81.25305
       0.18350	     125.96130	     141.37268	      89.03503	     104.59900
       0.19661	     119.55261	     127.33459	     120.31555	     148.92578
       0.20972	     125.19836	     124.81689	     113.52539	     133.28552
       0.22282	     147.24731	     110.32104	      98.64807	     133.43811
       0.23593	     105.89600	     136.56616	     133.36182	     120.84961
       0.24904	     123.82507	     125.50354	     107.65076	     105.89600
       0.26214	     134.81140	     137.48169	     123.36731	     138.85498
       0.27525	     125.88501	     109.86328	     118.17932	     139.08386
       0.28836	     112.60986	     102.84424	     117.41638	     128.70789
       0.30147	     107.11670	     119.62891	      89.87427	      89.79797
       0.31457	     119.70520	      93.07861	     100.55542	      97.04590
       0.32768	     109.71069	      90.10315	      95.90149	     117.34009
       0.34079	     108.87146	     118.33191	     102.69165	      99.48730
       0.35389	     116.50085	     118.25562	     126.03760	      98.03772
       0.36700	      95.59631	     161.74316	     116.27197	     130.23376
       0.38011	     120.39185	     110.93140	      69.58008	      97.96143
       0.39322	     115.28015	      97.80884	     109.78699	      91.32385
       0.40632	     128.93677	     107.49817	     103.45459	      93.76526
       0.41943	     118.33191	     136.79504	     159.14917	     101.69983
       0.43254	     137.93945	     133.81958	     152.43530	     127.41089
       0.44564	     141.37268	     123.29102	      85.22034	     125.35095
       0.45875	     128.09753	     111.69434	     127.86865	     162.50610
       0.47186	     136.48987	     108.10852	     122.29919	     156.32629
       0.48497	     102.38647	     119.32373	      85.52551	     112.38098
       0.49807	     137.86316	     108.26111	     173.56873	     116.88232
       0.51118	     139.23645	     115.12756	     118.40820	     132.37000
       0.52429	     133.43811	     111.69434	      93.53638	     126.57166
       0.53740	     100.25024	     179.36707	     119.93408	     129.08936
       0.55050	     116.80603	     141.52527	     126.19019	     108.94775
       0.56361	      95.13855	     107.80334	     126.80054	     113.83057
       0.57672	     166.77856	     153.73230	      92.16309	     144.11926
       0.58982	      84.07593	     113.60168	     161.51428	     112.15210
       0.60293	     104.75159	      94.83337	     122.37549	     106.73523
       0.61604	     113.83057	     124.58801	     110.16846	     122.52808
       0.62915	     114.44092	      79.49829	     127.86865	     150.75684
       0.64225	      94.22302	      93.07861	     118.78967	     136.94763
       0.65536	     104.21753	     109.55811	     117.79785	     130.84412
       0.66847	     123.74878	     132.44629	      94.98596	      84.91516
       0.68157	     128.63159	     121.84143	     105.20935	     114.28833
       0.69468	     123.13843	     113.44910	     106.65894	     110.62622
       0.70779	     112.38098	     134.20105	     106.96411	     112.76245
       0.72090	     149.15466	      86.89880	      99.18213	     103.22571
       0.73400	     145.33997	     151.13831	     155.79224	     118.78967
       0.74711	     119.93408	     118.71338	     107.72705	     106.35376
