ALV-7004/USB-FAST
Date :	"3/14/2024"
Time :	"12:36:24 PM"
Samplename : 	""
SampMemo(0) : 	""
SampMemo(1) : 	""
SampMemo(2) : 	""
SampMemo(3) : 	""
SampMemo(4) : 	""
SampMemo(5) : 	""
SampMemo(6) : 	""
SampMemo(7) : 	""
SampMemo(8) : 	""
SampMemo(9) : 	""
Temperature [K] :	     298.16000
Viscosity [cp]  :	       0.89000
Refractive Index:	       1.33200
Wavelength [nm] :	       0.00000
Angle [°]       :	       0.00000
Duration [s]    :	         1
FloatDur [ms]   :	          944
Stop TP [ms]   :	      3995
Runs            :	         1
Mode            :	"A-CH0+1  A-CH2+3 "
MeanCR0 [kHz]   :	     133.65639
MeanCR1 [kHz]   :	     134.60689
MeanCR2 [kHz]   :	     129.21863
MeanCR3 [kHz]   :	     134.48397

"Correlation"
  3.12500E-006	 -1.00000E+000	 -1.00000E+000	 -1.00000E+000	 -1.00000E+000
  6.25000E-006	 -1.00000E+000	 -1.00000E+000	 -1.00000E+000	 -1.00000E+000
  9.37500E-006	 -1.00000E+000	 -1.00000E+000	 -1.00000E+000	 -1.00000E+000
  1.25000E-005	 -1.00000E+000	 -1.00000E+000	 -1.00000E+000	 -1.00000E+000
  1.56250E-005	 -1.00000E+000	 -1.00000E+000	 -1.00000E+000	 -1.00000E+000
  1.87500E-005	 -1.00000E+000	 -1.00000E+000	 -1.00000E+000	 -1.00000E+000
  2.18750E-005	 -9.05093E-001	 -4.57286E-001	 -4.51696E-001	 -1.00000E+000
  2.50000E-005	  6.30784E+000	  5.02600E+000	  5.78272E+000	  9.51791E+000
  2.81250E-005	  1.31573E+000	  1.45157E+000	  1.27444E+000	  3.93085E+000
  3.12500E-005	  6.32400E-001	  6.46856E-001	  1.01045E+000	  2.20599E+000
  3.43750E-005	  5.94437E-001	  9.08856E-001	  6.24603E-001	  1.83102E+000
  3.75000E-005	  8.79158E-001	  7.77856E-001	  6.65218E-001	  1.68104E+000
  4.06250E-005	  7.84251E-001	  7.59142E-001	  8.07371E-001	  1.39981E+000
  4.37500E-005	  6.89344E-001	  6.84285E-001	  7.26141E-001	  1.39981E+000
  4.68750E-005	  8.60176E-001	  7.59142E-001	  6.04295E-001	  1.15608E+000
  5.00000E-005	  6.70362E-001	  6.00070E-001	  5.43373E-001	  1.08108E+000
  5.62500E-005	  1.02152E+000	  7.31070E-001	  2.59067E-001	  9.49844E-001
  6.25000E-005	  6.41890E-001	  7.12356E-001	  4.11374E-001	  7.90481E-001
  6.87500E-005	  9.55083E-001	  3.84856E-001	  6.95679E-001	  8.56101E-001
  7.50000E-005	  7.36797E-001	  4.31642E-001	  7.46448E-001	  8.27978E-001
  8.12500E-005	  5.84946E-001	  6.84284E-001	  5.43373E-001	  6.59242E-001
  8.75000E-005	  6.89344E-001	  1.78999E-001	  6.44910E-001	  8.84224E-001
  9.37500E-005	  5.09021E-001	  6.56213E-001	  5.23065E-001	  6.21745E-001
  1.00000E-004	  5.23256E-001	  6.09427E-001	  5.78911E-001	  6.35806E-001
  1.12500E-004	  5.89691E-001	  5.81356E-001	  3.65682E-001	  5.84248E-001
  1.25000E-004	  3.23952E-001	  4.22284E-001	  4.11374E-001	  5.18628E-001
  1.37500E-004	  4.28349E-001	  6.93641E-001	  5.38296E-001	  5.42064E-001
  1.50000E-004	  5.32747E-001	  5.81356E-001	  3.96143E-001	  6.63929E-001
  1.62500E-004	  4.90039E-001	  5.62642E-001	  5.94141E-001	  5.60812E-001
  1.75000E-004	  4.66312E-001	  5.34570E-001	  4.57066E-001	  6.40493E-001
  1.87500E-004	  5.75455E-001	  5.25213E-001	  3.75835E-001	  6.12371E-001
  2.00000E-004	  5.20883E-001	  4.64391E-001	  4.87527E-001	  4.81131E-001
  2.25000E-004	  5.80200E-001	  4.29302E-001	  4.03758E-001	  5.37376E-001
  2.50000E-004	  4.06995E-001	  4.94802E-001	  4.74834E-001	  4.41290E-001
  2.75000E-004	  5.89691E-001	  3.98891E-001	  5.33219E-001	  5.49094E-001
  3.00000E-004	  5.39865E-001	  5.13516E-001	  5.40834E-001	  4.85818E-001
  3.25000E-004	  5.44610E-001	  4.48016E-001	  4.79911E-001	  4.67069E-001
  3.50000E-004	  4.68685E-001	  5.29891E-001	  5.35757E-001	  5.49094E-001
  3.75000E-004	  5.23256E-001	  5.08838E-001	  4.79911E-001	  4.81131E-001
  4.00000E-004	  5.14951E-001	  5.05328E-001	  5.29410E-001	  5.01050E-001
  4.50000E-004	  5.05460E-001	  4.23453E-001	  4.46911E-001	  5.38547E-001
  5.00000E-004	  5.17324E-001	  4.35150E-001	  4.96410E-001	  4.62382E-001
  5.50000E-004	  4.80547E-001	  4.35150E-001	  4.87526E-001	  4.26056E-001
  6.00000E-004	  4.75802E-001	  5.06498E-001	  4.25334E-001	  5.45578E-001
  6.50000E-004	  4.67498E-001	  5.28721E-001	  5.44641E-001	  4.68241E-001
  7.00000E-004	  4.72243E-001	  4.77257E-001	  4.10103E-001	  4.55351E-001
  7.50000E-004	  5.22069E-001	  5.13516E-001	  4.98949E-001	  5.23314E-001
  8.00000E-004	  4.82326E-001	  4.60307E-001	  4.97044E-001	  5.09837E-001
  9.00000E-004	  4.98934E-001	  5.39258E-001	  4.47544E-001	  4.84644E-001
  1.00000E-003	  4.54447E-001	  4.64986E-001	  4.40564E-001	  5.12767E-001
  1.10000E-003	  5.09018E-001	  4.81946E-001	  4.79909E-001	  4.84058E-001
  1.20000E-003	  5.11391E-001	  4.74343E-001	  4.30410E-001	  4.57107E-001
  1.30000E-003	  5.28593E-001	  4.52704E-001	  4.53890E-001	  4.42460E-001
  1.40000E-003	  4.93596E-001	  4.96566E-001	  4.26602E-001	  4.21954E-001
  1.50000E-003	  5.27999E-001	  4.72588E-001	  4.62140E-001	  4.72926E-001
  1.60000E-003	  4.72536E-001	  4.57684E-001	  5.02118E-001	  5.15108E-001
  1.80000E-003	  4.95966E-001	  4.47450E-001	  5.14176E-001	  5.08956E-001
  2.00000E-003	  4.92407E-001	  4.62655E-001	  4.78003E-001	  5.04855E-001
  2.20000E-003	  4.53851E-001	  4.91008E-001	  4.49446E-001	  4.74096E-001
  2.40000E-003	  4.64528E-001	  4.92762E-001	  4.61821E-001	  4.55933E-001
  2.60000E-003	  4.81137E-001	  4.60597E-001	  4.72609E-001	  4.66479E-001
  2.80000E-003	  4.59190E-001	  4.18197E-001	  4.72926E-001	  4.89329E-001
  3.00000E-003	  4.50885E-001	  5.04751E-001	  4.32958E-001	  4.77318E-001
  3.20000E-003	  4.90919E-001	  4.87359E-001	  4.53419E-001	  4.74384E-001
  3.60000E-003	  4.87953E-001	  4.82388E-001	  4.69126E-001	  4.83172E-001
  4.00000E-003	  4.77128E-001	  4.70838E-001	  4.67222E-001	  5.05582E-001
  4.40000E-003	  4.74755E-001	  4.66013E-001	  4.51356E-001	  4.39230E-001
  4.80000E-003	  4.56515E-001	  4.80634E-001	  4.64207E-001	  4.78778E-001
  5.20000E-003	  4.88695E-001	  4.39257E-001	  4.74520E-001	  4.65888E-001
  5.60000E-003	  4.72531E-001	  4.88079E-001	  4.74361E-001	  4.79217E-001
  6.00000E-003	  4.69417E-001	  4.57083E-001	  4.42155E-001	  4.83318E-001
  6.40000E-003	  4.86386E-001	  4.57473E-001	  4.67303E-001	  4.79061E-001
  7.20000E-003	  4.73262E-001	  4.49213E-001	  4.63495E-001	  4.72323E-001
  8.00000E-003	  4.58137E-001	  4.65368E-001	  4.54928E-001	  4.63388E-001
  8.80000E-003	  4.75647E-001	  4.40221E-001	  4.68096E-001	  4.72982E-001
  9.60000E-003	  4.84470E-001	  4.71144E-001	  4.47392E-001	  4.61484E-001
  1.04000E-002	  4.63264E-001	  4.48189E-001	  4.67462E-001	  4.65585E-001
  1.12000E-002	  4.50734E-001	  4.56450E-001	  4.59450E-001	  4.73422E-001
  1.20000E-002	  4.47768E-001	  4.51760E-001	  4.69366E-001	  4.88655E-001
  1.28000E-002	  4.54829E-001	  4.57145E-001	  4.44790E-001	  4.74658E-001
  1.44000E-002	  4.46896E-001	  4.51980E-001	  4.47765E-001	  4.74743E-001
  1.60000E-002	  4.51863E-001	  4.55050E-001	  4.50661E-001	  4.63538E-001
  1.76000E-002	  4.56212E-001	  4.52846E-001	  4.60814E-001	  4.63293E-001
  1.92000E-002	  4.62786E-001	  4.36141E-001	  4.34609E-001	  4.48792E-001
  2.08000E-002	  4.50959E-001	  4.48898E-001	  4.35957E-001	  4.68713E-001
  2.24000E-002	  4.61488E-001	  4.23238E-001	  4.32149E-001	  4.56604E-001
  2.40000E-002	  4.43730E-001	  4.41588E-001	  4.27350E-001	  4.69933E-001
  2.56000E-002	  4.37464E-001	  4.45518E-001	  4.31209E-001	  4.53365E-001
  2.88000E-002	  4.40708E-001	  4.28868E-001	  4.27929E-001	  4.51094E-001
  3.20000E-002	  4.40467E-001	  4.31288E-001	  4.14343E-001	  4.30325E-001
  3.52000E-002	  4.28029E-001	  4.25754E-001	  4.17191E-001	  4.40377E-001
  3.84000E-002	  4.21968E-001	  4.26839E-001	  4.07493E-001	  4.35440E-001
  4.16000E-002	  4.19243E-001	  4.09136E-001	  4.05478E-001	  4.37985E-001
  4.48000E-002	  4.21004E-001	  4.00571E-001	  4.10060E-001	  4.27897E-001
  4.80000E-002	  4.15888E-001	  4.05195E-001	  3.95066E-001	  4.16875E-001
  5.12000E-002	  4.09628E-001	  3.94262E-001	  3.92039E-001	  4.15399E-001
  5.76000E-002	  4.03186E-001	  3.94454E-001	  3.86822E-001	  4.02795E-001
  6.40000E-002	  3.87684E-001	  3.78467E-001	  3.73206E-001	  3.95169E-001
  7.04000E-002	  3.79479E-001	  3.77442E-001	  3.65253E-001	  3.85859E-001
  7.68000E-002	  3.72528E-001	  3.65558E-001	  3.59135E-001	  3.80100E-001
  8.32000E-002	  3.67828E-001	  3.54533E-001	  3.50706E-001	  3.65619E-001
  8.96000E-002	  3.58748E-001	  3.47815E-001	  3.44026E-001	  3.61975E-001
  9.60000E-002	  3.52622E-001	  3.41031E-001	  3.33692E-001	  3.52667E-001
  1.02400E-001	  3.44866E-001	  3.36451E-001	  3.25903E-001	  3.51697E-001
  1.15200E-001	  3.27861E-001	  3.20019E-001	  3.11021E-001	  3.34597E-001
  1.28000E-001	  3.05985E-001	  3.06850E-001	  2.96793E-001	  3.21173E-001
  1.40800E-001	  2.99714E-001	  2.90893E-001	  2.85835E-001	  3.07531E-001
  1.53600E-001	  2.87029E-001	  2.82477E-001	  2.69202E-001	  2.96201E-001
  1.66400E-001	  2.73556E-001	  2.66451E-001	  2.56669E-001	  2.80116E-001
  1.79200E-001	  2.64416E-001	  2.57938E-001	  2.49384E-001	  2.71893E-001
  1.92000E-001	  2.49766E-001	  2.42783E-001	  2.33704E-001	  2.56724E-001
  2.04800E-001	  2.38673E-001	  2.34426E-001	  2.26611E-001	  2.49019E-001
  2.30400E-001	  2.23553E-001	  2.14768E-001	  2.08505E-001	  2.29215E-001
  2.56000E-001	  1.99334E-001	  1.96618E-001	  1.91257E-001	  2.12487E-001
  2.81600E-001	  1.85157E-001	  1.79344E-001	  1.72180E-001	  1.97707E-001
  3.07200E-001	  1.71029E-001	  1.65259E-001	  1.60481E-001	  1.79805E-001
  3.32800E-001	  1.57165E-001	  1.49171E-001	  1.49342E-001	  1.71197E-001
  3.58400E-001	  1.45093E-001	  1.36628E-001	  1.38566E-001	  1.51802E-001
  3.84000E-001	  1.35134E-001	  1.23898E-001	  1.30884E-001	  1.43254E-001
  4.09600E-001	  1.25757E-001	  1.17665E-001	  1.24322E-001	  1.27237E-001
  4.60800E-001	  1.06748E-001	  1.00965E-001	  1.10343E-001	  1.09247E-001
  5.12000E-001	  8.97861E-002	  8.80473E-002	  9.60455E-002	  9.34345E-002
  5.63200E-001	  7.74119E-002	  7.19514E-002	  8.71882E-002	  7.87953E-002
  6.14400E-001	  6.48248E-002	  6.64033E-002	  8.05044E-002	  7.27463E-002
  6.65600E-001	  5.67924E-002	  5.64738E-002	  7.07938E-002	  6.29557E-002
  7.16800E-001	  4.89970E-002	  4.84757E-002	  6.13408E-002	  5.40529E-002
  7.68000E-001	  4.04630E-002	  4.62311E-002	  5.64870E-002	  4.89590E-002
  8.19200E-001	  3.57256E-002	  4.27784E-002	  4.87232E-002	  4.51825E-002
  9.21600E-001	  2.45785E-002	  3.20847E-002	  4.19116E-002	  4.01274E-002
  1.02400E+000	  1.53527E-002	  2.51811E-002	  3.55311E-002	  4.18112E-002
  1.12640E+000	  1.29131E-002	  1.83826E-002	  3.32136E-002	  4.16720E-002
  1.22880E+000	  1.09124E-002	  1.68594E-002	  3.19711E-002	  4.25345E-002
  1.33120E+000	  8.87945E-003	  1.55680E-002	  2.88718E-002	  3.83865E-002
  1.43360E+000	  5.19815E-003	  1.43654E-002	  2.15666E-002	  3.39971E-002
  1.53600E+000	  2.69563E-003	  7.55122E-003	  2.31800E-002	  2.59159E-002
  1.63840E+000	 -1.46500E-003	  7.47135E-003	  1.92489E-002	  1.88768E-002
  1.84320E+000	 -5.35673E-003	  4.06322E-003	  1.78022E-002	  9.10293E-003
  2.04800E+000	  5.60512E-003	 -1.39133E-004	  2.15070E-002	  9.96993E-003
  2.25280E+000	  7.91662E-003	  2.65778E-003	  2.48464E-002	  9.85549E-003
  2.45760E+000	  5.77741E-003	  6.70762E-003	  2.32975E-002	  1.29284E-002
  2.66240E+000	  5.26210E-003	  1.01230E-002	  2.00998E-002	  1.28440E-002
  2.86720E+000	 -2.52022E-003	  1.45873E-002	  1.07843E-002	  1.60879E-002
  3.07200E+000	 -5.92552E-003	  1.25909E-002	  3.46012E-003	  8.09108E-003
  3.27680E+000	 -5.33836E-003	  7.42409E-003	  1.74312E-003	  3.78098E-003
  3.68640E+000	 -5.37282E-003	  6.85093E-003	  1.33388E-003	  4.03381E-003
  4.09600E+000	 -6.70022E-003	  8.86756E-003	 -5.69956E-004	  1.51406E-002
  4.50560E+000	 -4.41875E-003	  4.55699E-003	 -5.04587E-004	  1.07180E-002
  4.91520E+000	 -2.35199E-003	  1.10346E-002	  1.81258E-004	  9.09761E-003
  5.32480E+000	 -7.28359E-003	  1.60403E-002	 -4.99362E-003	  1.13859E-002
  5.73440E+000	 -2.36493E-003	  1.70422E-002	 -1.00992E-002	  1.85393E-002
  6.14400E+000	  2.18164E-003	  1.51552E-002	 -1.20945E-002	  8.82143E-003
  6.55360E+000	  2.98094E-003	  1.23356E-002	 -6.70887E-003	  8.17695E-003
  7.37280E+000	 -6.53903E-003	  5.05910E-003	 -1.35076E-002	  9.29263E-003
  8.19200E+000	 -5.36661E-003	 -2.77165E-003	 -1.01162E-002	  1.57005E-002
  9.01120E+000	 -1.10873E-002	  4.29949E-004	  1.35377E-004	  1.74593E-003
  9.83040E+000	 -9.65059E-003	  9.86672E-004	  1.04791E-003	  3.46368E-003
  1.06496E+001	 -8.37115E-003	  9.36914E-004	 -7.78050E-004	 -3.23068E-003
  1.14688E+001	 -4.71622E-003	 -5.32565E-003	  4.94869E-003	 -1.10043E-002
  1.22880E+001	 -9.16288E-003	 -1.14661E-002	  3.70825E-003	 -4.78533E-003
  1.31072E+001	 -3.85694E-003	 -1.52024E-002	  8.21796E-003	 -2.14792E-003
  1.47456E+001	  3.42201E-003	 -3.88309E-003	 -1.06943E-003	  5.45676E-003
  1.63840E+001	  8.68843E-004	 -2.80942E-005	  2.71665E-004	 -8.69639E-003
  1.80224E+001	 -6.17466E-003	 -5.86076E-003	 -4.24999E-003	  6.26316E-003
  1.96608E+001	  7.82597E-003	 -5.35856E-003	  1.89665E-003	  4.23542E-003
  2.12992E+001	  3.99062E-003	 -3.80588E-003	  9.69397E-005	 -7.67133E-003
  2.29376E+001	  7.89633E-003	 -2.52149E-003	  5.57679E-003	 -1.20695E-003
  2.45760E+001	 -3.45810E-003	 -7.37534E-003	 -5.01776E-003	 -2.51107E-003
  2.62144E+001	  1.27529E-003	 -1.80322E-003	 -8.83254E-003	 -1.16354E-003
  2.94912E+001	  3.78088E-003	 -3.80466E-003	 -4.76540E-003	 -3.64482E-003
  3.27680E+001	  4.90639E-003	 -8.38129E-003	 -1.36359E-003	  6.40807E-003
  3.60448E+001	 -8.58618E-003	 -4.29699E-003	  8.22945E-003	 -1.00382E-003
  3.93216E+001	 -1.62896E-003	  7.54015E-003	  5.61268E-003	 -1.12806E-002
  4.25984E+001	  1.22546E-003	  3.59494E-003	 -3.82142E-003	  2.66683E-003
  4.58752E+001	  8.37449E-003	 -1.36362E-003	 -1.01894E-002	 -1.60260E-003
  4.91520E+001	  1.62558E-003	 -1.10778E-003	 -2.88295E-003	 -6.94561E-003
  5.24288E+001	  3.34047E-003	 -4.14442E-003	 -2.66747E-004	 -6.73237E-003
  5.89824E+001	  3.09533E-003	 -4.23584E-003	 -2.07264E-003	 -5.05196E-003
  6.55360E+001	 -6.59284E-003	  2.62241E-003	  7.22630E-003	  9.38240E-003
  7.20896E+001	 -1.35912E-003	 -9.31790E-003	  5.81298E-003	  5.92004E-003
  7.86432E+001	 -7.45604E-004	 -2.29980E-003	 -6.58884E-004	  8.62641E-004
  8.51968E+001	 -5.86164E-004	  4.44193E-003	 -3.13021E-003	  4.42929E-003
  9.17504E+001	 -1.03685E-003	  1.15761E-002	 -1.17239E-002	  9.04735E-003
  9.83040E+001	  7.07783E-004	 -4.68851E-003	 -1.02710E-002	 -7.31808E-004
  1.04858E+002	  3.92953E-003	 -8.26972E-003	 -8.14465E-004	 -3.70193E-003
  1.17965E+002	 -4.79844E-003	  2.30762E-004	 -1.77595E-003	 -3.95046E-003
  1.31072E+002	 -2.44746E-003	  2.31305E-003	 -5.09728E-003	 -4.50273E-004
  1.44179E+002	 -1.27968E-003	 -5.20109E-003	  7.42919E-004	  1.75704E-003
  1.57286E+002	 -1.91774E-003	 -1.23611E-003	 -4.51386E-003	  1.18050E-002
  1.70394E+002	 -3.06584E-003	  9.70929E-004	 -5.59259E-003	 -3.26736E-003
  1.83501E+002	 -2.41886E-005	 -2.09461E-003	  2.37561E-003	  7.07435E-004
  1.96608E+002	 -1.30873E-003	 -2.24831E-003	  4.48577E-003	 -6.46653E-003
  2.09715E+002	  5.10172E-004	 -1.52012E-003	  2.21143E-003	 -1.18518E-003
  2.35930E+002	  2.84272E-003	 -5.55230E-004	  6.40953E-004	 -2.63287E-003
  2.62144E+002	 -2.15036E-004	  7.12440E-003	  7.24674E-003	 -4.01528E-003
  2.88358E+002	  7.70926E-004	 -1.60138E-003	  2.80790E-003	  4.75045E-003
  3.14573E+002	 -7.88977E-004	 -1.61065E-004	 -1.93711E-003	 -1.19969E-003
  3.40787E+002	  4.66417E-003	  4.60470E-003	 -4.40215E-003	 -8.03376E-003
  3.67002E+002	 -4.52125E-004	 -5.88993E-003	  1.08154E-003	  8.63337E-004
  3.93216E+002	  2.17137E-003	 -6.57422E-003	 -4.45019E-003	  1.69392E-004

"Count Rate"
       0.01311	     120.39185	     148.08655	     118.10303	     115.35645
       0.02621	     135.34546	     109.02405	     119.17114	     141.22009
       0.03932	     136.87134	     115.73792	     138.24463	     102.99683
       0.05243	     148.31543	     124.20654	     105.13306	     110.85510
       0.06554	     118.02673	     206.68030	     122.45178	     102.31018
       0.07864	     145.03479	     139.92310	     128.55530	     152.20642
       0.09175	     139.16016	     137.40540	     154.11377	     112.22839
       0.10486	     142.05933	     159.37805	     130.08118	     144.19556
       0.11796	     139.00757	     115.05127	     108.18481	     192.71851
       0.13107	     172.04285	     148.39172	      99.71619	     158.38623
       0.14418	     125.88501	     119.85779	     134.96399	     132.67517
       0.15729	     116.42456	     147.55249	     140.60974	     138.09204
       0.17039	     118.10303	     124.05396	     105.59082	     112.76245
       0.18350	     131.83594	     125.50354	     110.24475	     144.88220
       0.19661	     114.44092	     111.00769	     112.60986	     127.25830
       0.20972	     138.47351	     108.94775	     107.19299	     182.57141
       0.22282	     113.83057	     160.29358	     111.31287	     119.93408
       0.23593	     142.97485	     102.46277	     146.25549	     126.41907
       0.24904	      98.87695	     124.58801	     147.32361	     150.37537
       0.26214	     146.78955	     138.47351	     119.40002	     118.94226
       0.27525	     146.33179	     147.62878	     183.33435	     179.06189
       0.28836	     132.67517	     127.25830	     146.71326	     124.96948
       0.30147	     120.16296	     164.56604	     135.80322	     139.00757
       0.31457	     137.02393	     151.44348	     103.14941	     128.02124
       0.32768	     140.45715	     109.71069	     123.44360	      95.52002
       0.34079	     129.39453	     151.29089	     120.84961	     155.86853
       0.35389	     122.52808	     140.15198	     133.74329	     154.64783
       0.36700	     143.50891	      91.85791	     109.02405	     150.07019
       0.38011	     153.42712	     143.58521	     104.29382	     123.29102
       0.39322	     127.10571	     154.41895	     140.07568	     121.15479
       0.40632	     154.80042	     131.07300	     125.04578	     101.69983
       0.41943	     155.18188	     129.01306	     109.48181	      99.86877
       0.43254	     136.87134	     143.43262	     124.20654	     176.01013
       0.44564	     156.47888	     120.39185	     129.39453	      95.21484
       0.45875	     137.78687	     108.26111	     111.00769	     122.90955
       0.47186	     161.28540	     116.95862	     129.24194	     124.13025
       0.48497	     111.92322	     167.08374	     124.96948	      90.02686
       0.49807	     125.57983	     104.37012	     115.50903	     156.02112
       0.51118	     123.06213	     184.17358	     165.63416	     103.68347
       0.52429	     138.47351	     111.00769	     140.15198	     110.93140
       0.53740	     114.66980	     113.75427	     178.52783	     144.42444
       0.55050	      98.34290	     130.61523	     133.97217	      90.56091
       0.56361	     139.46533	     148.23914	     104.21753	     105.81970
       0.57672	     135.11658	     154.03748	     141.06750	     158.61511
       0.58982	     104.06494	     137.71057	     147.55249	     172.88208
       0.60293	      96.28296	     164.18457	     112.53357	     114.66980
       0.61604	     129.54712	     104.29382	     138.32092	     108.10852
       0.62915	     134.73511	     144.27185	     101.62354	     107.87964
       0.64225	     114.66980	     161.89575	     155.71594	     153.50342
       0.65536	     135.34546	     103.60718	     120.69702	     150.60425
       0.66847	     162.73499	     119.62891	      95.97778	     131.30188
       0.68157	     163.19275	     138.16833	     118.40820	     114.36462
       0.69468	     111.16028	     135.26917	     116.57715	      82.09229
       0.70779	     140.53345	      94.98596	     105.59082	     124.66431
       0.72090	      80.03235	     137.71057	     167.61780	     138.09204
       0.73400	     146.94214	     140.99121	     167.61780	     142.13562
       0.74711	     117.03491	     152.20642	     120.54443	     152.13013
