ALV-7004/USB-FAST
Date :	"3/14/2024"
Time :	"12:37:14 PM"
Samplename : 	""
SampMemo(0) : 	""
SampMemo(1) : 	""
SampMemo(2) : 	""
SampMemo(3) : 	""
SampMemo(4) : 	""
SampMemo(5) : 	""
SampMemo(6) : 	""
SampMemo(7) : 	""
SampMemo(8) : 	""
SampMemo(9) : 	""
Temperature [K] :	     298.16000
Viscosity [cp]  :	       0.89000
Refractive Index:	       1.33200
Wavelength [nm] :	       0.00000
Angle [°]       :	       0.00000
Duration [s]    :	         1
FloatDur [ms]   :	          944
Stop TP [ms]   :	      4064
Runs            :	         1
Mode            :	"A-CH0+1  A-CH2+3 "
MeanCR0 [kHz]   :	     145.67798
MeanCR1 [kHz]   :	     133.76553
MeanCR2 [kHz]   :	     137.24752
MeanCR3 [kHz]   :	     134.92266

"Correlation"
  3.12500E-006	 -1.00000E+000	 -1.00000E+000	 -1.00000E+000	 -1.00000E+000
  6.25000E-006	 -1.00000E+000	 -1.00000E+000	 -1.00000E+000	 -1.00000E+000
  9.37500E-006	 -1.00000E+000	 -1.00000E+000	 -1.00000E+000	 -1.00000E+000
  1.25000E-005	 -1.00000E+000	 -1.00000E+000	 -1.00000E+000	 -1.00000E+000
  1.56250E-005	 -1.00000E+000	 -1.00000E+000	 -1.00000E+000	 -1.00000E+000
  1.87500E-005	 -1.00000E+000	 -1.00000E+000	 -1.00000E+000	 -1.00000E+000
  2.18750E-005	 -9.20111E-001	 -5.64140E-001	 -5.31972E-001	 -8.32359E-001
  2.50000E-005	  5.42312E+000	  5.50000E+000	  5.53439E+000	  9.97117E+000
  2.81250E-005	  1.39668E+000	  1.44461E+000	  1.59216E+000	  4.47627E+000
  3.12500E-005	  1.14104E+000	  8.95043E-001	  5.48093E-001	  2.24106E+000
  3.43750E-005	  6.61701E-001	  4.21282E-001	  6.38098E-001	  2.46458E+000
  3.75000E-005	  6.45724E-001	  7.24489E-001	  7.46105E-001	  1.73814E+000
  4.06250E-005	  6.61701E-001	  6.29737E-001	  7.64106E-001	  1.17933E+000
  4.37500E-005	  8.05502E-001	  4.02332E-001	  8.00108E-001	  1.34697E+000
  4.68750E-005	  6.61701E-001	  4.40233E-001	  4.94090E-001	  1.30972E+000
  5.00000E-005	  5.33878E-001	  5.72886E-001	  7.64106E-001	  1.12345E+000
  5.62500E-005	  5.73823E-001	  7.33964E-001	  4.76089E-001	  9.65125E-001
  6.25000E-005	  4.22033E-001	  6.77113E-001	  4.31086E-001	  8.90618E-001
  6.87500E-005	  6.21757E-001	  3.36005E-001	  4.76089E-001	  9.55812E-001
  7.50000E-005	  7.49580E-001	  5.91836E-001	  4.22085E-001	  6.39156E-001
  8.12500E-005	  4.93933E-001	  4.02332E-001	  5.39092E-001	  6.01903E-001
  8.75000E-005	  8.53436E-001	  4.78133E-001	  3.77083E-001	  6.57783E-001
  9.37500E-005	  5.81812E-001	  5.91836E-001	  6.65100E-001	  3.87695E-001
  1.00000E-004	  3.74099E-001	  5.34985E-001	  4.04084E-001	  4.76172E-001
  1.12500E-004	  4.77955E-001	  4.73396E-001	  6.20097E-001	  6.15873E-001
  1.25000E-004	  6.29745E-001	  4.92346E-001	  5.88595E-001	  5.69306E-001
  1.37500E-004	  4.34016E-001	  5.68148E-001	  4.85089E-001	  5.04112E-001
  1.50000E-004	  7.17624E-001	  4.78133E-001	  4.71588E-001	  5.04112E-001
  1.62500E-004	  3.62116E-001	  3.73906E-001	  7.23603E-001	  5.04112E-001
  1.75000E-004	  4.49994E-001	  4.54445E-001	  5.30092E-001	  4.76172E-001
  1.87500E-004	  5.69828E-001	  5.20772E-001	  5.16591E-001	  4.76172E-001
  2.00000E-004	  4.77955E-001	  4.52076E-001	  3.99584E-001	  5.50679E-001
  2.25000E-004	  5.51853E-001	  5.18403E-001	  5.30091E-001	  5.57664E-001
  2.50000E-004	  4.63974E-001	  5.63410E-001	  5.45842E-001	  5.08768E-001
  2.75000E-004	  5.61839E-001	  4.56814E-001	  5.18841E-001	  4.85485E-001
  3.00000E-004	  5.09911E-001	  3.78643E-001	  4.37836E-001	  4.64530E-001
  3.25000E-004	  6.11770E-001	  4.75764E-001	  4.53587E-001	  4.71515E-001
  3.50000E-004	  5.49856E-001	  4.89977E-001	  4.80588E-001	  5.06440E-001
  3.75000E-004	  5.47858E-001	  3.76274E-001	  6.08846E-001	  3.22501E-001
  4.00000E-004	  4.84945E-001	  4.22465E-001	  5.61593E-001	  4.63365E-001
  4.50000E-004	  5.22892E-001	  3.64430E-001	  5.07589E-001	  5.37872E-001
  5.00000E-004	  4.44001E-001	  5.29062E-001	  4.86213E-001	  5.54170E-001
  5.50000E-004	  4.20035E-001	  5.03005E-001	  4.25459E-001	  4.49395E-001
  6.00000E-004	  5.19896E-001	  5.30246E-001	  4.47961E-001	  4.85484E-001
  6.50000E-004	  4.57982E-001	  4.92345E-001	  4.63712E-001	  5.18081E-001
  7.00000E-004	  5.63836E-001	  4.46153E-001	  4.65962E-001	  4.98290E-001
  7.50000E-004	  4.86942E-001	  4.62735E-001	  5.01964E-001	  4.76171E-001
  8.00000E-004	  4.91434E-001	  4.64510E-001	  4.79461E-001	  4.48230E-001
  9.00000E-004	  5.09909E-001	  4.84053E-001	  4.64273E-001	  4.24946E-001
  1.00000E-003	  4.68966E-001	  4.90567E-001	  4.87337E-001	  4.80244E-001
  1.10000E-003	  5.03418E-001	  4.66287E-001	  5.01963E-001	  4.56961E-001
  1.20000E-003	  4.60477E-001	  4.55627E-001	  4.79461E-001	  5.12841E-001
  1.30000E-003	  4.55484E-001	  4.48521E-001	  4.93536E-001	  4.63957E-001
  1.40000E-003	  5.13404E-001	  4.46152E-001	  4.42345E-001	  4.70942E-001
  1.50000E-003	  5.29881E-001	  4.24833E-001	  4.74410E-001	  4.44166E-001
  1.60000E-003	  5.23388E-001	  4.14467E-001	  5.07035E-001	  4.70358E-001
  1.80000E-003	  5.08658E-001	  4.52664E-001	  5.27848E-001	  4.75306E-001
  2.00000E-003	  4.85191E-001	  4.29272E-001	  4.73001E-001	  4.72686E-001
  2.20000E-003	  4.65468E-001	  4.43792E-001	  4.92971E-001	  4.50276E-001
  2.40000E-003	  5.12403E-001	  4.48234E-001	  4.97190E-001	  4.68029E-001
  2.60000E-003	  4.86439E-001	  4.67481E-001	  4.67376E-001	  4.46492E-001
  2.80000E-003	  4.62222E-001	  4.15367E-001	  4.90440E-001	  4.46201E-001
  3.00000E-003	  4.82444E-001	  4.81990E-001	  5.17442E-001	  4.52022E-001
  3.20000E-003	  4.83812E-001	  4.63034E-001	  4.76523E-001	  4.49689E-001
  3.60000E-003	  4.69707E-001	  4.56816E-001	  5.02681E-001	  4.09234E-001
  4.00000E-003	  4.53729E-001	  4.59481E-001	  4.72304E-001	  4.60894E-001
  4.40000E-003	  4.83313E-001	  4.58741E-001	  4.83977E-001	  4.55510E-001
  4.80000E-003	  4.94048E-001	  4.31944E-001	  4.74695E-001	  4.49252E-001
  5.20000E-003	  4.76209E-001	  4.34905E-001	  4.77227E-001	  4.81413E-001
  5.60000E-003	  5.11785E-001	  4.42159E-001	  4.85946E-001	  4.51726E-001
  6.00000E-003	  4.60605E-001	  4.37717E-001	  4.68507E-001	  4.72245E-001
  6.40000E-003	  4.70530E-001	  4.36967E-001	  4.79256E-001	  4.66353E-001
  7.20000E-003	  4.82513E-001	  4.54585E-001	  4.65966E-001	  4.59004E-001
  8.00000E-003	  4.82638E-001	  4.47997E-001	  4.84248E-001	  4.52383E-001
  8.80000E-003	  4.65724E-001	  4.39336E-001	  4.70536E-001	  4.59222E-001
  9.60000E-003	  4.82264E-001	  4.49330E-001	  4.97679E-001	  4.36884E-001
  1.04000E-002	  4.83387E-001	  4.44000E-001	  4.79748E-001	  4.47944E-001
  1.12000E-002	  4.92812E-001	  4.49700E-001	  4.65474E-001	  4.44245E-001
  1.20000E-002	  4.65735E-001	  4.39262E-001	  4.75740E-001	  4.55377E-001
  1.28000E-002	  4.69751E-001	  4.34468E-001	  4.65067E-001	  4.44684E-001
  1.44000E-002	  4.55614E-001	  4.34024E-001	  4.57508E-001	  4.38718E-001
  1.60000E-002	  4.62168E-001	  4.34764E-001	  4.61832E-001	  4.34473E-001
  1.76000E-002	  4.54241E-001	  4.37503E-001	  4.65208E-001	  4.22637E-001
  1.92000E-002	  4.63728E-001	  4.31877E-001	  4.60426E-001	  4.33697E-001
  2.08000E-002	  4.66038E-001	  4.30656E-001	  4.45871E-001	  4.35116E-001
  2.24000E-002	  4.49186E-001	  4.20933E-001	  4.55715E-001	  4.31223E-001
  2.40000E-002	  4.47594E-001	  4.13420E-001	  4.46152E-001	  4.14634E-001
  2.56000E-002	  4.44190E-001	  4.20059E-001	  4.48730E-001	  4.05522E-001
  2.88000E-002	  4.39041E-001	  4.23649E-001	  4.45197E-001	  4.14818E-001
  3.20000E-002	  4.28904E-001	  4.14407E-001	  4.47008E-001	  4.09342E-001
  3.52000E-002	  4.25939E-001	  4.07700E-001	  4.34298E-001	  3.95019E-001
  3.84000E-002	  4.23022E-001	  3.90786E-001	  4.23909E-001	  3.91538E-001
  4.16000E-002	  4.13795E-001	  3.82210E-001	  4.16308E-001	  3.81278E-001
  4.48000E-002	  4.06346E-001	  3.89927E-001	  4.17110E-001	  3.88555E-001
  4.80000E-002	  4.05477E-001	  3.82432E-001	  4.06686E-001	  3.81078E-001
  5.12000E-002	  4.00020E-001	  3.74820E-001	  4.04807E-001	  3.73265E-001
  5.76000E-002	  3.88689E-001	  3.59240E-001	  3.97565E-001	  3.68293E-001
  6.40000E-002	  3.82471E-001	  3.53330E-001	  3.90278E-001	  3.51504E-001
  7.04000E-002	  3.71396E-001	  3.45069E-001	  3.79511E-001	  3.48967E-001
  7.68000E-002	  3.65354E-001	  3.40497E-001	  3.73825E-001	  3.38301E-001
  8.32000E-002	  3.56764E-001	  3.33197E-001	  3.59472E-001	  3.35781E-001
  8.96000E-002	  3.49847E-001	  3.21483E-001	  3.51561E-001	  3.15620E-001
  9.60000E-002	  3.36499E-001	  3.17838E-001	  3.49267E-001	  3.12413E-001
  1.02400E-001	  3.30288E-001	  3.05828E-001	  3.38000E-001	  3.03996E-001
  1.15200E-001	  3.15415E-001	  2.92193E-001	  3.18054E-001	  2.89157E-001
  1.28000E-001	  3.06319E-001	  2.81564E-001	  3.02847E-001	  2.75045E-001
  1.40800E-001	  2.91836E-001	  2.61199E-001	  2.92999E-001	  2.60648E-001
  1.53600E-001	  2.81763E-001	  2.51899E-001	  2.75224E-001	  2.47555E-001
  1.66400E-001	  2.73297E-001	  2.44480E-001	  2.61569E-001	  2.34474E-001
  1.79200E-001	  2.61005E-001	  2.36640E-001	  2.49455E-001	  2.23580E-001
  1.92000E-001	  2.49499E-001	  2.28098E-001	  2.41347E-001	  2.12667E-001
  2.04800E-001	  2.42323E-001	  2.19560E-001	  2.32859E-001	  2.07321E-001
  2.30400E-001	  2.28798E-001	  2.06009E-001	  2.12284E-001	  1.85909E-001
  2.56000E-001	  2.12166E-001	  1.87944E-001	  1.96402E-001	  1.69927E-001
  2.81600E-001	  2.00389E-001	  1.77989E-001	  1.83621E-001	  1.56275E-001
  3.07200E-001	  1.84603E-001	  1.66207E-001	  1.65812E-001	  1.42548E-001
  3.32800E-001	  1.72187E-001	  1.53583E-001	  1.52315E-001	  1.33049E-001
  3.58400E-001	  1.63007E-001	  1.42029E-001	  1.43330E-001	  1.20620E-001
  3.84000E-001	  1.54027E-001	  1.36111E-001	  1.31257E-001	  1.11670E-001
  4.09600E-001	  1.43779E-001	  1.27296E-001	  1.21734E-001	  1.04629E-001
  4.60800E-001	  1.31134E-001	  1.13775E-001	  1.01134E-001	  9.39680E-002
  5.12000E-001	  1.16469E-001	  1.01108E-001	  8.86847E-002	  8.82450E-002
  5.63200E-001	  1.03253E-001	  9.17027E-002	  7.77337E-002	  8.03016E-002
  6.14400E-001	  9.23443E-002	  8.00960E-002	  7.02633E-002	  7.00233E-002
  6.65600E-001	  7.97465E-002	  7.07688E-002	  6.37021E-002	  5.87668E-002
  7.16800E-001	  6.86891E-002	  6.35532E-002	  5.66815E-002	  5.14681E-002
  7.68000E-001	  6.26626E-002	  6.07540E-002	  5.44655E-002	  5.07146E-002
  8.19200E-001	  5.84194E-002	  5.00180E-002	  5.19412E-002	  4.56781E-002
  9.21600E-001	  4.99348E-002	  3.78562E-002	  4.67710E-002	  3.72590E-002
  1.02400E+000	  4.51576E-002	  2.97757E-002	  3.70738E-002	  2.83910E-002
  1.12640E+000	  3.91330E-002	  2.83628E-002	  3.03161E-002	  1.99152E-002
  1.22880E+000	  3.38754E-002	  2.57197E-002	  2.85597E-002	  2.13997E-002
  1.33120E+000	  3.22771E-002	  2.56960E-002	  2.65952E-002	  2.70637E-002
  1.43360E+000	  3.21279E-002	  2.65169E-002	  2.27405E-002	  3.05494E-002
  1.53600E+000	  3.18392E-002	  2.18366E-002	  1.55549E-002	  2.86940E-002
  1.63840E+000	  2.74771E-002	  2.47130E-002	  1.20569E-002	  2.73180E-002
  1.84320E+000	  2.14949E-002	  1.66237E-002	  2.61160E-003	  2.42387E-002
  2.04800E+000	  1.55084E-002	  1.53356E-002	  2.68775E-003	  2.57574E-002
  2.25280E+000	  7.28329E-003	  1.36014E-002	  7.32171E-003	  2.82026E-002
  2.45760E+000	  7.78009E-003	  1.19851E-002	  9.08587E-003	  1.83148E-002
  2.66240E+000	  6.66817E-003	  9.12553E-003	  7.63607E-003	  8.57110E-003
  2.86720E+000	  9.82930E-003	  8.86958E-003	  7.76460E-003	  8.07550E-003
  3.07200E+000	  9.58957E-003	  7.01809E-004	  8.84825E-003	  3.40724E-003
  3.27680E+000	  9.30361E-003	 -2.33144E-003	  1.05435E-002	 -3.29601E-003
  3.68640E+000	  1.18502E-002	 -6.71528E-003	  9.93126E-004	 -1.92791E-003
  4.09600E+000	  9.47457E-003	 -1.55858E-004	  2.03415E-003	  2.91866E-003
  4.50560E+000	  9.75180E-003	  7.88387E-003	 -4.05602E-003	  1.11973E-003
  4.91520E+000	  5.39606E-003	  7.21079E-003	 -5.73783E-003	  8.51274E-003
  5.32480E+000	  3.94434E-003	  1.25148E-002	 -7.71271E-003	  1.05482E-002
  5.73440E+000	  1.02723E-002	  1.98995E-002	  6.45363E-003	  1.32902E-003
  6.14400E+000	  1.69428E-002	  1.41527E-002	  1.15387E-002	  2.55125E-003
  6.55360E+000	  1.05561E-002	  6.57058E-003	  7.05680E-003	  4.61015E-003
  7.37280E+000	  5.62415E-003	 -6.71390E-003	  9.18643E-003	 -6.10257E-003
  8.19200E+000	 -2.19447E-003	 -2.87055E-003	 -3.11220E-004	 -4.20607E-003
  9.01120E+000	 -2.16582E-002	 -3.86276E-004	 -1.47596E-003	  1.37997E-002
  9.83040E+000	 -1.97234E-002	 -3.18832E-003	 -1.75256E-003	  2.12659E-002
  1.06496E+001	 -7.55872E-003	 -3.64663E-003	 -3.28771E-003	  1.48921E-003
  1.14688E+001	 -6.15153E-003	 -1.64338E-003	 -1.88202E-003	  4.28457E-003
  1.22880E+001	 -7.46457E-003	  2.37546E-004	  2.41937E-003	  4.08991E-003
  1.31072E+001	  3.29359E-003	 -3.79689E-003	  3.00880E-003	  4.69096E-003
  1.47456E+001	  4.75308E-003	  4.98549E-003	  5.66941E-003	  6.91096E-003
  1.63840E+001	 -1.62880E-003	 -1.52716E-003	  6.97471E-003	  4.72478E-003
  1.80224E+001	  6.40847E-003	 -7.81516E-003	  1.04125E-002	 -3.15841E-004
  1.96608E+001	  1.60311E-002	 -5.25727E-003	 -2.13900E-003	 -5.91708E-003
  2.12992E+001	  1.34815E-002	  4.18375E-003	  2.87504E-003	 -3.91774E-003
  2.29376E+001	 -2.35114E-003	  2.65142E-003	  2.51803E-003	 -7.26810E-003
  2.45760E+001	 -8.41742E-003	 -7.76891E-003	 -1.06838E-002	 -1.78039E-003
  2.62144E+001	 -4.91077E-003	 -4.90995E-003	 -1.49314E-002	  1.49605E-003
  2.94912E+001	  9.27257E-003	 -1.10036E-002	 -1.13662E-002	 -4.30190E-003
  3.27680E+001	  8.07170E-003	  4.97069E-003	 -5.15271E-003	 -1.02402E-002
  3.60448E+001	  4.12824E-003	  7.97318E-003	  6.17834E-004	 -7.83191E-003
  3.93216E+001	 -2.95466E-003	 -5.24108E-003	  2.39460E-003	 -9.00377E-003
  4.25984E+001	 -6.94438E-003	 -6.79958E-003	  1.00544E-002	  3.44688E-004
  4.58752E+001	 -5.16440E-003	 -9.61580E-003	 -2.84612E-003	  3.23827E-004
  4.91520E+001	 -7.00462E-004	 -4.85285E-003	 -4.89344E-003	 -1.24267E-002
  5.24288E+001	  3.82671E-003	  4.28134E-004	 -7.90039E-004	 -1.11457E-002
  5.89824E+001	 -2.91582E-003	  6.66825E-003	  9.58494E-003	 -1.04815E-002
  6.55360E+001	 -1.04210E-002	  7.83682E-003	 -4.48038E-003	 -6.22487E-003
  7.20896E+001	  1.08026E-003	  2.94491E-003	  2.71030E-004	  6.00587E-003
  7.86432E+001	  1.86157E-003	  7.33397E-004	 -8.26132E-004	  8.06899E-004
  8.51968E+001	  6.89352E-003	 -3.48645E-003	 -3.06435E-003	  6.29453E-003
  9.17504E+001	 -8.97982E-003	 -3.49697E-003	 -3.96860E-003	  5.06918E-003
  9.83040E+001	 -1.37589E-002	 -3.46004E-003	  4.28545E-003	 -5.87830E-004
  1.04858E+002	 -4.38427E-003	 -4.66240E-003	 -1.93928E-004	 -4.14148E-003
  1.17965E+002	  5.86047E-003	 -7.79701E-004	 -3.86609E-003	  5.26550E-003
  1.31072E+002	 -4.25785E-003	 -7.27109E-004	 -2.52864E-004	  1.47062E-003
  1.44179E+002	 -3.77844E-003	  2.00132E-003	  2.22166E-003	 -3.07300E-003
  1.57286E+002	  7.63874E-004	 -3.92205E-003	  4.13904E-003	 -2.49526E-003
  1.70394E+002	 -7.10568E-003	 -7.17407E-004	  4.90012E-003	 -5.72160E-003
  1.83501E+002	 -1.56306E-003	  5.59831E-004	 -3.05140E-003	 -1.22388E-004
  1.96608E+002	  4.83021E-003	 -4.04700E-003	 -2.07657E-003	  1.01449E-002
  2.09715E+002	  3.80146E-003	  1.18421E-003	  1.27577E-003	  8.47502E-003
  2.35930E+002	  1.59947E-003	 -8.07254E-005	 -1.41614E-003	 -3.29721E-003
  2.62144E+002	 -7.14037E-003	 -4.23000E-003	 -7.75757E-003	 -3.15595E-003
  2.88358E+002	 -3.75067E-003	  3.01663E-003	 -4.65412E-004	 -2.03266E-003
  3.14573E+002	  5.68180E-003	  1.15813E-003	 -6.51068E-003	  1.06570E-003
  3.40787E+002	 -2.91215E-003	 -7.55332E-004	  1.44938E-004	 -5.27988E-004
  3.67002E+002	 -1.57794E-003	  3.86974E-003	  3.14329E-003	 -1.68961E-003
  3.93216E+002	  2.91946E-003	 -2.34547E-003	  2.04808E-004	  6.20241E-003

"Count Rate"
       0.01311	     153.04565	     120.84961	     122.14661	     151.29089
       0.02621	     171.66138	     112.22839	     128.47900	     179.74854
       0.03932	     140.99121	     114.21204	     127.18201	     127.10571
       0.05243	     111.99951	     149.53613	     116.27197	     131.68335
       0.06554	     114.44092	     108.79517	     119.85779	     130.31006
       0.07864	     115.35645	     129.16565	     140.38086	     129.62341
       0.09175	     128.17383	     151.36719	     149.23096	     138.32092
       0.10486	     145.26367	     166.01563	     143.96667	     172.04285
       0.11796	     129.69971	     105.20935	     107.34558	     158.99658
       0.13107	     125.96130	     127.63977	     143.73779	     111.77063
       0.14418	     155.18188	     127.94495	     177.38342	     112.38098
       0.15729	     163.26904	     160.44617	     111.00769	     124.74060
       0.17039	     124.58801	     155.25818	     112.83875	     145.49255
       0.18350	     182.41882	     106.12488	     166.16821	     166.85486
       0.19661	     158.30994	     168.30444	     196.68579	     134.27734
       0.20972	     134.58252	     165.55786	     143.05115	     121.68884
       0.22282	     167.54150	     130.46265	     101.77612	     133.51440
       0.23593	     111.08398	     151.21460	     132.14111	      98.80066
       0.24904	     118.94226	      79.34570	     154.64783	     139.54163
       0.26214	     200.65308	     141.98303	     178.37524	     146.40808
       0.27525	     111.31287	     184.70764	     173.79761	     127.63977
       0.28836	     146.40808	     128.17383	     122.90955	     112.76245
       0.30147	     128.78418	     127.33459	     128.78418	     158.46252
       0.31457	     158.15735	     109.78699	     117.72156	     156.09741
       0.32768	     164.03198	     103.68347	     127.63977	     134.73511
       0.34079	     219.03992	     144.11926	     141.06750	     158.53882
       0.35389	     152.28271	     145.95032	     169.21997	     112.99133
       0.36700	     123.97766	     115.50903	     122.14661	     101.24207
       0.38011	     199.58496	     102.00500	     127.71606	     141.90674
       0.39322	     120.23926	     103.91235	     137.10022	     162.96387
       0.40632	     192.56592	     100.17395	     145.03479	     135.87952
       0.41943	     142.36450	     127.48718	     136.87134	      86.44104
       0.43254	     172.34802	     131.07300	     117.64526	     120.69702
       0.44564	     164.10828	     142.36450	     139.38904	     111.99951
       0.45875	     156.47888	     129.24194	     125.12207	      92.92603
       0.47186	     115.66162	     137.10022	      96.81702	     193.71033
       0.48497	     115.73792	     137.32910	     133.74329	     124.05396
       0.49807	     119.85779	     143.35632	     130.00488	     159.22546
       0.51118	     122.22290	     173.11096	     100.32654	     142.44080
       0.52429	      96.35925	     126.34277	     112.07581	     161.66687
       0.53740	     149.00208	     155.48706	     118.17932	      91.85791
       0.55050	     126.19019	     102.99683	     134.27734	     124.28284
       0.56361	     140.91492	     135.72693	     140.91492	     124.20654
       0.57672	     158.92029	     123.90137	     157.77588	     129.31824
       0.58982	     131.45447	     119.09485	     126.72424	     171.66138
       0.60293	     117.56897	     131.37817	     145.33997	     119.32373
       0.61604	     137.25281	     110.54993	     177.68860	     120.69702
       0.62915	     158.99658	     155.63965	     138.93127	     124.35913
       0.64225	     177.53601	     167.77039	     132.06482	     102.76794
       0.65536	     185.54688	     158.00476	     132.98035	     114.59351
       0.66847	     134.35364	     115.81421	     112.76245	     158.38623
       0.68157	      98.34290	     126.87683	     123.36731	     121.91772
       0.69468	     121.91772	     119.09485	      94.90967	     151.82495
       0.70779	     139.69421	     118.78967	     123.82507	     179.67224
       0.72090	     140.60974	     129.54712	     166.70227	     161.97205
       0.73400	     129.24194	     132.75146	     134.20105	     121.84143
       0.74711	     189.05640	     146.48438	     166.32080	     100.93689
