ALV-7004/USB-FAST
Date :	"3/14/2024"
Time :	"12:30:38 PM"
Samplename : 	""
SampMemo(0) : 	""
SampMemo(1) : 	""
SampMemo(2) : 	""
SampMemo(3) : 	""
SampMemo(4) : 	""
SampMemo(5) : 	""
SampMemo(6) : 	""
SampMemo(7) : 	""
SampMemo(8) : 	""
SampMemo(9) : 	""
Temperature [K] :	     298.16000
Viscosity [cp]  :	       0.89000
Refractive Index:	       1.33200
Wavelength [nm] :	       0.00000
Angle [°]       :	       0.00000
Duration [s]    :	         1
FloatDur [ms]   :	          944
Stop TP [ms]   :	      3166
Runs            :	         1
Mode            :	"A-CH0+1  A-CH2+3 "
MeanCR0 [kHz]   :	     148.38431
MeanCR1 [kHz]   :	     147.18586
MeanCR2 [kHz]   :	     141.17030
MeanCR3 [kHz]   :	     142.08688

"Correlation"
  3.12500E-006	 -1.00000E+000	 -1.00000E+000	 -1.00000E+000	 -1.00000E+000
  6.25000E-006	 -1.00000E+000	 -1.00000E+000	 -1.00000E+000	 -1.00000E+000
  9.37500E-006	 -1.00000E+000	 -1.00000E+000	 -1.00000E+000	 -1.00000E+000
  1.25000E-005	 -1.00000E+000	 -1.00000E+000	 -1.00000E+000	 -1.00000E+000
  1.56250E-005	 -1.00000E+000	 -1.00000E+000	 -1.00000E+000	 -1.00000E+000
  1.87500E-005	 -1.00000E+000	 -1.00000E+000	 -1.00000E+000	 -1.00000E+000
  2.18750E-005	 -8.76797E-001	 -2.01738E-001	 -3.87476E-001	 -9.66408E-001
  2.50000E-005	  5.29876E+000	  5.84001E+000	  5.49956E+000	  1.00348E+001
  2.81250E-005	  1.98767E+000	  1.23826E+000	  9.73690E-001	  4.20669E+000
  3.12500E-005	  6.17040E-001	  7.06090E-001	  7.86530E-001	  2.51031E+000
  3.43750E-005	  1.03285E+000	  7.06090E-001	  6.50413E-001	  2.04003E+000
  3.75000E-005	  5.40039E-001	  5.80872E-001	  8.20559E-001	  2.02324E+000
  4.06250E-005	  8.32646E-001	  5.33916E-001	  8.37573E-001	  1.40179E+000
  4.37500E-005	  7.55644E-001	  5.33916E-001	  7.35486E-001	  1.14986E+000
  4.68750E-005	  2.62832E-001	  4.86959E-001	  6.16384E-001	  1.14986E+000
  5.00000E-005	  3.24433E-001	  5.80872E-001	  5.99369E-001	  1.09107E+000
  5.62500E-005	  5.86240E-001	  6.20003E-001	  6.84442E-001	  8.47533E-001
  6.25000E-005	  6.70942E-001	  5.49568E-001	  5.73847E-001	  8.47533E-001
  6.87500E-005	  5.55439E-001	  6.04350E-001	  5.90862E-001	  9.48308E-001
  7.50000E-005	  4.86137E-001	  7.68698E-001	  4.71760E-001	  7.21565E-001
  8.12500E-005	  5.86240E-001	  5.26089E-001	  5.39818E-001	  8.13942E-001
  8.75000E-005	  5.86240E-001	  5.41742E-001	  2.76092E-001	  8.47533E-001
  9.37500E-005	  3.16733E-001	  5.57394E-001	  4.12209E-001	  6.12393E-001
  1.00000E-004	  4.39936E-001	  5.76959E-001	  4.88774E-001	  6.29188E-001
  1.12500E-004	  5.70839E-001	  5.18263E-001	  6.03623E-001	  6.08194E-001
  1.25000E-004	  5.32338E-001	  6.27829E-001	  6.03623E-001	  7.08968E-001
  1.37500E-004	  5.43888E-001	  3.69567E-001	  5.35564E-001	  5.24215E-001
  1.50000E-004	  5.20788E-001	  5.65220E-001	  4.37731E-001	  6.83774E-001
  1.62500E-004	  5.36188E-001	  4.24350E-001	  4.93028E-001	  6.12392E-001
  1.75000E-004	  6.05490E-001	  4.12611E-001	  5.61086E-001	  6.29188E-001
  1.87500E-004	  4.16835E-001	  3.10872E-001	  4.58999E-001	  4.48634E-001
  2.00000E-004	  3.87959E-001	  3.81306E-001	  4.84520E-001	  4.84325E-001
  2.25000E-004	  5.43888E-001	  4.63480E-001	  5.24930E-001	  4.65429E-001
  2.50000E-004	  5.09237E-001	  5.88698E-001	  4.86647E-001	  5.89298E-001
  2.75000E-004	  4.70736E-001	  4.92828E-001	  5.22803E-001	  4.73827E-001
  3.00000E-004	  5.07312E-001	  5.78915E-001	  3.65419E-001	  5.09518E-001
  3.25000E-004	  5.20787E-001	  5.41741E-001	  5.84481E-001	  4.63330E-001
  3.50000E-004	  5.07312E-001	  5.49567E-001	  5.37691E-001	  4.65429E-001
  3.75000E-004	  3.82184E-001	  4.75219E-001	  5.73847E-001	  4.48634E-001
  4.00000E-004	  4.03359E-001	  5.43697E-001	  5.28120E-001	  5.25264E-001
  4.50000E-004	  5.06349E-001	  4.44893E-001	  5.52578E-001	  5.70402E-001
  5.00000E-004	  4.98649E-001	  4.54675E-001	  4.80266E-001	  5.64104E-001
  5.50000E-004	  4.49560E-001	  4.19458E-001	  5.17486E-001	  5.15816E-001
  6.00000E-004	  5.02499E-001	  5.26088E-001	  5.63212E-001	  5.54656E-001
  6.50000E-004	  5.28487E-001	  4.90871E-001	  5.31310E-001	  4.84324E-001
  7.00000E-004	  4.10097E-001	  5.24132E-001	  5.24929E-001	  4.65429E-001
  7.50000E-004	  4.63035E-001	  4.87936E-001	  4.26032E-001	  5.52557E-001
  8.00000E-004	  4.48115E-001	  4.88913E-001	  4.76011E-001	  4.95870E-001
  9.00000E-004	  4.16352E-001	  5.18261E-001	  4.76011E-001	  4.71201E-001
  1.00000E-003	  4.89022E-001	  4.88424E-001	  5.07382E-001	  4.96406E-001
  1.10000E-003	  4.74584E-001	  4.50272E-001	  5.45133E-001	  4.71737E-001
  1.20000E-003	  4.69772E-001	  4.46359E-001	  5.13762E-001	  4.83284E-001
  1.30000E-003	  4.65922E-001	  5.24620E-001	  5.11104E-001	  4.92732E-001
  1.40000E-003	  4.68328E-001	  4.84511E-001	  4.85582E-001	  4.80135E-001
  1.50000E-003	  4.76028E-001	  5.01141E-001	  5.28650E-001	  4.71212E-001
  1.60000E-003	  4.92389E-001	  4.94057E-001	  4.83984E-001	  5.04014E-001
  1.80000E-003	  4.62791E-001	  4.77916E-001	  4.72819E-001	  5.28683E-001
  2.00000E-003	  4.75796E-001	  4.82073E-001	  4.72553E-001	  5.17660E-001
  2.20000E-003	  5.00821E-001	  5.01394E-001	  4.93023E-001	  5.17398E-001
  2.40000E-003	  4.63283E-001	  4.53459E-001	  4.75211E-001	  4.91679E-001
  2.60000E-003	  5.03479E-001	  4.79394E-001	  4.95682E-001	  4.69372E-001
  2.80000E-003	  4.77982E-001	  4.72057E-001	  4.90631E-001	  5.00876E-001
  3.00000E-003	  4.93634E-001	  5.18280E-001	  4.69894E-001	  4.78569E-001
  3.20000E-003	  4.77878E-001	  4.92351E-001	  4.82661E-001	  4.72396E-001
  3.60000E-003	  4.48881E-001	  4.88927E-001	  5.00340E-001	  5.03757E-001
  4.00000E-003	  4.81969E-001	  4.72174E-001	  4.96618E-001	  4.90242E-001
  4.40000E-003	  4.74870E-001	  4.71073E-001	  4.96220E-001	  4.62172E-001
  4.80000E-003	  4.65726E-001	  4.51264E-001	  4.99942E-001	  5.00226E-001
  5.20000E-003	  4.57424E-001	  4.59956E-001	  4.85187E-001	  4.77000E-001
  5.60000E-003	  5.01340E-001	  4.67905E-001	  4.87181E-001	  4.94321E-001
  6.00000E-003	  4.78731E-001	  4.76587E-001	  4.99144E-001	  5.00357E-001
  6.40000E-003	  4.48170E-001	  4.72786E-001	  4.99799E-001	  4.99297E-001
  7.20000E-003	  4.57194E-001	  4.69851E-001	  4.81521E-001	  4.97263E-001
  8.00000E-003	  4.54116E-001	  4.66183E-001	  4.69757E-001	  4.85454E-001
  8.80000E-003	  4.63260E-001	  4.60741E-001	  4.77799E-001	  4.94180E-001
  9.60000E-003	  4.55018E-001	  4.45038E-001	  4.66434E-001	  4.59604E-001
  1.04000E-002	  4.58578E-001	  4.66682E-001	  4.63510E-001	  4.80074E-001
  1.12000E-002	  4.40410E-001	  4.50724E-001	  4.71352E-001	  4.89062E-001
  1.20000E-002	  4.57736E-001	  4.37334E-001	  4.80325E-001	  4.72922E-001
  1.28000E-002	  4.50056E-001	  4.47261E-001	  4.71842E-001	  4.70114E-001
  1.44000E-002	  4.42306E-001	  4.52549E-001	  4.67688E-001	  4.77528E-001
  1.60000E-002	  4.40752E-001	  4.60498E-001	  4.50707E-001	  4.64898E-001
  1.76000E-002	  4.34896E-001	  4.35919E-001	  4.55858E-001	  4.63750E-001
  1.92000E-002	  4.28640E-001	  4.39587E-001	  4.57951E-001	  4.53624E-001
  2.08000E-002	  4.26464E-001	  4.21336E-001	  4.42067E-001	  4.53428E-001
  2.24000E-002	  4.26233E-001	  4.28276E-001	  4.42399E-001	  4.55953E-001
  2.40000E-002	  4.24639E-001	  4.27328E-001	  4.34357E-001	  4.37878E-001
  2.56000E-002	  4.11441E-001	  4.14975E-001	  4.30681E-001	  4.47931E-001
  2.88000E-002	  4.11240E-001	  4.09992E-001	  4.32553E-001	  4.28052E-001
  3.20000E-002	  3.93493E-001	  4.00367E-001	  4.11633E-001	  4.21699E-001
  3.52000E-002	  3.90831E-001	  3.92404E-001	  4.02760E-001	  4.17707E-001
  3.84000E-002	  3.85917E-001	  3.83538E-001	  3.94291E-001	  4.12082E-001
  4.16000E-002	  3.72756E-001	  3.71687E-001	  3.90702E-001	  3.93416E-001
  4.48000E-002	  3.67406E-001	  3.69792E-001	  3.76499E-001	  3.90824E-001
  4.80000E-002	  3.56682E-001	  3.60508E-001	  3.64435E-001	  3.82207E-001
  5.12000E-002	  3.47289E-001	  3.47346E-001	  3.59795E-001	  3.76031E-001
  5.76000E-002	  3.40129E-001	  3.35968E-001	  3.49373E-001	  3.60332E-001
  6.40000E-002	  3.14637E-001	  3.20012E-001	  3.36989E-001	  3.37028E-001
  7.04000E-002	  3.01213E-001	  3.06520E-001	  3.26725E-001	  3.24403E-001
  7.68000E-002	  2.92665E-001	  2.92780E-001	  3.06547E-001	  3.10764E-001
  8.32000E-002	  2.72769E-001	  2.84470E-001	  2.96835E-001	  3.02645E-001
  8.96000E-002	  2.65769E-001	  2.74298E-001	  2.74077E-001	  2.80207E-001
  9.60000E-002	  2.56806E-001	  2.64370E-001	  2.74584E-001	  2.69425E-001
  1.02400E-001	  2.46660E-001	  2.54027E-001	  2.63276E-001	  2.63794E-001
  1.15200E-001	  2.24358E-001	  2.32404E-001	  2.37429E-001	  2.42801E-001
  1.28000E-001	  2.01458E-001	  2.18496E-001	  2.21598E-001	  2.19946E-001
  1.40800E-001	  1.84796E-001	  1.95933E-001	  2.05288E-001	  2.08428E-001
  1.53600E-001	  1.73898E-001	  1.86611E-001	  1.94980E-001	  1.91503E-001
  1.66400E-001	  1.58587E-001	  1.70373E-001	  1.81978E-001	  1.79428E-001
  1.79200E-001	  1.45832E-001	  1.57252E-001	  1.64579E-001	  1.67855E-001
  1.92000E-001	  1.32063E-001	  1.41999E-001	  1.56602E-001	  1.55836E-001
  2.04800E-001	  1.20951E-001	  1.33130E-001	  1.44932E-001	  1.42541E-001
  2.30400E-001	  1.01022E-001	  1.15368E-001	  1.23196E-001	  1.22623E-001
  2.56000E-001	  9.04196E-002	  9.59805E-002	  1.11924E-001	  1.05138E-001
  2.81600E-001	  7.86628E-002	  8.51337E-002	  9.70828E-002	  9.40638E-002
  3.07200E-001	  6.75005E-002	  7.20614E-002	  8.04606E-002	  8.40659E-002
  3.32800E-001	  6.07830E-002	  6.50622E-002	  7.44236E-002	  7.20416E-002
  3.58400E-001	  5.39695E-002	  5.54224E-002	  6.61224E-002	  6.51582E-002
  3.84000E-001	  4.68343E-002	  4.85204E-002	  5.49174E-002	  5.66799E-002
  4.09600E-001	  4.16034E-002	  4.40526E-002	  4.90884E-002	  5.27540E-002
  4.60800E-001	  3.12064E-002	  3.25568E-002	  3.26693E-002	  4.36884E-002
  5.12000E-001	  2.38362E-002	  2.48182E-002	  2.50742E-002	  3.01229E-002
  5.63200E-001	  1.95978E-002	  1.89752E-002	  2.67316E-002	  1.53641E-002
  6.14400E-001	  1.59184E-002	  1.28986E-002	  2.58834E-002	  1.09171E-002
  6.65600E-001	  1.75243E-002	  8.82136E-003	  2.10227E-002	  9.38672E-003
  7.16800E-001	  1.29985E-002	  7.39249E-003	  1.91589E-002	  8.15658E-003
  7.68000E-001	  1.33113E-002	  9.59930E-003	  1.26740E-002	  8.40572E-003
  8.19200E-001	  1.37216E-002	  7.44421E-003	  7.51175E-003	  7.24955E-003
  9.21600E-001	  7.85641E-003	  3.40879E-003	  6.37678E-003	  2.45047E-003
  1.02400E+000	  2.90934E-003	  1.15192E-003	  2.52662E-003	  2.55188E-003
  1.12640E+000	  1.99671E-003	  4.64880E-003	  2.42936E-003	  4.41771E-003
  1.22880E+000	 -3.18057E-003	  1.19950E-003	  9.77460E-004	  5.29718E-003
  1.33120E+000	 -3.43140E-003	  3.09549E-004	 -3.85929E-003	  6.57152E-003
  1.43360E+000	 -9.94017E-003	  1.40954E-003	 -9.59198E-003	  1.45205E-002
  1.53600E+000	 -1.37228E-002	 -5.48045E-003	 -1.33772E-002	  1.34954E-002
  1.63840E+000	 -1.25486E-002	 -6.00242E-003	 -6.11257E-003	  7.64459E-003
  1.84320E+000	 -7.94314E-003	 -5.60244E-003	  3.26326E-003	  4.97204E-003
  2.04800E+000	 -1.01064E-002	 -7.72069E-004	 -2.09037E-003	  1.03478E-002
  2.25280E+000	 -1.67754E-002	  6.16684E-003	 -4.85260E-003	  9.05951E-003
  2.45760E+000	 -4.48653E-003	  3.65043E-003	 -9.53839E-003	  2.11349E-003
  2.66240E+000	 -4.75641E-003	 -5.01082E-003	 -9.22721E-003	 -2.57551E-003
  2.86720E+000	 -5.77926E-003	  2.29552E-003	 -2.57731E-003	 -2.47887E-003
  3.07200E+000	 -5.26346E-003	  7.49719E-003	 -5.60902E-003	 -1.68054E-003
  3.27680E+000	  1.92874E-003	  1.53914E-003	  3.12779E-003	  1.99163E-003
  3.68640E+000	  7.14364E-003	 -4.92700E-003	  1.27913E-002	  5.01366E-003
  4.09600E+000	 -1.68254E-003	 -9.92210E-003	  6.81415E-003	  6.78795E-003
  4.50560E+000	  4.61345E-005	 -1.08929E-002	  2.28637E-004	 -9.84333E-003
  4.91520E+000	 -5.97464E-003	 -2.74452E-003	 -3.70635E-003	 -6.95252E-003
  5.32480E+000	 -6.38106E-004	 -4.48783E-003	 -6.59078E-003	 -5.58586E-003
  5.73440E+000	 -3.21530E-003	  2.36735E-004	 -4.29809E-003	 -9.13783E-003
  6.14400E+000	 -2.79843E-003	 -9.28482E-003	 -1.01502E-002	 -6.90089E-003
  6.55360E+000	  2.17899E-004	 -2.19384E-003	  2.86684E-003	 -2.99777E-003
  7.37280E+000	 -1.05862E-003	 -5.29940E-003	  9.73776E-003	  5.58851E-003
  8.19200E+000	  1.75183E-003	 -1.18851E-003	 -2.36015E-003	 -2.47822E-003
  9.01120E+000	 -1.65729E-003	 -8.10431E-003	 -1.09157E-002	  6.18704E-004
  9.83040E+000	 -6.54864E-003	 -6.94780E-003	 -9.64686E-004	 -4.90543E-003
  1.06496E+001	 -1.85445E-003	 -3.26449E-004	  4.44120E-005	 -6.78723E-003
  1.14688E+001	 -4.70428E-003	 -3.34301E-005	 -6.08121E-003	 -1.46379E-003
  1.22880E+001	 -2.01721E-003	 -1.43328E-003	 -6.48111E-003	 -2.06890E-003
  1.31072E+001	  2.06094E-003	 -3.68564E-004	 -8.63469E-004	 -5.04382E-003
  1.47456E+001	 -4.08609E-003	  3.72000E-003	  1.05972E-003	 -1.59257E-003
  1.63840E+001	  5.93160E-003	 -7.21925E-004	 -2.94819E-003	 -6.22724E-004
  1.80224E+001	  3.29189E-003	  3.68979E-003	  1.55907E-003	 -3.89594E-003
  1.96608E+001	 -3.08673E-003	  1.21764E-003	 -2.54834E-003	 -1.25185E-003
  2.12992E+001	  6.32677E-003	 -8.81803E-003	  4.94652E-003	  7.30489E-003
  2.29376E+001	 -3.64338E-003	 -3.53437E-003	  9.94303E-004	  3.32739E-003
  2.45760E+001	  5.42486E-005	  3.53430E-003	  3.50846E-003	  9.51062E-004
  2.62144E+001	 -8.36585E-004	  4.28181E-004	  2.07906E-003	 -6.39814E-004
  2.94912E+001	  4.28151E-003	  4.16176E-003	  2.22320E-003	  2.64527E-003
  3.27680E+001	 -2.75269E-003	 -1.54463E-003	  3.01588E-003	  3.10124E-003
  3.60448E+001	 -3.96880E-003	 -5.48339E-003	 -4.43314E-003	 -5.59571E-003
  3.93216E+001	 -9.37128E-004	  4.38223E-003	 -1.98819E-003	 -6.22854E-003
  4.25984E+001	  2.64538E-003	  5.23387E-004	 -1.96593E-004	  4.18205E-003
  4.58752E+001	 -8.15894E-007	  2.83795E-003	 -2.39251E-003	  9.12379E-003
  4.91520E+001	 -8.05262E-004	 -1.33762E-003	 -1.77831E-003	  6.68739E-003
  5.24288E+001	  3.47041E-004	 -5.47300E-004	 -3.94631E-004	  2.69486E-003
  5.89824E+001	 -2.33118E-004	 -6.60293E-004	 -3.48065E-004	 -6.40077E-004
  6.55360E+001	 -1.02350E-003	 -1.78084E-003	  2.19277E-003	  1.23088E-003
  7.20896E+001	  7.10356E-004	 -1.96566E-003	  2.28872E-003	  6.79220E-004
  7.86432E+001	 -1.80862E-003	 -2.02341E-003	 -2.47206E-003	  2.15786E-003
  8.51968E+001	 -2.51909E-004	 -2.27801E-003	 -1.67209E-003	 -1.94216E-003
  9.17504E+001	 -4.66132E-004	  4.25481E-003	  9.06306E-004	  1.03289E-003
  9.83040E+001	 -3.95884E-004	  1.91265E-003	 -8.05667E-004	  3.10866E-004
  1.04858E+002	 -5.09938E-004	 -8.85089E-005	 -1.80146E-003	 -5.14367E-004
  1.17965E+002	 -2.62927E-003	 -8.85557E-004	  5.97374E-004	  7.35535E-004
  1.31072E+002	  2.41374E-004	  1.01144E-003	  1.22782E-003	 -3.63614E-004
  1.44179E+002	  1.12792E-003	  1.13598E-003	 -8.04759E-004	 -5.17720E-004
  1.57286E+002	 -9.40016E-004	 -1.88186E-003	  1.66850E-004	 -1.46818E-003
  1.70394E+002	 -2.41417E-003	 -1.92113E-004	 -9.56214E-004	  5.62730E-004
  1.83501E+002	 -1.02150E-003	 -1.48801E-004	  5.75656E-004	  1.09915E-004
  1.96608E+002	  7.22811E-005	  5.01687E-004	  1.94510E-003	  6.72542E-004
  2.09715E+002	 -8.42503E-004	  4.23491E-004	  1.35017E-003	  3.50525E-005
  2.35930E+002	  4.35566E-004	  1.59026E-003	 -8.66037E-004	 -1.25952E-003
  2.62144E+002	  1.83721E-003	 -1.82848E-004	 -2.80343E-004	 -3.26474E-004
  2.88358E+002	  1.19322E-003	 -1.28299E-003	  1.36304E-004	 -3.74171E-004
  3.14573E+002	 -1.39596E-003	 -8.95646E-004	 -8.11590E-004	 -7.33592E-004
  3.40787E+002	 -2.43733E-004	  1.03825E-003	 -2.32434E-004	 -4.14831E-004
  3.67002E+002	 -8.42137E-004	 -2.05843E-004	  2.92981E-004	  3.47421E-004
  3.93216E+002	  1.02549E-004	 -1.06563E-004	 -1.06896E-003	 -6.84277E-004

"Count Rate"
       0.01311	     152.35901	     123.67249	     180.28259	     146.86584
       0.02621	     145.56885	     167.31262	     113.37280	     145.79773
       0.03932	     156.17371	     118.33191	     154.80042	     136.64246
       0.05243	     138.39722	     154.03748	     158.00476	     151.51978
       0.06554	     145.87402	     152.66418	     161.20911	     139.54163
       0.07864	     126.34277	     127.56348	     148.62061	     157.54700
       0.09175	     158.15735	     187.30164	     158.15735	     173.56873
       0.10486	     134.81140	     138.01575	     141.22009	     117.03491
       0.11796	     153.19824	     143.66150	     126.41907	     148.31543
       0.13107	     109.10034	     141.06750	     143.50891	     120.16296
       0.14418	     150.60425	     142.28821	     136.71875	     152.81677
       0.15729	     156.47888	     133.51440	     102.84424	     121.07849
       0.17039	     159.91211	     134.65881	     154.34265	     137.02393
       0.18350	     149.99390	     146.10291	     139.92310	     125.50354
       0.19661	     148.08655	     174.56055	     133.05664	     136.56616
       0.20972	     154.26636	     119.93408	     132.82776	     150.60425
       0.22282	     155.33447	     154.11377	     145.03479	     116.57715
       0.23593	     145.87402	     164.48975	     128.47900	     130.99670
       0.24904	     188.21716	     153.88489	     158.53882	     112.76245
       0.26214	     134.73511	     130.15747	     153.19824	     138.47351
       0.27525	     142.44080	     150.29907	     128.02124	     144.19556
       0.28836	     141.44897	     172.19543	     126.64795	     144.57703
       0.30147	     155.71594	     138.39722	     134.81140	     112.22839
       0.31457	     147.01843	     141.37268	     151.21460	     146.78955
       0.32768	     128.32642	     140.76233	     129.92859	     131.07300
       0.34079	     131.60706	     157.31812	     134.65881	     132.06482
       0.35389	     132.37000	     131.14929	     113.83057	     148.54431
       0.36700	     140.07568	     155.79224	     124.35913	     124.20654
       0.38011	     138.01575	     142.28821	     136.03210	     113.06763
       0.39322	     159.83582	     136.10840	     121.23108	     144.42444
       0.40632	     122.29919	     148.69690	     147.01843	     147.62878
       0.41943	     133.81958	     160.14099	     131.30188	     128.47900
       0.43254	     169.60144	     172.27173	     137.48169	     137.25281
       0.44564	     179.44336	     150.60425	     147.55249	     134.12476
       0.45875	     160.59875	     152.66418	     128.25012	     140.76233
       0.47186	     135.34546	     153.04565	     146.56067	     156.02112
       0.48497	     143.89038	     127.71606	     140.53345	     157.47070
       0.49807	     156.86035	     143.50891	     149.68872	     128.25012
       0.51118	     140.91492	     149.84131	     132.14111	     156.86035
       0.52429	     136.26099	     140.30457	     146.02661	     131.14929
       0.53740	     170.28809	     146.33179	     152.13013	     140.07568
       0.55050	     141.06750	     148.62061	     130.00488	     122.90955
       0.56361	     145.79773	     138.70239	     127.71606	     149.15466
       0.57672	     151.82495	     148.77319	     113.37280	     168.07556
       0.58982	     137.40540	     117.72156	     132.52258	     160.90393
       0.60293	     162.81128	     155.25818	     161.81946	     135.49805
       0.61604	     124.28284	     117.95044	     160.98022	     164.18457
       0.62915	     147.78137	     159.07288	     136.10840	     158.84399
       0.64225	     128.78418	     137.78687	     140.91492	     150.45166
       0.65536	     144.04297	     149.76501	     146.48438	     160.52246
       0.66847	     135.42175	     176.39160	     131.14929	     128.78418
       0.68157	     144.65332	     162.96387	     150.98572	     157.92847
       0.69468	     149.30725	     143.73779	     133.05664	     135.34546
       0.70779	     167.16003	     139.99939	     150.14648	     145.49255
       0.72090	     146.71326	     132.98035	     139.08386	     110.09216
       0.73400	     145.95032	     143.05115	     154.11377	     128.32642
       0.74711	     137.32910	     147.93396	     167.69409	     144.27185
