ALV-7004/USB-FAST
Date :	"3/14/2024"
Time :	"12:35:32 PM"
Samplename : 	""
SampMemo(0) : 	""
SampMemo(1) : 	""
SampMemo(2) : 	""
SampMemo(3) : 	""
SampMemo(4) : 	""
SampMemo(5) : 	""
SampMemo(6) : 	""
SampMemo(7) : 	""
SampMemo(8) : 	""
SampMemo(9) : 	""
Temperature [K] :	     298.16000
Viscosity [cp]  :	       0.89000
Refractive Index:	       1.33200
Wavelength [nm] :	       0.00000
Angle [°]       :	       0.00000
Duration [s]    :	         1
FloatDur [ms]   :	          944
Stop TP [ms]   :	      3918
Runs            :	         1
Mode            :	"A-CH0+1  A-CH2+3 "
MeanCR0 [kHz]   :	     115.92123
MeanCR1 [kHz]   :	     109.87705
MeanCR2 [kHz]   :	     106.38873
MeanCR3 [kHz]   :	     108.20707

"Correlation"
  3.12500E-006	 -1.00000E+000	 -1.00000E+000	 -1.00000E+000	 -1.00000E+000
  6.25000E-006	 -1.00000E+000	 -1.00000E+000	 -1.00000E+000	 -1.00000E+000
  9.37500E-006	 -1.00000E+000	 -1.00000E+000	 -1.00000E+000	 -1.00000E+000
  1.25000E-005	 -1.00000E+000	 -1.00000E+000	 -1.00000E+000	 -1.00000E+000
  1.56250E-005	 -1.00000E+000	 -1.00000E+000	 -1.00000E+000	 -1.00000E+000
  1.87500E-005	 -1.00000E+000	 -1.00000E+000	 -1.00000E+000	 -1.00000E+000
  2.18750E-005	 -9.24299E-001	 -1.85499E-001	 -4.00835E-001	 -8.84161E-001
  2.50000E-005	  6.57012E+000	  5.90921E+000	  6.78914E+000	  1.23794E+001
  2.81250E-005	  1.59907E+000	  1.52776E+000	  1.60637E+000	  4.99469E+000
  3.12500E-005	  1.17010E+000	  9.09864E-001	  9.47286E-001	  2.88062E+000
  3.43750E-005	  7.41128E-001	  6.00915E-001	  8.57411E-001	  2.59102E+000
  3.75000E-005	  5.64492E-001	  8.81778E-001	  5.57828E-001	  1.98286E+000
  4.06250E-005	  5.39258E-001	  6.85174E-001	  3.78079E-001	  1.37471E+000
  4.37500E-005	  1.06917E+000	  6.00915E-001	  8.87369E-001	  1.49055E+000
  4.68750E-005	  8.16829E-001	  6.00915E-001	  2.88204E-001	  9.69270E-001
  5.00000E-005	  7.78978E-001	  5.44743E-001	  5.42849E-001	  1.20095E+000
  5.62500E-005	  6.27576E-001	  5.30700E-001	  4.37995E-001	  1.33127E+000
  6.25000E-005	  7.28511E-001	  4.88570E-001	  7.67536E-001	  1.04167E+000
  6.87500E-005	  4.25706E-001	  5.58786E-001	  3.33142E-001	  1.05615E+000
  7.50000E-005	  6.52810E-001	  6.14958E-001	  7.22599E-001	  7.81031E-001
  8.12500E-005	  6.27576E-001	  2.91967E-001	  4.52975E-001	  9.54790E-001
  8.75000E-005	  6.40193E-001	  5.58786E-001	  3.63100E-001	  4.47992E-001
  9.37500E-005	  3.87855E-001	  4.46441E-001	  4.82933E-001	  7.66551E-001
  1.00000E-004	  4.44631E-001	  3.34096E-001	  3.63100E-001	  6.36231E-001
  1.12500E-004	  4.13089E-001	  5.02613E-001	  3.85568E-001	  6.00031E-001
  1.25000E-004	  3.81547E-001	  6.07937E-001	  4.90422E-001	  6.21751E-001
  1.37500E-004	  5.45566E-001	  6.21980E-001	  6.47703E-001	  3.24913E-001
  1.50000E-004	  4.13089E-001	  5.09635E-001	  5.72807E-001	  6.57951E-001
  1.62500E-004	  4.69865E-001	  4.60484E-001	  5.42849E-001	  6.14511E-001
  1.75000E-004	  3.43696E-001	  5.09635E-001	  7.60046E-001	  6.72431E-001
  1.87500E-004	  5.51875E-001	  3.83247E-001	  4.90422E-001	  6.21751E-001
  2.00000E-004	  5.67645E-001	  4.07822E-001	  3.55610E-001	  4.62472E-001
  2.25000E-004	  5.58183E-001	  4.60484E-001	  5.61573E-001	  6.10891E-001
  2.50000E-004	  4.38322E-001	  4.14843E-001	  3.89313E-001	  5.31251E-001
  2.75000E-004	  5.10869E-001	  4.21865E-001	  5.80297E-001	  5.05912E-001
  3.00000E-004	  5.58183E-001	  4.00800E-001	  5.05401E-001	  5.13152E-001
  3.25000E-004	  5.64491E-001	  5.51764E-001	  5.84041E-001	  5.05912E-001
  3.50000E-004	  4.91944E-001	  5.79850E-001	  4.41740E-001	  5.85551E-001
  3.75000E-004	  6.27575E-001	  4.63994E-001	  3.81823E-001	  5.89171E-001
  4.00000E-004	  4.71441E-001	  4.27131E-001	  3.83695E-001	  6.25370E-001
  4.50000E-004	  5.25063E-001	  5.07878E-001	  5.07273E-001	  4.42561E-001
  5.00000E-004	  5.14023E-001	  5.39475E-001	  3.96802E-001	  5.33061E-001
  5.50000E-004	  4.38322E-001	  4.76281E-001	  3.49992E-001	  4.96861E-001
  6.00000E-004	  5.04560E-001	  4.09577E-001	  5.61572E-001	  5.04101E-001
  6.50000E-004	  5.56605E-001	  4.99102E-001	  4.34250E-001	  3.53872E-001
  7.00000E-004	  5.36102E-001	  4.63994E-001	  4.71697E-001	  4.98671E-001
  7.50000E-004	  4.77749E-001	  5.97403E-001	  5.27869E-001	  4.73331E-001
  8.00000E-004	  5.00616E-001	  4.91201E-001	  4.81058E-001	  5.21295E-001
  9.00000E-004	  5.21907E-001	  4.53460E-001	  4.19269E-001	  5.06829E-001
  1.00000E-003	  5.02982E-001	  5.07877E-001	  5.35357E-001	  5.02304E-001
  1.10000E-003	  4.54092E-001	  4.23619E-001	  4.32376E-001	  4.67009E-001
  1.20000E-003	  5.29793E-001	  4.46439E-001	  4.66079E-001	  4.76964E-001
  1.30000E-003	  4.95885E-001	  4.95589E-001	  4.70760E-001	  4.78774E-001
  1.40000E-003	  4.90365E-001	  4.49072E-001	  4.98846E-001	  4.62484E-001
  1.50000E-003	  5.46352E-001	  4.63993E-001	  4.29567E-001	  5.09544E-001
  1.60000E-003	  4.92728E-001	  4.35904E-001	  4.13650E-001	  5.20402E-001
  1.80000E-003	  5.00614E-001	  4.94709E-001	  4.46885E-001	  5.10447E-001
  2.00000E-003	  5.00219E-001	  4.57846E-001	  4.77311E-001	  4.79224E-001
  2.20000E-003	  4.78929E-001	  4.59163E-001	  4.28161E-001	  4.92799E-001
  2.40000E-003	  4.97460E-001	  4.55213E-001	  5.03524E-001	  4.71984E-001
  2.60000E-003	  4.55666E-001	  5.10069E-001	  4.47821E-001	  5.57507E-001
  2.80000E-003	  5.32156E-001	  5.10069E-001	  4.65608E-001	  5.53434E-001
  3.00000E-003	  4.37924E-001	  5.21040E-001	  4.47821E-001	  5.09542E-001
  3.20000E-003	  4.75375E-001	  4.83733E-001	  4.74746E-001	  5.24469E-001
  3.60000E-003	  4.78726E-001	  4.93826E-001	  4.60703E-001	  4.63156E-001
  4.00000E-003	  4.59801E-001	  4.34582E-001	  4.66086E-001	  4.53653E-001
  4.40000E-003	  4.81092E-001	  4.55647E-001	  4.74512E-001	  4.71301E-001
  4.80000E-003	  4.68081E-001	  4.83733E-001	  4.52043E-001	  4.89853E-001
  5.20000E-003	  4.70447E-001	  4.90755E-001	  4.59767E-001	  5.24243E-001
  5.60000E-003	  4.88189E-001	  4.69032E-001	  4.62107E-001	  4.86700E-001
  6.00000E-003	  4.70644E-001	  4.49064E-001	  4.78491E-001	  4.79686E-001
  6.40000E-003	  4.80406E-001	  4.75166E-001	  4.51711E-001	  4.92361E-001
  7.20000E-003	  4.86714E-001	  4.55637E-001	  4.57445E-001	  4.80369E-001
  8.00000E-003	  4.74491E-001	  4.59806E-001	  4.50409E-001	  4.78220E-001
  8.80000E-003	  4.69070E-001	  4.48945E-001	  4.39292E-001	  4.57970E-001
  9.60000E-003	  4.69070E-001	  4.45873E-001	  4.64921E-001	  4.49260E-001
  1.04000E-002	  4.47484E-001	  4.51029E-001	  4.37303E-001	  4.80822E-001
  1.12000E-002	  4.62367E-001	  4.36767E-001	  4.45260E-001	  4.65550E-001
  1.20000E-002	  4.50835E-001	  4.17787E-001	  4.54856E-001	  4.69849E-001
  1.28000E-002	  4.48723E-001	  4.39655E-001	  4.30170E-001	  4.68726E-001
  1.44000E-002	  4.32544E-001	  4.27203E-001	  4.29058E-001	  4.52733E-001
  1.60000E-002	  4.37817E-001	  4.25831E-001	  4.09324E-001	  4.27802E-001
  1.76000E-002	  4.29045E-001	  4.09279E-001	  4.03765E-001	  4.47091E-001
  1.92000E-002	  4.15344E-001	  4.05837E-001	  4.05183E-001	  4.20675E-001
  2.08000E-002	  4.24067E-001	  3.97883E-001	  4.00780E-001	  4.29952E-001
  2.24000E-002	  4.09048E-001	  3.83085E-001	  3.97620E-001	  4.08288E-001
  2.40000E-002	  4.16835E-001	  3.90984E-001	  3.87438E-001	  3.95108E-001
  2.56000E-002	  3.94338E-001	  3.83815E-001	  3.88226E-001	  4.03002E-001
  2.88000E-002	  3.78604E-001	  3.79372E-001	  3.60239E-001	  3.78268E-001
  3.20000E-002	  3.75967E-001	  3.51711E-001	  3.54463E-001	  3.78919E-001
  3.52000E-002	  3.61872E-001	  3.44141E-001	  3.41765E-001	  3.54865E-001
  3.84000E-002	  3.26890E-001	  3.32704E-001	  3.21153E-001	  3.35418E-001
  4.16000E-002	  3.25178E-001	  3.09528E-001	  3.12303E-001	  3.38205E-001
  4.48000E-002	  3.14803E-001	  2.89313E-001	  2.97644E-001	  3.06117E-001
  4.80000E-002	  3.05573E-001	  2.96238E-001	  2.88444E-001	  3.01972E-001
  5.12000E-002	  2.93990E-001	  2.81079E-001	  2.79746E-001	  2.95375E-001
  5.76000E-002	  2.72118E-001	  2.58589E-001	  2.45481E-001	  2.72404E-001
  6.40000E-002	  2.44062E-001	  2.30448E-001	  2.37039E-001	  2.50468E-001
  7.04000E-002	  2.29141E-001	  2.15364E-001	  2.12231E-001	  2.25403E-001
  7.68000E-002	  2.05803E-001	  2.04612E-001	  2.01755E-001	  2.04444E-001
  8.32000E-002	  1.95500E-001	  1.86743E-001	  1.71877E-001	  1.96437E-001
  8.96000E-002	  1.79962E-001	  1.67407E-001	  1.64147E-001	  1.83443E-001
  9.60000E-002	  1.70488E-001	  1.66886E-001	  1.52374E-001	  1.53050E-001
  1.02400E-001	  1.58033E-001	  1.49821E-001	  1.39062E-001	  1.42106E-001
  1.15200E-001	  1.34431E-001	  1.32026E-001	  1.23151E-001	  1.31392E-001
  1.28000E-001	  1.19644E-001	  1.11158E-001	  1.05920E-001	  1.16353E-001
  1.40800E-001	  1.01450E-001	  1.05374E-001	  9.22993E-002	  1.01558E-001
  1.53600E-001	  8.91265E-002	  9.74274E-002	  8.26142E-002	  8.12477E-002
  1.66400E-001	  8.13070E-002	  8.71049E-002	  7.68679E-002	  6.92359E-002
  1.79200E-001	  7.34912E-002	  7.56678E-002	  6.57277E-002	  6.14579E-002
  1.92000E-001	  6.41189E-002	  6.99013E-002	  5.67110E-002	  5.96993E-002
  2.04800E-001	  5.73501E-002	  6.20070E-002	  4.55597E-002	  5.25460E-002
  2.30400E-001	  4.74519E-002	  4.43563E-002	  3.42548E-002	  3.77744E-002
  2.56000E-001	  3.62816E-002	  3.38446E-002	  2.30237E-002	  3.24401E-002
  2.81600E-001	  2.92918E-002	  2.04765E-002	  1.08602E-002	  2.49709E-002
  3.07200E-001	  2.65522E-002	  2.44091E-002	  9.11998E-003	  2.06367E-002
  3.32800E-001	  2.23897E-002	  2.29794E-002	  6.14896E-003	  1.61376E-002
  3.58400E-001	  1.49306E-002	  2.05447E-002	  2.50748E-003	  9.12483E-003
  3.84000E-001	  1.32268E-002	  2.05712E-002	  4.68950E-003	  7.54690E-003
  4.09600E-001	  9.78015E-003	  1.60753E-002	  3.80013E-003	  4.73135E-003
  4.60800E-001	  6.24723E-003	  9.61987E-003	  1.09120E-003	 -7.58864E-004
  5.12000E-001	  5.31452E-003	  5.30594E-003	 -3.11358E-003	  4.36166E-003
  5.63200E-001	  5.42401E-003	  4.68381E-003	 -2.56615E-003	  3.59321E-003
  6.14400E-001	  2.15753E-003	  3.73220E-003	  8.91192E-003	  2.54139E-003
  6.65600E-001	 -4.31611E-004	  3.02430E-003	  9.14698E-003	  6.11013E-003
  7.16800E-001	 -5.91313E-003	 -9.17311E-005	  3.24429E-003	  9.50947E-003
  7.68000E-001	 -8.27183E-003	  6.00927E-003	  4.28336E-003	  6.68638E-003
  8.19200E-001	 -5.86254E-003	  3.93827E-003	  5.41677E-003	  5.43511E-003
  9.21600E-001	 -1.70256E-003	  1.86231E-003	 -2.01474E-003	 -4.09726E-004
  1.02400E+000	  5.28313E-004	 -4.21954E-003	 -6.24108E-003	  9.44227E-004
  1.12640E+000	  1.76190E-003	  3.09627E-004	 -5.39036E-003	 -1.42153E-003
  1.22880E+000	  7.12185E-003	  6.16084E-003	 -8.11631E-003	  3.04855E-003
  1.33120E+000	  3.66110E-003	  8.27935E-003	 -3.60495E-003	  3.78773E-003
  1.43360E+000	  6.65436E-003	  3.84844E-003	 -5.15036E-003	  1.28196E-002
  1.53600E+000	  3.07792E-003	 -1.58251E-003	  5.55911E-004	 -8.18329E-004
  1.63840E+000	  4.85404E-004	  1.51149E-003	 -2.18310E-003	  2.81413E-003
  1.84320E+000	  2.22906E-003	  1.07269E-003	 -1.03920E-002	 -1.84970E-003
  2.04800E+000	 -5.96969E-003	  7.65613E-003	 -1.16755E-002	 -2.86755E-003
  2.25280E+000	  3.71597E-004	  3.61170E-003	 -1.42054E-003	  5.48807E-004
  2.45760E+000	 -4.83423E-003	 -1.41279E-004	  3.84429E-003	  8.57460E-003
  2.66240E+000	 -4.60881E-003	  1.30308E-003	 -5.85573E-003	  6.59364E-003
  2.86720E+000	 -2.53421E-003	  3.79083E-003	 -2.21974E-003	 -3.18282E-003
  3.07200E+000	  2.18866E-003	  7.51279E-003	 -8.92133E-004	 -4.38192E-003
  3.27680E+000	  7.66766E-004	  2.12738E-003	  1.14537E-003	  7.09109E-004
  3.68640E+000	 -4.42798E-003	  5.19199E-004	  9.06185E-003	  1.91228E-003
  4.09600E+000	 -3.38738E-003	 -1.79491E-004	  4.48753E-003	  1.59408E-003
  4.50560E+000	  1.27863E-003	  3.12354E-003	 -1.71055E-003	 -3.40437E-003
  4.91520E+000	 -1.59652E-003	  3.30301E-003	 -3.18628E-003	  4.53412E-003
  5.32480E+000	  1.47137E-003	  5.03248E-003	 -5.22724E-003	 -5.90398E-004
  5.73440E+000	 -3.58297E-003	  2.96554E-003	  1.25750E-004	  1.67618E-003
  6.14400E+000	  1.09774E-003	 -2.72111E-003	  4.24296E-003	 -3.06418E-005
  6.55360E+000	 -3.16103E-003	 -3.08531E-003	 -1.22368E-003	  1.93355E-003
  7.37280E+000	 -6.16517E-003	 -4.45289E-003	  5.40252E-003	  2.47218E-003
  8.19200E+000	  6.63043E-004	 -4.61105E-003	 -3.49303E-003	  2.31423E-003
  9.01120E+000	 -4.28342E-003	 -4.05376E-003	 -4.58478E-003	  1.49089E-003
  9.83040E+000	 -6.45947E-003	  3.12910E-003	 -9.69284E-005	 -4.25095E-004
  1.06496E+001	  1.07844E-003	  9.09754E-003	  9.21949E-004	 -6.99803E-004
  1.14688E+001	  2.75565E-003	  3.53340E-003	 -1.90854E-003	 -8.95628E-003
  1.22880E+001	  1.42173E-003	  2.74192E-005	 -8.59906E-004	 -8.40948E-005
  1.31072E+001	  2.04390E-003	  8.64531E-005	  2.24730E-003	 -2.31888E-003
  1.47456E+001	 -2.23291E-005	  7.34084E-004	 -1.04976E-003	 -4.56713E-003
  1.63840E+001	  5.07021E-003	 -4.26524E-004	 -6.06632E-003	 -1.96847E-003
  1.80224E+001	 -1.79052E-005	  2.08166E-003	 -2.78458E-003	  3.87022E-003
  1.96608E+001	  3.12890E-004	 -1.41235E-004	 -7.14292E-004	 -2.40741E-003
  2.12992E+001	 -2.59484E-004	  2.72400E-003	  1.91206E-003	  4.26089E-003
  2.29376E+001	  3.57225E-003	 -2.51066E-003	  9.75554E-004	  2.79726E-004
  2.45760E+001	 -3.07222E-004	 -3.24656E-003	  2.70364E-003	  4.45915E-003
  2.62144E+001	 -3.30271E-003	 -1.19130E-003	 -1.12791E-003	  2.38445E-003
  2.94912E+001	  9.96752E-004	  9.90133E-004	  5.80683E-004	  1.20527E-004
  3.27680E+001	 -4.59949E-004	  1.02341E-003	 -7.05925E-004	  2.19829E-003
  3.60448E+001	  2.92950E-003	 -2.75547E-004	 -1.89477E-003	  4.81073E-004
  3.93216E+001	 -1.30146E-003	  1.37221E-003	 -1.01120E-003	 -1.02899E-003
  4.25984E+001	 -2.02554E-003	 -2.97810E-004	  1.79345E-003	 -1.67690E-003
  4.58752E+001	 -2.98302E-003	 -2.20753E-003	 -1.27644E-003	  2.05287E-003
  4.91520E+001	 -7.03637E-004	 -4.67384E-003	  2.05991E-003	 -3.04169E-004
  5.24288E+001	 -1.33776E-003	 -1.32186E-003	  3.75043E-004	  2.21930E-004
  5.89824E+001	  9.91679E-005	 -9.75974E-004	 -1.88543E-003	  4.73788E-004
  6.55360E+001	 -2.46525E-003	 -7.13912E-004	 -1.69629E-003	  1.76947E-003
  7.20896E+001	  2.41699E-003	 -2.34182E-003	 -7.00042E-004	 -1.52323E-003
  7.86432E+001	 -2.93442E-003	 -8.98406E-004	  1.17076E-003	  3.47992E-004
  8.51968E+001	  5.32523E-004	 -2.48673E-003	  2.19700E-005	  1.32196E-003
  9.17504E+001	 -5.33768E-004	 -2.98636E-004	  1.35546E-003	 -3.38629E-004
  9.83040E+001	 -9.91572E-004	  5.35439E-004	 -1.62630E-004	 -2.26590E-003
  1.04858E+002	 -4.08269E-004	 -3.50741E-004	 -1.69301E-003	  8.69252E-004
  1.17965E+002	 -2.30202E-003	 -9.25011E-004	 -2.84131E-005	  2.59169E-004
  1.31072E+002	 -1.01697E-003	  1.94011E-004	  8.78990E-004	 -5.68141E-004
  1.44179E+002	 -6.51628E-004	  1.52452E-003	 -2.41779E-005	  5.41107E-004
  1.57286E+002	  2.49358E-004	 -2.00347E-004	  3.43508E-004	 -5.92178E-004
  1.70394E+002	  1.30025E-003	 -1.54790E-004	 -1.88217E-004	  1.48622E-004
  1.83501E+002	 -1.14904E-004	  8.33565E-004	 -1.36781E-003	 -1.30878E-004
  1.96608E+002	  1.90191E-003	 -9.58455E-004	 -1.11196E-003	 -5.48711E-004
  2.09715E+002	  1.36086E-003	 -6.63282E-004	 -5.50186E-005	 -1.10376E-003
  2.35930E+002	  2.20155E-004	  1.76897E-004	  3.89773E-004	 -2.08306E-004
  2.62144E+002	  5.69164E-004	 -1.57099E-004	  6.60882E-004	  2.04453E-004
  2.88358E+002	  6.05909E-004	  7.21313E-004	  1.01319E-004	  6.08051E-004
  3.14573E+002	 -3.59138E-004	 -3.00714E-004	 -5.51837E-004	  1.20251E-003
  3.40787E+002	 -1.68668E-003	 -3.08857E-004	 -5.22022E-004	  1.70021E-004
  3.67002E+002	 -2.34489E-004	 -1.80540E-004	  7.35259E-004	  1.52682E-004
  3.93216E+002	  3.26654E-004	  9.91780E-004	  1.56435E-005	 -8.60547E-005

"Count Rate"
       0.01311	     116.19568	     119.24744	     104.82788	      81.25305
       0.02621	     113.44910	     105.97229	      92.39197	     101.47095
       0.03932	     109.17664	      96.51184	     110.85510	     104.14124
       0.05243	     123.06213	      95.74890	     108.48999	     112.68616
       0.06554	      93.84155	      89.03503	     104.90417	      92.46826
       0.07864	     110.70251	     111.46545	     109.40552	     112.07581
       0.09175	     118.10303	     120.31555	     108.26111	     109.55811
       0.10486	     120.84961	     131.22559	      98.80066	      92.84973
       0.11796	     120.46814	     109.93958	      95.59631	     109.48181
       0.13107	     109.02405	     106.35376	     114.13574	      87.73804
       0.14418	      97.50366	     108.10852	     108.03223	     101.24207
       0.15729	     120.31555	     102.15759	     108.33740	     113.06763
       0.17039	     121.68884	      91.32385	     123.06213	      92.01050
       0.18350	     110.24475	      95.44373	      97.65625	     106.27747
       0.19661	     125.35095	     106.88782	      90.48462	     107.80334
       0.20972	     123.51990	     109.93958	     109.02405	     125.57983
       0.22282	     119.32373	     116.42456	     121.23108	     104.44641
       0.23593	     102.46277	     108.64258	      88.65356	      95.36743
       0.24904	      96.20667	     117.64526	     109.78699	      92.77344
       0.26214	     109.25293	     119.93408	     109.86328	     113.90686
       0.27525	     108.94775	     105.81970	      99.48730	     102.84424
       0.28836	     111.69434	     117.11121	     100.78430	     112.15210
       0.30147	     119.70520	     117.26379	     112.07581	     110.09216
       0.31457	     111.77063	     103.53088	     110.70251	      95.21484
       0.32768	     106.88782	     105.59082	      92.39197	     107.87964
       0.34079	     110.32104	     109.40552	     100.63171	      99.56360
       0.35389	     136.33728	     131.98853	      90.63721	     103.45459
       0.36700	     132.67517	      91.78162	     105.28564	     115.50903
       0.38011	     118.63708	     117.03491	     127.33459	     105.43823
       0.39322	     121.30737	     111.38916	     109.17664	     112.22839
       0.40632	     115.81421	      91.24756	     115.12756	     113.60168
       0.41943	     109.63440	     124.89319	      98.87695	     111.08398
       0.43254	     117.64526	     113.44910	     101.08948	     107.26929
       0.44564	     109.25293	     107.19299	     109.93958	     106.20117
       0.45875	     112.76245	     100.63171	     117.72156	     109.40552
       0.47186	     108.56628	     107.57446	      99.10583	      97.42737
       0.48497	     109.78699	     111.69434	     110.24475	      98.57178
       0.49807	     102.46277	     110.09216	     109.86328	      97.12219
       0.51118	     117.34009	     100.40283	     111.69434	     103.91235
       0.52429	     115.58533	     117.11121	     103.37830	     117.34009
       0.53740	     100.40283	     111.08398	     106.12488	      95.06226
       0.55050	     109.48181	      96.20667	      91.47644	     109.86328
       0.56361	     130.69153	     113.37280	     101.08948	      95.90149
       0.57672	     114.21204	      98.11401	     101.77612	     106.65894
       0.58982	     116.27197	      96.35925	      95.52002	      92.69714
       0.60293	     106.04858	     115.73792	     103.91235	     110.39734
       0.61604	     111.31287	      98.95325	     107.65076	     102.00500
       0.62915	     121.30737	     113.29651	     108.41370	     105.43823
       0.64225	     110.09216	     114.21204	     101.16577	     102.15759
       0.65536	     137.78687	     109.17664	     118.17932	     119.40002
       0.66847	     117.34009	     132.21741	     118.78967	     115.89050
       0.68157	     113.44910	     132.82776	     103.83606	     109.48181
       0.69468	     104.29382	      97.19849	      98.49548	     121.45996
       0.70779	     103.83606	     103.07312	     106.35376	     134.42993
       0.72090	     106.81152	      95.44373	      91.40015	     109.40552
       0.73400	     109.71069	     106.27747	     106.88782	     111.16028
       0.74711	     117.34009	      91.85791	     107.04041	     117.11121
