ALV-7004/USB-FAST
Date :	"3/14/2024"
Time :	"12:33:36 PM"
Samplename : 	""
SampMemo(0) : 	""
SampMemo(1) : 	""
SampMemo(2) : 	""
SampMemo(3) : 	""
SampMemo(4) : 	""
SampMemo(5) : 	""
SampMemo(6) : 	""
SampMemo(7) : 	""
SampMemo(8) : 	""
SampMemo(9) : 	""
Temperature [K] :	     298.16000
Viscosity [cp]  :	       0.89000
Refractive Index:	       1.33200
Wavelength [nm] :	       0.00000
Angle [°]       :	       0.00000
Duration [s]    :	         1
FloatDur [ms]   :	          944
Stop TP [ms]   :	      3298
Runs            :	         1
Mode            :	"A-CH0+1  A-CH2+3 "
MeanCR0 [kHz]   :	     122.25893
MeanCR1 [kHz]   :	     120.93120
MeanCR2 [kHz]   :	     113.32194
MeanCR3 [kHz]   :	     115.08518

"Correlation"
  3.12500E-006	 -1.00000E+000	 -1.00000E+000	 -1.00000E+000	 -1.00000E+000
  6.25000E-006	 -1.00000E+000	 -1.00000E+000	 -1.00000E+000	 -1.00000E+000
  9.37500E-006	 -1.00000E+000	 -1.00000E+000	 -1.00000E+000	 -1.00000E+000
  1.25000E-005	 -1.00000E+000	 -1.00000E+000	 -1.00000E+000	 -1.00000E+000
  1.56250E-005	 -1.00000E+000	 -1.00000E+000	 -1.00000E+000	 -1.00000E+000
  1.87500E-005	 -1.00000E+000	 -1.00000E+000	 -1.00000E+000	 -1.00000E+000
  2.18750E-005	 -1.00000E+000	 -1.65294E-001	 -2.87076E-001	 -9.23195E-001
  2.50000E-005	  5.91905E+000	  6.79059E+000	  6.55171E+000	  1.16984E+001
  2.81250E-005	  1.76762E+000	  1.34181E+000	  1.21799E+000	  3.96673E+000
  3.12500E-005	  9.96315E-001	  1.08676E+000	  9.27536E-001	  2.60984E+000
  3.43750E-005	  8.37517E-001	  6.23039E-001	  8.21917E-001	  2.35382E+000
  3.75000E-005	  4.97236E-001	  9.24460E-001	  7.69108E-001	  1.89299E+000
  4.06250E-005	  3.38438E-001	  7.85342E-001	  8.48322E-001	  1.58577E+000
  4.37500E-005	  8.37517E-001	  4.14362E-001	  6.37085E-001	  1.30415E+000
  4.68750E-005	  8.60202E-001	  8.78087E-001	  2.93825E-001	  1.48336E+000
  5.00000E-005	  7.46775E-001	  7.73749E-001	  4.78657E-001	  1.13774E+000
  5.62500E-005	  6.33348E-001	  7.96935E-001	  8.21917E-001	  8.81725E-001
  6.25000E-005	  5.76635E-001	  5.07107E-001	  5.18264E-001	  7.15314E-001
  6.87500E-005	  6.90062E-001	  4.14362E-001	  5.44669E-001	  8.68924E-001
  7.50000E-005	  6.67377E-001	  4.37548E-001	  4.52253E-001	  8.68924E-001
  8.12500E-005	  6.44691E-001	  6.92597E-001	  5.18264E-001	  9.58530E-001
  8.75000E-005	  5.65292E-001	  5.65073E-001	  3.73039E-001	  7.15314E-001
  9.37500E-005	  4.85893E-001	  6.69411E-001	  4.65455E-001	  5.87305E-001
  1.00000E-004	  5.82306E-001	  5.30293E-001	  4.58854E-001	  7.21714E-001
  1.12500E-004	  4.51865E-001	  4.02769E-001	  5.77674E-001	  5.87305E-001
  1.25000E-004	  4.00823E-001	  3.96972E-001	  4.65455E-001	  5.87305E-001
  1.37500E-004	  4.74551E-001	  5.30293E-001	  6.04079E-001	  5.68104E-001
  1.50000E-004	  5.53949E-001	  5.24497E-001	  6.23882E-001	  4.78498E-001
  1.62500E-004	  5.25593E-001	  5.24497E-001	  4.91859E-001	  3.95292E-001
  1.75000E-004	  4.68879E-001	  3.91176E-001	  5.44669E-001	  3.63290E-001
  1.87500E-004	  7.07076E-001	  5.12904E-001	  4.06045E-001	  5.29701E-001
  2.00000E-004	  5.87977E-001	  4.52039E-001	  4.78657E-001	  6.51309E-001
  2.25000E-004	  4.32015E-001	  5.91157E-001	  5.11663E-001	  4.17693E-001
  2.50000E-004	  3.55452E-001	  4.69429E-001	  6.20582E-001	  4.49696E-001
  2.75000E-004	  5.62456E-001	  4.66531E-001	  5.28165E-001	  5.07299E-001
  3.00000E-004	  5.62456E-001	  4.17260E-001	  6.50287E-001	  5.04099E-001
  3.25000E-004	  5.22757E-001	  5.15801E-001	  4.48952E-001	  3.79291E-001
  3.50000E-004	  5.02907E-001	  4.11463E-001	  4.35749E-001	  4.97699E-001
  3.75000E-004	  5.36935E-001	  5.41886E-001	  5.01761E-001	  5.87305E-001
  4.00000E-004	  4.68878E-001	  4.67979E-001	  5.24864E-001	  4.97698E-001
  4.50000E-004	  5.36934E-001	  4.70878E-001	  4.42350E-001	  4.94498E-001
  5.00000E-004	  4.68878E-001	  4.65081E-001	  4.96809E-001	  4.14493E-001
  5.50000E-004	  5.22756E-001	  5.14352E-001	  4.02743E-001	  3.87291E-001
  6.00000E-004	  5.17085E-001	  4.75225E-001	  4.32448E-001	  4.24093E-001
  6.50000E-004	  5.34099E-001	  4.66530E-001	  4.29148E-001	  3.82491E-001
  7.00000E-004	  3.99404E-001	  4.82471E-001	  4.98460E-001	  4.99298E-001
  7.50000E-004	  5.08578E-001	  4.18708E-001	  4.62153E-001	  5.29700E-001
  8.00000E-004	  5.19919E-001	  4.52762E-001	  4.64628E-001	  4.33693E-001
  9.00000E-004	  4.63206E-001	  4.85368E-001	  4.35748E-001	  4.56894E-001
  1.00000E-003	  4.62497E-001	  5.47681E-001	  4.47300E-001	  4.44093E-001
  1.10000E-003	  5.21337E-001	  5.07829E-001	  4.35748E-001	  4.81696E-001
  1.20000E-003	  4.89436E-001	  4.73775E-001	  4.40698E-001	  4.64895E-001
  1.30000E-003	  4.70295E-001	  4.57834E-001	  4.88557E-001	  4.72895E-001
  1.40000E-003	  4.49027E-001	  4.53487E-001	  5.10836E-001	  4.48894E-001
  1.50000E-003	  5.29135E-001	  4.40444E-001	  4.81956E-001	  4.90496E-001
  1.60000E-003	  4.60013E-001	  4.35370E-001	  4.93505E-001	  4.78520E-001
  1.80000E-003	  4.61785E-001	  4.99132E-001	  4.47710E-001	  4.89321E-001
  2.00000E-003	  4.77381E-001	  4.38993E-001	  4.72051E-001	  4.74520E-001
  2.20000E-003	  4.68520E-001	  4.70149E-001	  4.63387E-001	  4.64119E-001
  2.40000E-003	  4.94041E-001	  4.55658E-001	  4.69988E-001	  4.84521E-001
  2.60000E-003	  4.90851E-001	  4.60368E-001	  4.52661E-001	  4.21316E-001
  2.80000E-003	  4.66393E-001	  4.38268E-001	  4.77415E-001	  4.76920E-001
  3.00000E-003	  4.53987E-001	  4.78482E-001	  4.78240E-001	  4.37717E-001
  3.20000E-003	  4.62312E-001	  4.37551E-001	  4.92056E-001	  4.48340E-001
  3.60000E-003	  4.41045E-001	  4.92632E-001	  4.52243E-001	  4.40126E-001
  4.00000E-003	  4.47248E-001	  4.60750E-001	  4.76585E-001	  4.77329E-001
  4.40000E-003	  4.41222E-001	  4.69264E-001	  4.97213E-001	  4.30925E-001
  4.80000E-003	  4.55755E-001	  5.05493E-001	  4.70602E-001	  4.62914E-001
  5.20000E-003	  4.76313E-001	  4.87016E-001	  4.53068E-001	  4.24911E-001
  5.60000E-003	  4.49020E-001	  4.55316E-001	  5.01132E-001	  4.86916E-001
  6.00000E-003	  4.52742E-001	  4.45534E-001	  4.43579E-001	  4.82116E-001
  6.40000E-003	  4.58416E-001	  4.60779E-001	  4.71727E-001	  4.59431E-001
  7.20000E-003	  4.53896E-001	  4.74727E-001	  4.49758E-001	  4.46330E-001
  8.00000E-003	  4.41414E-001	  4.61672E-001	  4.52955E-001	  4.41129E-001
  8.80000E-003	  4.34148E-001	  4.66382E-001	  4.65951E-001	  4.33328E-001
  9.60000E-003	  4.55871E-001	  4.73356E-001	  4.39354E-001	  4.31728E-001
  1.04000E-002	  4.54187E-001	  4.57143E-001	  4.30690E-001	  4.44216E-001
  1.12000E-002	  4.69708E-001	  4.52252E-001	  4.52556E-001	  4.56204E-001
  1.20000E-002	  4.38971E-001	  4.58502E-001	  4.36775E-001	  4.25901E-001
  1.28000E-002	  4.50775E-001	  4.64932E-001	  4.47393E-001	  4.24758E-001
  1.44000E-002	  4.64479E-001	  4.63935E-001	  4.40173E-001	  4.30809E-001
  1.60000E-002	  4.44318E-001	  4.61729E-001	  4.55438E-001	  4.25358E-001
  1.76000E-002	  4.34038E-001	  4.54651E-001	  4.46310E-001	  4.45760E-001
  1.92000E-002	  4.41337E-001	  4.43148E-001	  4.45756E-001	  4.33309E-001
  2.08000E-002	  4.28810E-001	  4.62745E-001	  4.18630E-001	  4.29259E-001
  2.24000E-002	  4.30095E-001	  4.42773E-001	  4.31987E-001	  4.18158E-001
  2.40000E-002	  4.26949E-001	  4.36705E-001	  4.35906E-001	  4.12831E-001
  2.56000E-002	  4.22472E-001	  4.39778E-001	  4.33822E-001	  4.04207E-001
  2.88000E-002	  4.18516E-001	  4.27618E-001	  4.29696E-001	  4.19933E-001
  3.20000E-002	  4.06086E-001	  4.27233E-001	  4.11606E-001	  4.04807E-001
  3.52000E-002	  4.13198E-001	  4.22986E-001	  4.17305E-001	  4.04532E-001
  3.84000E-002	  4.09289E-001	  4.23371E-001	  4.04953E-001	  4.00181E-001
  4.16000E-002	  4.00739E-001	  4.13022E-001	  4.10987E-001	  3.87131E-001
  4.48000E-002	  3.92917E-001	  4.07359E-001	  4.05984E-001	  3.93131E-001
  4.80000E-002	  4.02257E-001	  3.91451E-001	  3.82389E-001	  3.80805E-001
  5.12000E-002	  3.89167E-001	  3.95447E-001	  3.90890E-001	  3.73244E-001
  5.76000E-002	  3.76671E-001	  3.87804E-001	  3.81760E-001	  3.72069E-001
  6.40000E-002	  3.70753E-001	  3.83241E-001	  3.63605E-001	  3.57205E-001
  7.04000E-002	  3.53588E-001	  3.68125E-001	  3.61207E-001	  3.52055E-001
  7.68000E-002	  3.41631E-001	  3.52829E-001	  3.47965E-001	  3.38453E-001
  8.32000E-002	  3.30617E-001	  3.53090E-001	  3.37367E-001	  3.29302E-001
  8.96000E-002	  3.25808E-001	  3.40420E-001	  3.40797E-001	  3.18138E-001
  9.60000E-002	  3.24312E-001	  3.33683E-001	  3.20887E-001	  3.11861E-001
  1.02400E-001	  3.14413E-001	  3.22968E-001	  3.15172E-001	  3.00254E-001
  1.15200E-001	  2.96950E-001	  3.07305E-001	  2.96819E-001	  2.83069E-001
  1.28000E-001	  2.78745E-001	  2.89246E-001	  2.84672E-001	  2.60991E-001
  1.40800E-001	  2.65512E-001	  2.76780E-001	  2.65133E-001	  2.47582E-001
  1.53600E-001	  2.48517E-001	  2.57826E-001	  2.53295E-001	  2.36761E-001
  1.66400E-001	  2.38128E-001	  2.44034E-001	  2.41652E-001	  2.20302E-001
  1.79200E-001	  2.21141E-001	  2.30035E-001	  2.28639E-001	  2.11687E-001
  1.92000E-001	  2.08929E-001	  2.16221E-001	  2.14569E-001	  1.92658E-001
  2.04800E-001	  1.99529E-001	  2.07854E-001	  2.04928E-001	  1.83109E-001
  2.30400E-001	  1.75161E-001	  1.85510E-001	  1.81054E-001	  1.64694E-001
  2.56000E-001	  1.52170E-001	  1.68171E-001	  1.61671E-001	  1.48901E-001
  2.81600E-001	  1.35730E-001	  1.52602E-001	  1.39175E-001	  1.34469E-001
  3.07200E-001	  1.18299E-001	  1.35323E-001	  1.22726E-001	  1.22928E-001
  3.32800E-001	  1.06710E-001	  1.27159E-001	  1.15871E-001	  1.14540E-001
  3.58400E-001	  9.30565E-002	  1.15216E-001	  9.78373E-002	  1.04367E-001
  3.84000E-001	  8.00579E-002	  1.03638E-001	  9.12078E-002	  9.85957E-002
  4.09600E-001	  7.21585E-002	  9.53269E-002	  8.16217E-002	  8.84381E-002
  4.60800E-001	  6.34395E-002	  8.23988E-002	  6.59233E-002	  7.49587E-002
  5.12000E-001	  4.90042E-002	  6.88476E-002	  5.28100E-002	  5.91372E-002
  5.63200E-001	  3.75233E-002	  5.74644E-002	  4.25365E-002	  5.02688E-002
  6.14400E-001	  3.19256E-002	  5.32710E-002	  3.20104E-002	  4.15104E-002
  6.65600E-001	  2.79470E-002	  4.84238E-002	  2.75799E-002	  3.25127E-002
  7.16800E-001	  2.18688E-002	  4.39647E-002	  2.09651E-002	  2.60070E-002
  7.68000E-001	  1.91072E-002	  3.30517E-002	  1.65490E-002	  2.05254E-002
  8.19200E-001	  1.52730E-002	  2.79788E-002	  1.06287E-002	  1.97496E-002
  9.21600E-001	  1.44142E-002	  2.28386E-002	  3.75435E-003	  1.86680E-002
  1.02400E+000	  1.10478E-002	  2.06646E-002	  3.58135E-003	  1.79140E-002
  1.12640E+000	  1.18339E-002	  2.04111E-002	  2.56183E-003	  1.79595E-002
  1.22880E+000	  1.00298E-002	  1.75099E-002	  3.19205E-003	  1.56284E-002
  1.33120E+000	  1.07416E-002	  8.49657E-003	  1.58817E-004	  1.35195E-002
  1.43360E+000	  1.06012E-002	  1.93455E-003	 -2.05363E-003	  8.22921E-003
  1.53600E+000	  1.12712E-002	 -3.84092E-003	 -1.82177E-003	  5.28505E-003
  1.63840E+000	  1.14865E-002	 -9.72652E-003	 -2.62315E-003	  2.58930E-003
  1.84320E+000	  3.02322E-003	 -1.36165E-002	 -6.13966E-003	 -4.38340E-004
  2.04800E+000	  9.50882E-004	 -6.51381E-003	 -1.22871E-002	 -2.03850E-003
  2.25280E+000	  6.56822E-003	 -4.67572E-003	 -1.20582E-002	 -5.44691E-003
  2.45760E+000	  9.16029E-003	 -1.68754E-003	 -8.16382E-003	 -2.95956E-003
  2.66240E+000	  7.47164E-003	  9.51208E-004	 -9.93665E-003	  1.53738E-003
  2.86720E+000	  1.43119E-002	  1.13761E-004	 -7.13096E-003	 -3.56612E-003
  3.07200E+000	  1.98589E-002	  9.80629E-004	  2.47010E-003	 -1.02783E-002
  3.27680E+000	  8.93388E-003	 -2.84969E-003	  8.02819E-003	  2.65523E-003
  3.68640E+000	 -3.82673E-003	 -2.57062E-003	  1.05709E-002	  3.68494E-003
  4.09600E+000	 -2.82348E-003	 -3.14045E-003	  9.51116E-003	  3.30861E-003
  4.50560E+000	 -1.43348E-002	 -4.16932E-003	 -4.06842E-004	  2.48207E-003
  4.91520E+000	 -2.29425E-002	  1.75590E-003	  1.78593E-003	  4.09937E-003
  5.32480E+000	 -5.06236E-003	  5.53698E-003	  4.14460E-003	 -4.01973E-004
  5.73440E+000	 -4.83011E-004	  3.30069E-004	  5.49151E-003	 -7.03970E-003
  6.14400E+000	 -1.17428E-002	  8.53353E-003	 -4.46373E-003	 -4.77038E-004
  6.55360E+000	  1.55308E-003	  1.23385E-002	 -6.72463E-003	  1.31804E-003
  7.37280E+000	  7.10414E-003	 -3.53277E-003	  1.26801E-002	 -7.89340E-003
  8.19200E+000	 -4.84141E-003	  2.82996E-003	  8.46790E-003	 -5.13582E-003
  9.01120E+000	 -2.42223E-003	  7.12303E-003	 -1.64789E-003	  7.76178E-004
  9.83040E+000	 -5.01493E-003	 -3.11970E-003	 -4.71460E-003	  3.01580E-003
  1.06496E+001	 -2.67704E-003	 -8.15327E-004	  3.91603E-003	  7.07421E-003
  1.14688E+001	 -1.31417E-002	  4.04890E-003	 -2.69108E-003	  1.26834E-002
  1.22880E+001	 -1.63672E-002	  8.12431E-003	  8.58553E-003	 -7.72218E-003
  1.31072E+001	 -1.89781E-003	 -3.48367E-003	 -3.43866E-003	 -4.61238E-003
  1.47456E+001	  2.18199E-004	  1.07767E-002	  2.66343E-003	  4.74395E-003
  1.63840E+001	 -1.46612E-004	  3.08498E-003	  5.54510E-003	 -5.71274E-003
  1.80224E+001	 -6.04875E-004	 -1.22420E-002	  8.06101E-003	 -1.87733E-004
  1.96608E+001	  1.71808E-003	  1.29307E-003	 -1.21426E-003	 -3.85927E-003
  2.12992E+001	 -3.92945E-003	  5.63450E-003	  3.74811E-004	  2.19556E-003
  2.29376E+001	  4.82124E-003	  1.50658E-003	  3.94708E-003	  1.14031E-003
  2.45760E+001	  8.31776E-003	  1.02657E-002	  9.67480E-003	 -4.65891E-003
  2.62144E+001	  3.09714E-003	  8.87272E-003	  5.77359E-003	 -1.20600E-003
  2.94912E+001	 -3.28944E-003	  1.22722E-003	  3.04766E-003	  2.42909E-003
  3.27680E+001	  5.42659E-004	 -1.72262E-002	  3.67577E-003	  1.73000E-003
  3.60448E+001	  4.19312E-003	 -5.52468E-003	  2.16810E-003	  3.02948E-003
  3.93216E+001	 -9.45573E-004	 -4.17574E-003	 -1.46590E-003	 -1.99465E-003
  4.25984E+001	 -1.74520E-003	 -1.07165E-003	  1.29105E-003	 -1.40193E-004
  4.58752E+001	  3.42595E-004	  1.46214E-004	 -2.18424E-003	 -3.26426E-003
  4.91520E+001	 -1.42020E-003	  1.72407E-004	  7.08815E-003	 -3.39912E-003
  5.24288E+001	  5.09823E-004	 -8.69654E-004	  4.92731E-003	 -9.17215E-004
  5.89824E+001	  3.35218E-003	 -7.54760E-003	  5.36408E-003	 -3.75648E-003
  6.55360E+001	 -1.62807E-003	 -1.88978E-003	 -8.94000E-004	 -5.22008E-003
  7.20896E+001	 -5.64640E-003	 -4.82257E-003	 -1.39716E-003	  2.90949E-004
  7.86432E+001	 -4.39805E-003	 -7.33594E-004	 -1.44666E-003	  4.60753E-003
  8.51968E+001	  5.70471E-003	  1.85375E-003	  9.38724E-004	 -1.32220E-004
  9.17504E+001	 -5.45890E-005	  5.19855E-003	  3.05466E-003	 -9.55691E-003
  9.83040E+001	 -1.83700E-003	  6.62267E-003	 -2.47702E-003	 -2.61754E-005
  1.04858E+002	 -1.96371E-003	  3.41564E-003	 -2.89868E-003	  2.65608E-003
  1.17965E+002	 -6.47735E-004	  2.92783E-003	 -3.59382E-003	 -3.25061E-003
  1.31072E+002	 -2.48150E-004	 -1.23897E-003	 -3.93895E-003	  3.97579E-003
  1.44179E+002	 -2.97040E-003	 -2.01582E-003	 -4.74018E-003	  2.52188E-004
  1.57286E+002	 -1.10453E-003	 -3.86022E-003	 -1.02191E-003	  1.46512E-003
  1.70394E+002	 -5.27075E-004	 -2.37443E-003	 -2.27376E-004	  5.68401E-004
  1.83501E+002	  1.41981E-003	  1.25410E-003	  7.96513E-004	  1.13036E-003
  1.96608E+002	 -1.44483E-004	  2.92397E-003	  3.74468E-004	 -1.73445E-003
  2.09715E+002	 -1.12461E-004	  1.97842E-003	 -1.73103E-003	 -6.51150E-004
  2.35930E+002	 -8.03163E-004	  3.15023E-003	 -3.17440E-004	 -9.91416E-004
  2.62144E+002	 -4.74391E-004	 -5.93393E-003	 -5.44798E-004	 -2.07039E-004
  2.88358E+002	 -9.28391E-004	 -3.15574E-003	 -1.19302E-003	  5.39409E-004
  3.14573E+002	 -5.00344E-004	  6.90072E-003	  3.50535E-004	  3.10507E-003
  3.40787E+002	  3.13544E-004	 -1.41204E-003	  2.38059E-004	  4.51297E-006
  3.67002E+002	  9.93068E-004	 -2.73446E-003	 -6.13321E-004	 -1.15275E-003
  3.93216E+002	  3.36604E-004	 -6.69179E-004	 -9.50960E-004	 -2.97004E-003

"Count Rate"
       0.01311	     138.85498	     127.33459	     115.89050	     115.89050
       0.02621	     115.20386	     133.89587	     119.24744	     102.46277
       0.03932	     125.19836	     130.15747	     126.19019	      79.65088
       0.05243	     100.17395	     139.00757	     132.21741	     103.75977
       0.06554	     104.90417	     165.17639	      98.87695	     120.77332
       0.07864	     106.81152	     113.90686	      93.46008	     101.08948
       0.09175	     146.56067	     108.41370	      85.67810	     125.80872
       0.10486	     136.41357	     102.92053	     118.10303	     158.53882
       0.11796	     119.55261	     103.75977	      92.16309	     107.49817
       0.13107	     132.98035	     121.91772	     105.43823	     106.20117
       0.14418	     160.98022	     123.51990	      91.17126	     100.17395
       0.15729	     101.39465	     109.93958	      82.39746	     105.43823
       0.17039	     140.15198	      83.99963	      97.65625	      98.34290
       0.18350	      82.77893	     109.32922	     103.37830	     125.42725
       0.19661	     104.82788	      86.05957	     102.38647	      78.43018
       0.20972	     123.51990	      87.66174	     114.59351	     105.51453
       0.22282	     105.28564	     107.87964	     146.86584	     103.83606
       0.23593	     113.98315	     164.48975	     112.76245	     121.68884
       0.24904	      94.98596	     115.12756	     103.75977	     120.77332
       0.26214	     119.85779	     147.78137	     137.25281	     138.16833
       0.27525	     107.19299	     114.13574	     121.68884	     111.08398
       0.28836	     117.18750	     128.63159	      93.53638	     136.10840
       0.30147	     120.62073	      88.04321	     107.19299	     116.11938
       0.31457	     117.56897	     107.95593	     133.05664	     119.78149
       0.32768	     124.13025	     113.67798	      98.95325	     106.50635
       0.34079	     101.47095	     130.08118	     111.69434	     109.25293
       0.35389	     111.23657	     146.10291	     104.75159	     100.32654
       0.36700	     121.53625	     110.93140	      97.12219	     123.82507
       0.38011	     107.42188	     126.80054	     103.60718	     106.12488
       0.39322	     155.48706	     109.40552	      94.90967	     115.12756
       0.40632	     135.87952	     111.77063	     124.81689	     118.56079
       0.41943	     130.00488	     110.77881	     127.48718	     122.68066
       0.43254	     120.77332	      93.99414	     126.34277	     122.60437
       0.44564	     113.98315	     130.76782	     126.03760	      84.53369
       0.45875	     121.30737	     139.77051	     107.72705	     107.65076
       0.47186	     114.97498	     131.22559	     123.36731	     109.32922
       0.48497	     124.89319	     124.96948	     111.46545	      99.18213
       0.49807	     144.50073	     119.17114	     124.89319	     110.70251
       0.51118	     107.57446	      96.51184	     116.11938	     113.14392
       0.52429	     158.84399	     103.14941	      99.86877	     115.66162
       0.53740	      85.67810	     150.22278	     108.71887	     103.91235
       0.55050	     126.72424	     116.04309	     107.57446	     117.56897
       0.56361	     114.97498	     137.25281	     101.01318	     111.92322
       0.57672	     130.84412	     102.53906	     105.20935	     116.27197
       0.58982	     107.95593	     137.32910	      97.42737	     110.62622
       0.60293	     131.14929	     119.47632	     115.12756	     143.43262
       0.61604	     122.75696	     112.53357	     101.77612	     121.23108
       0.62915	     111.99951	     116.50085	     107.49817	     111.38916
       0.64225	     113.98315	     124.74060	      99.10583	     105.43823
       0.65536	     123.36731	     127.48718	      97.27478	     104.14124
       0.66847	     139.69421	     101.85242	     111.61804	     115.89050
       0.68157	     105.28564	     116.65344	     114.44092	     119.70520
       0.69468	     127.10571	     130.00488	     101.01318	     101.16577
       0.70779	     126.95313	     130.23376	      97.88513	     122.37549
       0.72090	     122.68066	     120.08667	     126.26648	     112.30469
       0.73400	     112.68616	     102.38647	     119.32373	     163.65051
       0.74711	     121.91772	     120.69702	     109.71069	     113.60168
