ALV-7004/USB-FAST
Date :	"3/14/2024"
Time :	"12:34:42 PM"
Samplename : 	""
SampMemo(0) : 	""
SampMemo(1) : 	""
SampMemo(2) : 	""
SampMemo(3) : 	""
SampMemo(4) : 	""
SampMemo(5) : 	""
SampMemo(6) : 	""
SampMemo(7) : 	""
SampMemo(8) : 	""
SampMemo(9) : 	""
Temperature [K] :	     298.16000
Viscosity [cp]  :	       0.89000
Refractive Index:	       1.33200
Wavelength [nm] :	       0.00000
Angle [°]       :	       0.00000
Duration [s]    :	         1
FloatDur [ms]   :	          944
Stop TP [ms]   :	      3620
Runs            :	         1
Mode            :	"A-CH0+1  A-CH2+3 "
MeanCR0 [kHz]   :	     107.93686
MeanCR1 [kHz]   :	     101.62459
MeanCR2 [kHz]   :	     106.67695
MeanCR3 [kHz]   :	     104.32138

"Correlation"
  3.12500E-006	 -1.00000E+000	 -1.00000E+000	 -1.00000E+000	 -1.00000E+000
  6.25000E-006	 -1.00000E+000	 -1.00000E+000	 -1.00000E+000	 -1.00000E+000
  9.37500E-006	 -1.00000E+000	 -1.00000E+000	 -1.00000E+000	 -1.00000E+000
  1.25000E-005	 -1.00000E+000	 -1.00000E+000	 -1.00000E+000	 -1.00000E+000
  1.56250E-005	 -1.00000E+000	 -1.00000E+000	 -1.00000E+000	 -1.00000E+000
  1.87500E-005	 -1.00000E+000	 -1.00000E+000	 -1.00000E+000	 -1.00000E+000
  2.18750E-005	 -9.12685E-001	 -3.43341E-001	 -1.67130E-002	 -9.37685E-001
  2.50000E-005	  6.36357E+000	  6.55158E+000	  6.56833E+000	  1.19303E+001
  2.81250E-005	  2.08513E+000	  1.69230E+000	  1.50291E+000	  5.04453E+000
  3.12500E-005	  5.71671E-001	  1.23264E+000	  9.06981E-001	  3.01930E+000
  3.43750E-005	  1.12467E+000	  4.44650E-001	  6.09015E-001	  2.70773E+000
  3.75000E-005	  1.35751E+000	  7.40146E-001	  6.98405E-001	  2.14690E+000
  4.06250E-005	  9.50037E-001	  8.05812E-001	  9.36777E-001	  1.74185E+000
  4.37500E-005	  6.00776E-001	  5.43149E-001	  2.81253E-001	  1.86648E+000
  4.68750E-005	  8.04512E-001	  5.10316E-001	  4.30236E-001	  1.74185E+000
  5.00000E-005	  7.46301E-001	  1.65570E-001	  3.70642E-001	  1.50817E+000
  5.62500E-005	  3.09726E-001	  4.93899E-001	  5.49422E-001	  1.27449E+000
  6.25000E-005	  3.97041E-001	  4.44650E-001	  5.49422E-001	  7.60392E-001
  6.87500E-005	  3.97041E-001	  5.59565E-001	  5.49422E-001	  1.21217E+000
  7.50000E-005	  6.73539E-001	  6.41647E-001	  4.30236E-001	  8.69443E-001
  8.12500E-005	  4.26146E-001	  5.92398E-001	  3.11049E-001	  9.31758E-001
  8.75000E-005	  5.71671E-001	  7.07313E-001	  4.74930E-001	  1.05639E+000
  9.37500E-005	  4.55251E-001	  3.29734E-001	  2.36558E-001	  5.73448E-001
  1.00000E-004	  5.86224E-001	  4.93899E-001	  5.19625E-001	  6.20184E-001
  1.12500E-004	  4.98909E-001	  4.36441E-001	  5.04727E-001	  6.20184E-001
  1.25000E-004	  5.71671E-001	  5.02107E-001	  4.22786E-001	  6.27973E-001
  1.37500E-004	  5.06185E-001	  6.58064E-001	  4.00439E-001	  6.12394E-001
  1.50000E-004	  7.09920E-001	  4.44649E-001	  2.66354E-001	  4.64397E-001
  1.62500E-004	  4.47975E-001	  7.31938E-001	  5.27074E-001	  6.90288E-001
  1.75000E-004	  5.35290E-001	  4.52858E-001	  4.97278E-001	  5.34501E-001
  1.87500E-004	  4.33422E-001	  6.25231E-001	  4.00439E-001	  5.42290E-001
  2.00000E-004	  3.67936E-001	  3.91296E-001	  4.30235E-001	  6.51341E-001
  2.25000E-004	  4.29784E-001	  4.36441E-001	  5.19625E-001	  7.05866E-001
  2.50000E-004	  5.60756E-001	  5.43148E-001	  3.59468E-001	  6.63025E-001
  2.75000E-004	  4.73441E-001	  4.40545E-001	  3.29672E-001	  4.83870E-001
  3.00000E-004	  5.75309E-001	  2.92797E-001	  4.74930E-001	  5.53974E-001
  3.25000E-004	  4.91632E-001	  4.32337E-001	  5.27074E-001	  5.65658E-001
  3.50000E-004	  4.11593E-001	  3.37942E-001	  4.30235E-001	  5.46184E-001
  3.75000E-004	  4.40698E-001	  4.61066E-001	  5.12176E-001	  5.81236E-001
  4.00000E-004	  3.89764E-001	  4.95950E-001	  3.98576E-001	  4.95553E-001
  4.50000E-004	  5.49841E-001	  4.24128E-001	  4.28372E-001	  4.97500E-001
  5.00000E-004	  5.04365E-001	  5.61616E-001	  4.45133E-001	  4.97500E-001
  5.50000E-004	  4.60707E-001	  5.28783E-001	  4.30234E-001	  5.09184E-001
  6.00000E-004	  3.87945E-001	  5.34939E-001	  4.60031E-001	  5.07237E-001
  6.50000E-004	  5.31651E-001	  5.00054E-001	  4.32097E-001	  5.18921E-001
  7.00000E-004	  5.64394E-001	  5.14419E-001	  4.99139E-001	  5.59815E-001
  7.50000E-004	  4.31602E-001	  5.63668E-001	  4.93552E-001	  5.32552E-001
  8.00000E-004	  3.96129E-001	  5.44172E-001	  4.25578E-001	  5.52024E-001
  9.00000E-004	  4.17958E-001	  4.56960E-001	  4.52581E-001	  5.04315E-001
  1.00000E-003	  3.54291E-001	  5.39042E-001	  4.29302E-001	  5.12104E-001
  1.10000E-003	  4.59797E-001	  4.62090E-001	  4.20922E-001	  5.46182E-001
  1.20000E-003	  4.44335E-001	  4.73376E-001	  3.90194E-001	  5.63708E-001
  1.30000E-003	  4.45244E-001	  5.26730E-001	  4.13473E-001	  5.52998E-001
  1.40000E-003	  4.18868E-001	  4.68246E-001	  4.09748E-001	  5.15025E-001
  1.50000E-003	  4.38877E-001	  4.43621E-001	  4.58168E-001	  5.55919E-001
  1.60000E-003	  4.59339E-001	  4.76452E-001	  4.74460E-001	  5.05301E-001
  1.80000E-003	  4.45242E-001	  4.61574E-001	  4.20454E-001	  5.37432E-001
  2.00000E-003	  4.72527E-001	  4.69783E-001	  3.94382E-001	  5.22341E-001
  2.20000E-003	  4.11589E-001	  5.04667E-001	  4.15333E-001	  5.31104E-001
  2.40000E-003	  4.64796E-001	  5.32370E-001	  4.06021E-001	  5.17959E-001
  2.60000E-003	  4.44787E-001	  4.88764E-001	  4.25110E-001	  5.60801E-001
  2.80000E-003	  4.95266E-001	  4.64652E-001	  4.25110E-001	  5.35485E-001
  3.00000E-003	  4.78894E-001	  4.28741E-001	  4.65614E-001	  4.96051E-001
  3.20000E-003	  4.66838E-001	  4.74154E-001	  4.38141E-001	  5.39390E-001
  3.60000E-003	  4.64337E-001	  4.76975E-001	  3.95541E-001	  5.19186E-001
  4.00000E-003	  4.82072E-001	  4.82362E-001	  4.45823E-001	  5.06285E-001
  4.40000E-003	  4.61836E-001	  4.96213E-001	  4.17423E-001	  4.88029E-001
  4.80000E-003	  4.44782E-001	  4.14900E-001	  4.03237E-001	  5.25500E-001
  5.20000E-003	  4.37747E-001	  4.67741E-001	  4.06496E-001	  5.06026E-001
  5.60000E-003	  4.72082E-001	  4.48246E-001	  4.28145E-001	  5.18441E-001
  6.00000E-003	  4.52982E-001	  4.73641E-001	  3.86709E-001	  5.39861E-001
  6.40000E-003	  4.50030E-001	  4.71609E-001	  4.18634E-001	  5.47413E-001
  7.20000E-003	  4.38093E-001	  4.80715E-001	  4.20612E-001	  4.94591E-001
  8.00000E-003	  4.38888E-001	  4.70583E-001	  4.19216E-001	  5.23923E-001
  8.80000E-003	  4.25373E-001	  4.67233E-001	  4.20510E-001	  5.16742E-001
  9.60000E-003	  4.38689E-001	  4.87882E-001	  4.11431E-001	  4.98242E-001
  1.04000E-002	  4.46222E-001	  4.74031E-001	  4.14225E-001	  4.74752E-001
  1.12000E-002	  4.48950E-001	  4.64155E-001	  4.04447E-001	  5.02365E-001
  1.20000E-002	  4.34625E-001	  4.67505E-001	  4.14108E-001	  5.09561E-001
  1.28000E-002	  4.37120E-001	  4.63955E-001	  4.06055E-001	  4.98465E-001
  1.44000E-002	  4.30185E-001	  4.68701E-001	  4.10683E-001	  5.00960E-001
  1.60000E-002	  4.27371E-001	  4.63506E-001	  3.96322E-001	  4.94631E-001
  1.76000E-002	  4.26375E-001	  4.59176E-001	  4.08588E-001	  5.00717E-001
  1.92000E-002	  4.26560E-001	  4.53838E-001	  4.15863E-001	  5.12158E-001
  2.08000E-002	  4.25394E-001	  4.50005E-001	  4.03001E-001	  4.95301E-001
  2.24000E-002	  4.30852E-001	  4.48545E-001	  3.98520E-001	  5.10789E-001
  2.40000E-002	  4.38413E-001	  4.84138E-001	  3.93398E-001	  5.04079E-001
  2.56000E-002	  4.30215E-001	  4.60310E-001	  3.97764E-001	  4.92125E-001
  2.88000E-002	  4.26420E-001	  4.46054E-001	  3.88264E-001	  4.86085E-001
  3.20000E-002	  4.16471E-001	  4.44531E-001	  3.91115E-001	  4.76651E-001
  3.52000E-002	  4.19171E-001	  4.53607E-001	  3.92425E-001	  4.80805E-001
  3.84000E-002	  4.21900E-001	  4.48685E-001	  3.87928E-001	  4.88352E-001
  4.16000E-002	  4.16371E-001	  4.49743E-001	  3.78880E-001	  4.83118E-001
  4.48000E-002	  4.08012E-001	  4.44982E-001	  3.80102E-001	  4.90026E-001
  4.80000E-002	  4.09533E-001	  4.35218E-001	  3.91713E-001	  4.74688E-001
  5.12000E-002	  4.04009E-001	  4.35915E-001	  3.75524E-001	  4.80873E-001
  5.76000E-002	  4.08202E-001	  4.35503E-001	  3.79235E-001	  4.66965E-001
  6.40000E-002	  4.10789E-001	  4.29892E-001	  3.73966E-001	  4.70329E-001
  7.04000E-002	  4.06424E-001	  4.28755E-001	  3.68930E-001	  4.67331E-001
  7.68000E-002	  3.94026E-001	  4.23959E-001	  3.61683E-001	  4.55615E-001
  8.32000E-002	  3.90344E-001	  4.15460E-001	  3.63764E-001	  4.56831E-001
  8.96000E-002	  3.83049E-001	  4.06271E-001	  3.65437E-001	  4.46957E-001
  9.60000E-002	  3.83162E-001	  4.07169E-001	  3.53768E-001	  4.52069E-001
  1.02400E-001	  3.81376E-001	  4.07543E-001	  3.54893E-001	  4.39755E-001
  1.15200E-001	  3.76865E-001	  4.04251E-001	  3.49386E-001	  4.42990E-001
  1.28000E-001	  3.73565E-001	  3.94551E-001	  3.42724E-001	  4.37808E-001
  1.40800E-001	  3.59094E-001	  3.86589E-001	  3.31194E-001	  4.21051E-001
  1.53600E-001	  3.57419E-001	  3.88702E-001	  3.23796E-001	  4.17101E-001
  1.66400E-001	  3.50325E-001	  3.80071E-001	  3.17668E-001	  4.04417E-001
  1.79200E-001	  3.53687E-001	  3.68174E-001	  3.19742E-001	  4.05681E-001
  1.92000E-001	  3.40949E-001	  3.57847E-001	  3.07607E-001	  3.97350E-001
  2.04800E-001	  3.37421E-001	  3.55642E-001	  3.01538E-001	  3.92468E-001
  2.30400E-001	  3.19138E-001	  3.47567E-001	  2.91071E-001	  3.76083E-001
  2.56000E-001	  3.12013E-001	  3.30608E-001	  2.80787E-001	  3.64191E-001
  2.81600E-001	  2.98398E-001	  3.24579E-001	  2.66725E-001	  3.50941E-001
  3.07200E-001	  2.87728E-001	  3.08759E-001	  2.61303E-001	  3.36503E-001
  3.32800E-001	  2.75546E-001	  3.00636E-001	  2.49213E-001	  3.23340E-001
  3.58400E-001	  2.67024E-001	  2.91824E-001	  2.35835E-001	  3.13095E-001
  3.84000E-001	  2.53913E-001	  2.76651E-001	  2.26610E-001	  2.97194E-001
  4.09600E-001	  2.44617E-001	  2.68493E-001	  2.15901E-001	  2.83127E-001
  4.60800E-001	  2.26305E-001	  2.48289E-001	  1.95376E-001	  2.57751E-001
  5.12000E-001	  2.06435E-001	  2.26801E-001	  1.82520E-001	  2.34799E-001
  5.63200E-001	  1.87774E-001	  2.03194E-001	  1.61946E-001	  2.12643E-001
  6.14400E-001	  1.78797E-001	  1.89603E-001	  1.43487E-001	  1.95282E-001
  6.65600E-001	  1.56900E-001	  1.70137E-001	  1.35284E-001	  1.76048E-001
  7.16800E-001	  1.47311E-001	  1.54260E-001	  1.18426E-001	  1.57237E-001
  7.68000E-001	  1.34653E-001	  1.45296E-001	  1.04410E-001	  1.41879E-001
  8.19200E-001	  1.24013E-001	  1.37106E-001	  9.54043E-002	  1.27990E-001
  9.21600E-001	  1.08672E-001	  1.16764E-001	  7.06075E-002	  1.06604E-001
  1.02400E+000	  8.66026E-002	  9.39702E-002	  5.51474E-002	  9.29118E-002
  1.12640E+000	  7.61009E-002	  7.82795E-002	  4.66294E-002	  8.12341E-002
  1.22880E+000	  6.19225E-002	  6.31898E-002	  3.64452E-002	  7.13797E-002
  1.33120E+000	  5.52364E-002	  4.83582E-002	  2.98406E-002	  6.41671E-002
  1.43360E+000	  4.84044E-002	  3.63200E-002	  2.81776E-002	  5.70750E-002
  1.53600E+000	  4.19876E-002	  2.33942E-002	  2.73394E-002	  4.91854E-002
  1.63840E+000	  4.06612E-002	  1.24248E-002	  2.80929E-002	  4.63840E-002
  1.84320E+000	  3.40337E-002	 -2.19253E-003	  2.99783E-002	  3.93208E-002
  2.04800E+000	  2.69092E-002	 -7.01538E-003	  2.83219E-002	  3.20609E-002
  2.25280E+000	  2.06925E-002	 -1.16414E-002	  2.79848E-002	  2.30923E-002
  2.45760E+000	  1.66221E-002	 -1.49022E-002	  1.78347E-002	  1.18637E-002
  2.66240E+000	  8.87765E-003	 -1.84942E-002	  1.19094E-002	  1.44206E-003
  2.86720E+000	  5.88642E-003	 -1.74521E-002	  8.86420E-003	 -6.84156E-003
  3.07200E+000	  2.16972E-003	 -1.46186E-002	  1.17803E-002	 -8.36241E-003
  3.27680E+000	 -1.41780E-005	 -9.55611E-003	  1.33689E-002	 -3.22037E-003
  3.68640E+000	  8.29862E-003	 -2.28536E-003	  1.34941E-002	 -2.05247E-003
  4.09600E+000	  5.78793E-003	 -3.70628E-003	  1.14720E-002	  4.26920E-003
  4.50560E+000	 -9.41931E-003	 -4.82772E-003	  7.72159E-003	  3.34001E-004
  4.91520E+000	 -1.96637E-002	 -8.41948E-003	  7.05971E-004	 -4.29898E-003
  5.32480E+000	 -1.30129E-002	 -5.96128E-003	 -9.01707E-003	  5.59914E-004
  5.73440E+000	 -3.91131E-003	 -1.21957E-003	 -1.40639E-002	  1.55673E-002
  6.14400E+000	 -1.14735E-004	  4.60521E-003	 -1.43061E-002	  1.45803E-002
  6.55360E+000	  4.61706E-003	  9.29156E-003	 -1.24842E-002	  1.30429E-002
  7.37280E+000	  7.43228E-003	  2.22302E-002	 -4.78497E-004	 -3.13923E-003
  8.19200E+000	  2.04204E-002	  3.83610E-002	 -1.19467E-002	 -2.57590E-003
  9.01120E+000	  1.53180E-002	  3.94571E-002	 -2.19032E-002	  7.56717E-004
  9.83040E+000	  1.64440E-002	  2.07409E-002	 -2.27104E-002	 -4.18824E-003
  1.06496E+001	  9.39335E-003	 -3.67328E-003	 -1.24900E-002	  4.68703E-003
  1.14688E+001	  1.44723E-002	 -2.84753E-003	  6.69678E-004	 -2.85406E-003
  1.22880E+001	  2.28286E-003	  4.34294E-003	  1.78913E-003	 -1.43276E-002
  1.31072E+001	 -6.35392E-004	  7.94474E-003	  9.02937E-003	 -1.00421E-002
  1.47456E+001	 -6.41889E-003	  1.55912E-002	 -1.08586E-003	 -1.48198E-002
  1.63840E+001	  4.56295E-003	  1.99575E-002	  5.13655E-003	 -1.43492E-002
  1.80224E+001	  1.15665E-002	 -2.30432E-004	  4.21063E-003	 -3.13471E-003
  1.96608E+001	  6.73783E-003	 -6.13569E-003	 -2.88241E-003	 -1.37274E-002
  2.12992E+001	  5.13115E-003	 -1.56784E-002	 -6.21646E-003	 -2.88389E-003
  2.29376E+001	  9.25966E-003	 -1.20569E-002	 -9.85658E-003	 -7.18712E-003
  2.45760E+001	 -7.99206E-007	 -1.33392E-003	 -1.10462E-002	  1.80488E-002
  2.62144E+001	  6.71204E-003	 -4.72597E-003	  3.21155E-003	  1.55890E-002
  2.94912E+001	  8.76435E-003	 -1.27250E-002	  9.97851E-003	  4.44520E-004
  3.27680E+001	 -3.17381E-003	 -1.12656E-002	  3.50360E-003	  9.11985E-003
  3.60448E+001	  1.04295E-002	 -7.27645E-003	 -1.99872E-003	  1.04814E-002
  3.93216E+001	 -8.56747E-003	  9.11411E-003	  5.19089E-003	 -1.18907E-002
  4.25984E+001	  1.67283E-004	  3.66852E-004	  6.23586E-004	  7.38261E-003
  4.58752E+001	 -4.87790E-003	  4.96198E-003	 -2.68518E-003	 -8.23546E-003
  4.91520E+001	 -9.77467E-003	  1.11278E-002	  1.12941E-002	 -5.82604E-003
  5.24288E+001	 -4.12573E-003	  6.02649E-003	  4.67917E-003	  7.73091E-003
  5.89824E+001	 -7.65913E-003	  3.18285E-003	  6.73459E-003	  3.19167E-003
  6.55360E+001	 -8.79369E-003	 -7.82267E-003	 -9.22231E-003	 -4.41755E-003
  7.20896E+001	 -1.91423E-002	 -7.52939E-003	  5.00789E-003	 -4.02559E-003
  7.86432E+001	 -6.65824E-003	 -9.79376E-003	  3.24118E-004	  1.10750E-002
  8.51968E+001	 -5.74858E-003	 -6.90991E-003	 -4.94486E-004	 -1.11068E-002
  9.17504E+001	 -5.34322E-003	 -3.76240E-003	 -4.40003E-003	 -1.83522E-003
  9.83040E+001	  5.66426E-003	  2.22213E-003	  8.75678E-003	  2.19973E-003
  1.04858E+002	 -7.33704E-003	 -6.72245E-003	  5.29844E-003	 -5.19700E-003
  1.17965E+002	 -5.85093E-003	 -3.49817E-005	 -5.99264E-003	 -8.66625E-005
  1.31072E+002	  1.14046E-002	  3.03672E-003	  5.66833E-003	 -5.94107E-003
  1.44179E+002	  3.42848E-003	 -6.37497E-004	 -2.76081E-003	 -3.86229E-003
  1.57286E+002	  7.90151E-003	 -2.39521E-003	  2.97886E-003	 -1.81260E-003
  1.70394E+002	  8.96481E-004	  5.00141E-003	 -4.54990E-003	  2.63125E-003
  1.83501E+002	  6.07469E-003	 -1.05179E-004	  7.06001E-003	 -8.82854E-003
  1.96608E+002	 -7.88025E-003	 -5.69015E-003	 -8.63725E-004	  1.59836E-002
  2.09715E+002	 -5.03478E-003	 -1.01610E-002	 -1.73321E-003	 -6.89197E-003
  2.35930E+002	 -6.53880E-004	  2.47732E-003	  1.94887E-003	  1.39164E-002
  2.62144E+002	  7.45499E-003	  3.21411E-004	 -3.92546E-003	 -2.03998E-004
  2.88358E+002	  2.53209E-003	  1.11615E-002	 -1.52114E-003	 -1.85320E-003
  3.14573E+002	 -5.00074E-003	  5.49651E-003	 -2.20099E-004	 -6.65960E-003
  3.40787E+002	 -2.71084E-003	  8.73740E-003	  1.34075E-004	 -2.71508E-003
  3.67002E+002	 -2.11219E-004	 -5.95038E-003	  8.31671E-005	 -8.84576E-004
  3.93216E+002	  2.82218E-003	 -2.38495E-003	 -5.59598E-003	 -3.23456E-004

"Count Rate"
       0.01311	      92.01050	     114.66980	     116.11938	     129.47083
       0.02621	      88.04321	      90.17944	      91.32385	      73.39478
       0.03932	     137.10022	     108.94775	     121.53625	      75.83618
       0.05243	     121.99402	     152.58789	     128.55530	      72.78442
       0.06554	      59.50928	      89.18762	     110.77881	      97.12219
       0.07864	      71.79260	      73.24219	     126.34277	     100.55542
       0.09175	      96.05408	     116.42456	     151.97754	      73.31848
       0.10486	      97.65625	     138.24463	     101.01318	     113.06763
       0.11796	     101.16577	     107.34558	      87.58545	      82.01599
       0.13107	     125.88501	      90.48462	     108.94775	      84.07593
       0.14418	     126.64795	     104.59900	     128.63159	      98.19031
       0.15729	      70.95337	      99.33472	      98.80066	      98.34290
       0.17039	     104.59900	      91.09497	     133.97217	      89.79797
       0.18350	     130.84412	      90.71350	      90.78979	      88.11951
       0.19661	      70.41931	     127.56348	     125.35095	      89.49280
       0.20972	     125.80872	     105.05676	      95.13855	     153.04565
       0.22282	     115.58533	     162.73499	      85.83069	      81.55823
       0.23593	      87.35657	      79.26941	     130.23376	     187.37793
       0.24904	      93.84155	     115.05127	     114.59351	      72.78442
       0.26214	     115.96680	      96.05408	     104.98047	     113.44910
       0.27525	     141.83044	     103.53088	     101.08948	      79.49829
       0.28836	      90.33203	     131.30188	      90.56091	     100.09766
       0.30147	      96.66443	      93.23120	      78.96423	     111.46545
       0.31457	     112.91504	      88.88245	      88.57727	     113.44910
       0.32768	     105.36194	      70.64819	      83.46558	      86.51733
       0.34079	      96.74072	      96.89331	      78.81165	     103.37830
       0.35389	      74.00513	      98.11401	      97.80884	     145.79773
       0.36700	     128.02124	      75.07324	     134.42993	      98.19031
       0.38011	     140.07568	     104.82788	      82.16858	      96.66443
       0.39322	     142.28821	     108.26111	     108.18481	      83.69446
       0.40632	     155.25818	      92.92603	      75.07324	     162.27722
       0.41943	     101.92871	      99.25842	     116.80603	     106.58264
       0.43254	     104.21753	     121.68884	      91.09497	     103.14941
       0.44564	      75.37842	     111.16028	      94.37561	     123.51990
       0.45875	     106.73523	      83.84705	      96.66443	      86.89880
       0.47186	      91.85791	      86.59363	     107.04041	      97.04590
       0.48497	      72.86072	      84.60999	      78.20129	     117.79785
       0.49807	      89.87427	      98.57178	     111.99951	      83.61816
       0.51118	      83.46558	      78.35388	      79.04053	      80.56641
       0.52429	     112.22839	     139.77051	      97.04590	      83.61816
       0.53740	     161.13281	     145.41626	      92.77344	      68.35938
       0.55050	     142.05933	      92.62085	     125.96130	     116.04309
       0.56361	     127.25830	     123.29102	     117.56897	     110.93140
       0.57672	     135.87952	     152.89307	     125.88501	      65.07874
       0.58982	     144.50073	      68.66455	     100.25024	      91.47644
       0.60293	      75.75989	      74.61548	     134.88770	     152.89307
       0.61604	     110.62622	      96.35925	      99.02954	      68.51196
       0.62915	      97.12219	      88.50098	      58.51746	      92.01050
       0.64225	     109.93958	      68.05420	     103.68347	     102.31018
       0.65536	      89.64539	      71.25854	      99.94507	     132.82776
       0.66847	     138.39722	      89.95056	     109.86328	     145.87402
       0.68157	      93.68896	     103.98865	      85.37292	     111.31287
       0.69468	     104.44641	     112.53357	      80.71899	     100.25024
       0.70779	     105.36194	      66.83350	     138.93127	      90.25574
       0.72090	      92.08679	      91.62903	      79.87976	      87.35657
       0.73400	      90.25574	      91.01868	     164.33716	     105.81970
       0.74711	      96.89331	     128.17383	      84.30481	      89.64539
