ALV-7004/USB-FAST
Date :	"3/14/2024"
Time :	"12:37:26 PM"
Samplename : 	""
SampMemo(0) : 	""
SampMemo(1) : 	""
SampMemo(2) : 	""
SampMemo(3) : 	""
SampMemo(4) : 	""
SampMemo(5) : 	""
SampMemo(6) : 	""
SampMemo(7) : 	""
SampMemo(8) : 	""
SampMemo(9) : 	""
Temperature [K] :	     298.16000
Viscosity [cp]  :	       0.89000
Refractive Index:	       1.33200
Wavelength [nm] :	       0.00000
Angle [°]       :	       0.00000
Duration [s]    :	         1
FloatDur [ms]   :	          944
Stop TP [ms]   :	      4071
Runs            :	         1
Mode            :	"A-CH0+1  A-CH2+3 "
MeanCR0 [kHz]   :	     146.62425
MeanCR1 [kHz]   :	     142.92294
MeanCR2 [kHz]   :	     138.18317
MeanCR3 [kHz]   :	     139.37103

"Correlation"
  3.12500E-006	 -1.00000E+000	 -1.00000E+000	 -1.00000E+000	 -1.00000E+000
  6.25000E-006	 -1.00000E+000	 -1.00000E+000	 -1.00000E+000	 -1.00000E+000
  9.37500E-006	 -1.00000E+000	 -1.00000E+000	 -1.00000E+000	 -1.00000E+000
  1.25000E-005	 -1.00000E+000	 -1.00000E+000	 -1.00000E+000	 -1.00000E+000
  1.56250E-005	 -1.00000E+000	 -1.00000E+000	 -1.00000E+000	 -1.00000E+000
  1.87500E-005	 -1.00000E+000	 -1.00000E+000	 -1.00000E+000	 -1.00000E+000
  2.18750E-005	 -9.68455E-001	 -4.52206E-001	 -5.20530E-001	 -9.82543E-001
  2.50000E-005	  5.38779E+000	  5.55693E+000	  5.12655E+000	  9.63114E+000
  2.81250E-005	  1.55512E+000	  1.58957E+000	  1.71699E+000	  4.02753E+000
  3.12500E-005	  7.82274E-001	  8.42581E-001	  1.05994E+000	  2.28186E+000
  3.43750E-005	  5.77233E-001	  5.43784E-001	  4.20650E-001	  1.91527E+000
  3.75000E-005	  7.82274E-001	  5.60384E-001	  8.11329E-001	  1.72325E+000
  4.06250E-005	  6.40323E-001	  6.59983E-001	  6.15990E-001	  1.37411E+000
  4.37500E-005	  7.98046E-001	  2.94787E-001	  4.91683E-001	  1.05989E+000
  4.68750E-005	  4.19510E-001	  7.26383E-001	  4.91683E-001	  1.42648E+000
  5.00000E-005	  5.45689E-001	  6.10184E-001	  5.44957E-001	  1.12099E+000
  5.62500E-005	  8.69021E-001	  4.27586E-001	  6.42627E-001	  1.09481E+000
  6.25000E-005	  7.50729E-001	  5.18885E-001	  7.40297E-001	  9.81337E-001
  6.87500E-005	  6.87640E-001	  7.09783E-001	  7.04780E-001	  9.02782E-001
  7.50000E-005	  4.58941E-001	  7.01483E-001	  6.33748E-001	  7.28215E-001
  8.12500E-005	  4.74713E-001	  6.35083E-001	  4.65046E-001	  7.36943E-001
  8.75000E-005	  3.95851E-001	  4.52485E-001	  5.36078E-001	  7.63128E-001
  9.37500E-005	  5.77233E-001	  5.76984E-001	  4.91683E-001	  5.62376E-001
  1.00000E-004	  5.77233E-001	  6.22633E-001	  6.07111E-001	  6.40931E-001
  1.12500E-004	  4.07681E-001	  6.22633E-001	  5.62715E-001	  6.58388E-001
  1.25000E-004	  6.28493E-001	  6.26783E-001	  4.78364E-001	  6.01653E-001
  1.37500E-004	  4.11624E-001	  4.69085E-001	  6.15990E-001	  5.27462E-001
  1.50000E-004	  5.02315E-001	  4.93985E-001	  4.56166E-001	  4.66364E-001
  1.62500E-004	  7.70444E-001	  5.06435E-001	  5.36078E-001	  5.58012E-001
  1.75000E-004	  5.14144E-001	  5.64534E-001	  5.31638E-001	  6.10382E-001
  1.87500E-004	  4.70770E-001	  5.39634E-001	  5.49397E-001	  5.75468E-001
  2.00000E-004	  4.94428E-001	  4.69085E-001	  5.27199E-001	  4.75092E-001
  2.25000E-004	  5.83147E-001	  5.45859E-001	  4.73924E-001	  4.48907E-001
  2.50000E-004	  4.17538E-001	  6.26783E-001	  4.60606E-001	  4.51089E-001
  2.75000E-004	  4.27396E-001	  4.67010E-001	  6.62604E-001	  4.86002E-001
  3.00000E-004	  4.33310E-001	  4.10985E-001	  5.82693E-001	  5.14370E-001
  3.25000E-004	  4.98371E-001	  4.50410E-001	  5.33858E-001	  4.77274E-001
  3.50000E-004	  5.61460E-001	  5.02284E-001	  4.56166E-001	  4.70728E-001
  3.75000E-004	  4.58940E-001	  4.42110E-001	  5.18320E-001	  5.01277E-001
  4.00000E-004	  4.98370E-001	  4.33809E-001	  4.61715E-001	  4.54361E-001
  4.50000E-004	  4.87527E-001	  4.49372E-001	  5.02781E-001	  5.16551E-001
  5.00000E-004	  4.93442E-001	  5.06434E-001	  4.70594E-001	  4.37996E-001
  5.50000E-004	  4.11623E-001	  4.44195E-001	  5.20539E-001	  4.87093E-001
  6.00000E-004	  4.99356E-001	  4.74282E-001	  4.69484E-001	  4.67454E-001
  6.50000E-004	  4.97385E-001	  4.45232E-001	  5.34967E-001	  4.09629E-001
  7.00000E-004	  4.85555E-001	  4.28633E-001	  5.19429E-001	  5.35099E-001
  7.50000E-004	  4.74712E-001	  4.42120E-001	  4.88352E-001	  4.71818E-001
  8.00000E-004	  4.68796E-001	  4.47825E-001	  4.50060E-001	  5.31824E-001
  9.00000E-004	  4.74218E-001	  4.50419E-001	  4.13989E-001	  5.13822E-001
  1.00000E-003	  4.75697E-001	  5.12668E-001	  4.40626E-001	  5.08367E-001
  1.10000E-003	  4.38730E-001	  5.33937E-001	  4.47840E-001	  4.94183E-001
  1.20000E-003	  4.76682E-001	  4.79469E-001	  4.47285E-001	  4.52178E-001
  1.30000E-003	  4.79640E-001	  4.58200E-001	  5.29416E-001	  5.02366E-001
  1.40000E-003	  5.05270E-001	  4.71687E-001	  4.53390E-001	  5.11095E-001
  1.50000E-003	  5.10198E-001	  4.83100E-001	  4.86686E-001	  4.69635E-001
  1.60000E-003	  4.76926E-001	  4.80244E-001	  4.82799E-001	  5.21468E-001
  1.80000E-003	  4.85059E-001	  4.84135E-001	  5.01944E-001	  4.58471E-001
  2.00000E-003	  4.80130E-001	  4.85172E-001	  4.73099E-001	  4.52471E-001
  2.20000E-003	  4.59429E-001	  4.83616E-001	  4.85030E-001	  5.17661E-001
  2.40000E-003	  3.96833E-001	  4.90360E-001	  4.57283E-001	  4.78383E-001
  2.60000E-003	  4.82348E-001	  5.11110E-001	  4.66994E-001	  4.55744E-001
  2.80000E-003	  4.19012E-001	  4.87507E-001	  4.91967E-001	  5.05387E-001
  3.00000E-003	  4.58197E-001	  4.62607E-001	  5.00291E-001	  5.12479E-001
  3.20000E-003	  4.62761E-001	  4.76738E-001	  4.93904E-001	  5.02666E-001
  3.60000E-003	  4.94553E-001	  4.64288E-001	  4.90297E-001	  4.64069E-001
  4.00000E-003	  4.86790E-001	  4.53135E-001	  4.65047E-001	  4.93255E-001
  4.40000E-003	  4.74098E-001	  4.65325E-001	  4.88910E-001	  4.98438E-001
  4.80000E-003	  4.69292E-001	  4.52875E-001	  4.38410E-001	  4.76207E-001
  5.20000E-003	  4.49330E-001	  4.84519E-001	  4.76701E-001	  4.94073E-001
  5.60000E-003	  4.90486E-001	  4.63121E-001	  4.65879E-001	  4.65433E-001
  6.00000E-003	  4.93936E-001	  4.62083E-001	  4.71568E-001	  5.18213E-001
  6.40000E-003	  4.91237E-001	  4.63240E-001	  4.75650E-001	  5.04235E-001
  7.20000E-003	  4.76019E-001	  4.89242E-001	  4.65384E-001	  4.78459E-001
  8.00000E-003	  4.70166E-001	  4.67844E-001	  4.59349E-001	  4.81664E-001
  8.80000E-003	  4.59692E-001	  4.67779E-001	  4.56158E-001	  4.91199E-001
  9.60000E-003	  4.62033E-001	  4.59026E-001	  4.53245E-001	  4.76538E-001
  1.04000E-002	  4.59877E-001	  4.69141E-001	  4.62679E-001	  4.90790E-001
  1.12000E-002	  4.51559E-001	  4.52736E-001	  4.59280E-001	  4.74367E-001
  1.20000E-002	  4.76820E-001	  4.46965E-001	  4.44019E-001	  4.68571E-001
  1.28000E-002	  4.60474E-001	  4.57125E-001	  4.51294E-001	  4.74403E-001
  1.44000E-002	  4.49035E-001	  4.58844E-001	  4.39640E-001	  4.69391E-001
  1.60000E-002	  4.50945E-001	  4.52522E-001	  4.58196E-001	  4.64014E-001
  1.76000E-002	  4.59632E-001	  4.47432E-001	  4.53860E-001	  4.48886E-001
  1.92000E-002	  4.42719E-001	  4.43184E-001	  4.58820E-001	  4.58854E-001
  2.08000E-002	  4.45061E-001	  4.49896E-001	  4.44704E-001	  4.60525E-001
  2.24000E-002	  4.35870E-001	  4.31643E-001	  4.48877E-001	  4.49807E-001
  2.40000E-002	  4.39690E-001	  4.35176E-001	  4.34009E-001	  4.59388E-001
  2.56000E-002	  4.33865E-001	  4.24060E-001	  4.38535E-001	  4.50517E-001
  2.88000E-002	  4.29630E-001	  4.24612E-001	  4.32460E-001	  4.40929E-001
  3.20000E-002	  4.23222E-001	  4.17982E-001	  4.25384E-001	  4.32468E-001
  3.52000E-002	  4.16727E-001	  4.18251E-001	  4.16574E-001	  4.30712E-001
  3.84000E-002	  4.16604E-001	  4.01322E-001	  4.19616E-001	  4.30797E-001
  4.16000E-002	  4.02685E-001	  4.02613E-001	  4.15627E-001	  4.16009E-001
  4.48000E-002	  3.99959E-001	  4.00441E-001	  3.94429E-001	  4.13780E-001
  4.80000E-002	  4.05555E-001	  3.88024E-001	  3.97307E-001	  4.15148E-001
  5.12000E-002	  3.95369E-001	  3.82662E-001	  3.90182E-001	  4.02751E-001
  5.76000E-002	  3.85431E-001	  3.74391E-001	  3.71516E-001	  3.91231E-001
  6.40000E-002	  3.68697E-001	  3.63093E-001	  3.65314E-001	  3.86486E-001
  7.04000E-002	  3.64984E-001	  3.54104E-001	  3.61360E-001	  3.71061E-001
  7.68000E-002	  3.58182E-001	  3.48984E-001	  3.44478E-001	  3.59695E-001
  8.32000E-002	  3.44351E-001	  3.42072E-001	  3.35887E-001	  3.54369E-001
  8.96000E-002	  3.41507E-001	  3.26024E-001	  3.24518E-001	  3.38584E-001
  9.60000E-002	  3.24778E-001	  3.16881E-001	  3.23313E-001	  3.36156E-001
  1.02400E-001	  3.19179E-001	  3.14152E-001	  3.12836E-001	  3.29410E-001
  1.15200E-001	  3.05018E-001	  2.97779E-001	  2.95188E-001	  3.13190E-001
  1.28000E-001	  2.88701E-001	  2.85535E-001	  2.70939E-001	  2.93273E-001
  1.40800E-001	  2.74749E-001	  2.69334E-001	  2.68093E-001	  2.78045E-001
  1.53600E-001	  2.61938E-001	  2.55480E-001	  2.52795E-001	  2.68803E-001
  1.66400E-001	  2.49834E-001	  2.46707E-001	  2.36955E-001	  2.58178E-001
  1.79200E-001	  2.39187E-001	  2.34583E-001	  2.32481E-001	  2.43960E-001
  1.92000E-001	  2.29884E-001	  2.22012E-001	  2.23419E-001	  2.36549E-001
  2.04800E-001	  2.20850E-001	  2.12245E-001	  2.09938E-001	  2.25379E-001
  2.30400E-001	  2.03000E-001	  1.91554E-001	  1.98670E-001	  2.07819E-001
  2.56000E-001	  1.86662E-001	  1.78812E-001	  1.78894E-001	  1.87036E-001
  2.81600E-001	  1.72483E-001	  1.66534E-001	  1.65130E-001	  1.70889E-001
  3.07200E-001	  1.59125E-001	  1.52541E-001	  1.53884E-001	  1.63232E-001
  3.32800E-001	  1.48814E-001	  1.38327E-001	  1.41044E-001	  1.47411E-001
  3.58400E-001	  1.35889E-001	  1.27782E-001	  1.30656E-001	  1.34399E-001
  3.84000E-001	  1.23122E-001	  1.20093E-001	  1.14658E-001	  1.27565E-001
  4.09600E-001	  1.14563E-001	  1.10722E-001	  1.15272E-001	  1.17443E-001
  4.60800E-001	  9.86051E-002	  9.55741E-002	  1.03289E-001	  1.04835E-001
  5.12000E-001	  8.49543E-002	  8.15539E-002	  8.90602E-002	  9.33270E-002
  5.63200E-001	  7.40721E-002	  6.97401E-002	  8.10964E-002	  8.88320E-002
  6.14400E-001	  6.52081E-002	  5.92213E-002	  7.32175E-002	  8.14042E-002
  6.65600E-001	  5.80825E-002	  5.27770E-002	  6.76569E-002	  8.09866E-002
  7.16800E-001	  5.01282E-002	  4.69978E-002	  5.95133E-002	  8.18965E-002
  7.68000E-001	  4.49238E-002	  4.23089E-002	  5.66729E-002	  8.14634E-002
  8.19200E-001	  3.83516E-002	  3.62530E-002	  5.14862E-002	  7.71283E-002
  9.21600E-001	  2.95963E-002	  2.72176E-002	  4.37274E-002	  7.23009E-002
  1.02400E+000	  2.26451E-002	  2.09269E-002	  3.69201E-002	  6.25769E-002
  1.12640E+000	  1.67759E-002	  2.01041E-002	  3.18921E-002	  5.27590E-002
  1.22880E+000	  1.43645E-002	  1.30112E-002	  2.84853E-002	  3.80714E-002
  1.33120E+000	  1.38927E-002	  1.24989E-002	  2.89651E-002	  3.40277E-002
  1.43360E+000	  1.31289E-002	  1.24972E-002	  2.81874E-002	  3.37305E-002
  1.53600E+000	  1.32025E-002	  1.10079E-002	  2.52054E-002	  3.41597E-002
  1.63840E+000	  1.65938E-002	  1.18552E-002	  2.33260E-002	  3.06665E-002
  1.84320E+000	  1.80186E-002	  1.40425E-002	  1.21388E-002	  2.85341E-002
  2.04800E+000	  1.21264E-002	  1.19970E-002	  7.62196E-003	  2.98561E-002
  2.25280E+000	  6.69683E-003	  1.00385E-002	  7.69827E-003	  2.28615E-002
  2.45760E+000	  3.64886E-003	  7.77585E-003	  8.53971E-003	  1.13356E-002
  2.66240E+000	  1.67470E-003	  8.64640E-003	  1.19937E-002	  2.38039E-003
  2.86720E+000	 -8.47094E-003	  9.37967E-003	  1.87148E-002	  2.89430E-003
  3.07200E+000	 -5.42382E-003	  7.09110E-003	  1.09746E-002	  5.00006E-003
  3.27680E+000	 -1.01277E-003	  9.84954E-003	  6.95971E-003	 -1.59203E-004
  3.68640E+000	  1.04491E-002	  1.62287E-002	  6.78777E-003	  3.48394E-003
  4.09600E+000	  6.72266E-003	  9.06714E-003	  1.61589E-002	  6.66409E-003
  4.50560E+000	  1.24166E-002	 -5.77575E-003	  1.54942E-002	  9.16987E-003
  4.91520E+000	  8.48875E-003	 -9.40374E-003	  1.54739E-002	  1.09564E-002
  5.32480E+000	  1.04033E-002	 -1.27989E-003	  8.00861E-003	  1.31830E-002
  5.73440E+000	  6.47590E-003	  3.65811E-004	 -4.71952E-003	  1.52588E-002
  6.14400E+000	  6.36364E-005	 -4.45491E-003	 -4.69114E-003	  1.32015E-002
  6.55360E+000	  5.05078E-003	  1.46790E-003	 -9.71505E-003	  8.48764E-003
  7.37280E+000	  3.07621E-003	 -2.41525E-003	 -6.05337E-003	  4.69885E-003
  8.19200E+000	 -1.28519E-004	 -1.85317E-003	 -3.86056E-003	 -6.56609E-003
  9.01120E+000	  1.56379E-002	 -1.42489E-002	 -4.55517E-003	  1.23714E-003
  9.83040E+000	  5.72940E-004	 -9.30667E-003	 -8.37593E-003	 -7.31823E-003
  1.06496E+001	 -1.52274E-002	  4.43855E-003	  7.69308E-003	 -2.26079E-003
  1.14688E+001	  1.05298E-002	  5.53716E-003	  8.63880E-003	 -4.81799E-003
  1.22880E+001	  4.94021E-003	  8.69122E-003	  4.22943E-003	 -4.75946E-003
  1.31072E+001	 -2.55156E-003	  2.46587E-003	  1.31376E-003	 -1.11993E-004
  1.47456E+001	  2.42377E-003	 -5.42763E-003	 -4.62359E-003	 -1.70847E-003
  1.63840E+001	 -5.25356E-003	  3.24229E-003	 -1.10121E-002	 -7.59794E-003
  1.80224E+001	  2.50847E-003	  9.41696E-003	 -5.80907E-003	 -1.63729E-003
  1.96608E+001	 -1.57215E-003	  6.39324E-003	 -4.27797E-004	 -8.51580E-004
  2.12992E+001	 -1.16908E-002	 -5.57164E-003	 -2.69424E-003	 -2.10599E-003
  2.29376E+001	 -4.75637E-003	 -3.33653E-003	  6.02538E-003	 -2.90356E-003
  2.45760E+001	 -2.36272E-003	 -1.17271E-003	  6.39105E-003	 -9.77887E-003
  2.62144E+001	  2.24837E-004	 -1.67838E-003	 -2.86558E-004	 -3.58181E-003
  2.94912E+001	 -3.72854E-003	  6.10228E-003	 -4.92914E-003	 -6.03347E-005
  3.27680E+001	 -3.72490E-003	  4.30860E-003	 -1.06912E-002	  8.63385E-003
  3.60448E+001	  2.79346E-003	 -1.69710E-003	  1.96871E-003	  1.01038E-002
  3.93216E+001	  5.40181E-003	 -1.07906E-002	 -1.13252E-004	  1.09064E-002
  4.25984E+001	  4.69924E-003	 -7.23440E-003	  3.78446E-003	 -6.77146E-004
  4.58752E+001	 -1.09740E-003	  6.46061E-003	  4.45157E-003	 -3.20341E-003
  4.91520E+001	 -2.18365E-003	  6.51686E-003	  7.27523E-003	  1.53931E-003
  5.24288E+001	  3.68079E-003	 -4.18362E-003	 -3.73754E-003	 -1.00855E-003
  5.89824E+001	 -4.72808E-004	 -1.95893E-003	 -1.09183E-003	  4.04593E-004
  6.55360E+001	  1.13191E-003	 -4.39162E-003	  3.05241E-003	  3.01357E-004
  7.20896E+001	 -1.06232E-003	  3.81957E-003	 -1.78354E-003	  6.57558E-004
  7.86432E+001	 -1.30469E-003	 -1.37146E-003	 -1.32268E-002	 -6.55799E-004
  8.51968E+001	 -1.08910E-003	 -4.40555E-003	  2.28427E-003	 -3.96136E-003
  9.17504E+001	 -2.37053E-003	  4.29665E-004	  4.70504E-003	  7.61275E-003
  9.83040E+001	 -1.04402E-002	 -2.35668E-003	 -1.14579E-003	  5.34895E-003
  1.04858E+002	 -4.37001E-003	 -9.44336E-004	 -5.12444E-004	  1.35949E-003
  1.17965E+002	 -4.72181E-003	  1.62067E-003	  9.72093E-004	 -1.72545E-003
  1.31072E+002	  1.38442E-003	  1.13573E-004	  3.03546E-003	 -1.30030E-003
  1.44179E+002	  3.09898E-003	  1.90668E-003	 -1.99706E-003	  3.49069E-003
  1.57286E+002	  7.15298E-004	 -4.69727E-003	  2.36479E-003	  7.66926E-003
  1.70394E+002	 -3.64639E-003	 -2.26595E-005	  2.50215E-003	 -8.65003E-004
  1.83501E+002	  3.38597E-003	 -8.74578E-004	  2.76801E-003	  1.57787E-003
  1.96608E+002	  7.98470E-003	 -2.17148E-003	 -1.86770E-003	 -8.63139E-004
  2.09715E+002	  6.00470E-004	 -5.34232E-003	 -8.22776E-003	  5.52163E-004
  2.35930E+002	  1.38303E-003	  6.24267E-004	  8.35722E-004	 -2.82147E-003
  2.62144E+002	 -5.50656E-003	  5.72311E-004	 -8.48687E-003	 -2.21578E-003
  2.88358E+002	  2.84392E-003	 -7.52827E-004	  7.13264E-003	 -2.43875E-003
  3.14573E+002	 -2.28792E-003	 -7.19396E-004	 -5.92155E-003	  1.37821E-004
  3.40787E+002	  4.57717E-003	 -3.12840E-003	  1.07794E-003	 -3.65519E-004
  3.67002E+002	  1.92295E-004	  1.84834E-003	 -6.19520E-003	 -3.23549E-003
  3.93216E+002	 -2.45540E-003	  1.00605E-003	  3.87435E-004	 -6.20913E-003

"Count Rate"
       0.01311	     135.72693	     145.72144	     147.32361	     127.10571
       0.02621	     134.96399	     163.26904	     115.05127	     142.28821
       0.03932	     121.15479	     107.57446	     120.84961	     204.31519
       0.05243	     171.73767	     110.47363	     186.84387	     131.30188
       0.06554	     110.24475	     114.66980	     138.09204	     158.69141
       0.07864	     119.24744	     124.43542	     158.92029	     212.78381
       0.09175	     162.12463	     164.26086	     146.40808	     128.02124
       0.10486	     161.20911	     144.42444	     126.11389	     113.52539
       0.11796	     166.62598	     171.12732	     135.49805	     131.30188
       0.13107	     162.73499	     123.67249	     115.43274	     136.03210
       0.14418	     135.65063	     179.51965	     106.58264	     145.26367
       0.15729	     144.57703	     129.54712	     137.93945	     157.47070
       0.17039	     162.20093	     186.00464	     151.51978	     206.60400
       0.18350	     131.14929	     141.29639	     146.63696	     147.47620
       0.19661	     134.04846	     101.16577	     186.08093	     107.65076
       0.20972	     146.94214	     116.65344	     118.02673	     141.52527
       0.22282	     128.02124	     139.77051	     140.83862	     152.89307
       0.23593	     148.69690	     172.42432	     167.69409	     141.83044
       0.24904	     159.37805	     130.00488	     136.33728	     120.39185
       0.26214	     124.58801	     134.65881	      96.43555	     116.95862
       0.27525	     174.40796	     129.39453	     124.51172	     113.14392
       0.28836	     145.41626	     142.05933	     175.17090	     117.95044
       0.30147	     165.02380	     123.21472	     114.28833	     132.52258
       0.31457	     120.92590	     159.60693	     134.12476	     123.36731
       0.32768	     149.30725	     138.77869	     169.44885	     199.58496
       0.34079	     194.62585	     135.57434	     136.48987	     129.69971
       0.35389	     120.46814	     159.30176	     104.75159	     135.42175
       0.36700	     128.09753	     131.22559	     135.42175	     133.97217
       0.38011	     149.38354	     116.50085	     130.61523	     105.28564
       0.39322	     149.68872	     101.92871	     141.60156	     111.84692
       0.40632	     112.76245	     133.89587	     134.65881	     121.38367
       0.41943	     152.96936	     145.79773	     112.45728	     118.25562
       0.43254	     157.47070	     121.91772	     117.79785	     148.54431
       0.44564	     104.75159	     128.93677	     113.06763	     100.78430
       0.45875	     133.97217	     151.13831	     161.59058	     124.05396
       0.47186	     148.23914	     134.35364	     138.70239	     144.34814
       0.48497	     153.19824	     119.32373	     129.08936	     117.34009
       0.49807	     169.06738	     158.92029	     109.17664	     152.58789
       0.51118	     114.44092	     142.51709	     153.50342	     112.60986
       0.52429	     136.18469	     137.71057	     130.92041	     136.94763
       0.53740	     133.97217	     137.17651	      80.03235	     134.27734
       0.55050	     130.76782	     145.87402	     103.37830	     140.99121
       0.56361	     141.90674	     156.32629	     109.10034	     121.61255
       0.57672	     149.68872	     130.92041	     162.35352	     120.31555
       0.58982	     127.56348	     193.71033	     119.55261	     137.55798
       0.60293	     114.51721	     157.39441	     114.66980	     122.90955
       0.61604	     162.58240	     180.51147	     157.69958	     168.83850
       0.62915	     206.45142	     154.49524	     130.31006	     121.68884
       0.64225	     121.84143	     146.40808	     150.07019	     139.00757
       0.65536	     127.79236	     112.76245	     125.35095	     144.11926
       0.66847	     165.02380	     134.27734	     158.92029	     157.77588
       0.68157	     127.18201	     135.42175	     160.67505	     143.50891
       0.69468	     122.83325	     118.25562	     122.68066	     133.97217
       0.70779	     136.10840	     142.28821	     124.35913	     170.13550
       0.72090	     116.19568	     176.16272	     119.09485	     119.78149
       0.73400	     134.73511	     125.04578	     120.46814	     128.63159
       0.74711	     136.03210	     155.41077	     142.66968	     173.26355
