ALV-7004/USB-FAST
Date :	"3/14/2024"
Time :	"12:33:32 PM"
Samplename : 	""
SampMemo(0) : 	""
SampMemo(1) : 	""
SampMemo(2) : 	""
SampMemo(3) : 	""
SampMemo(4) : 	""
SampMemo(5) : 	""
SampMemo(6) : 	""
SampMemo(7) : 	""
SampMemo(8) : 	""
SampMemo(9) : 	""
Temperature [K] :	     298.16000
Viscosity [cp]  :	       0.89000
Refractive Index:	       1.33200
Wavelength [nm] :	       0.00000
Angle [°]       :	       0.00000
Duration [s]    :	         1
FloatDur [ms]   :	          944
Stop TP [ms]   :	      3288
Runs            :	         1
Mode            :	"A-CH0+1  A-CH2+3 "
MeanCR0 [kHz]   :	     123.64388
MeanCR1 [kHz]   :	     120.31131
MeanCR2 [kHz]   :	     106.40463
MeanCR3 [kHz]   :	     117.81587

"Correlation"
  3.12500E-006	 -1.00000E+000	 -1.00000E+000	 -1.00000E+000	 -1.00000E+000
  6.25000E-006	 -1.00000E+000	 -1.00000E+000	 -1.00000E+000	 -1.00000E+000
  9.37500E-006	 -1.00000E+000	 -1.00000E+000	 -1.00000E+000	 -1.00000E+000
  1.25000E-005	 -1.00000E+000	 -1.00000E+000	 -1.00000E+000	 -1.00000E+000
  1.56250E-005	 -1.00000E+000	 -1.00000E+000	 -1.00000E+000	 -1.00000E+000
  1.87500E-005	 -1.00000E+000	 -1.00000E+000	 -1.00000E+000	 -1.00000E+000
  2.18750E-005	 -9.33460E-001	 -6.29676E-002	 -2.51268E-001	 -9.75571E-001
  2.50000E-005	  6.11979E+000	  6.00432E+000	  5.97818E+000	  1.14586E+001
  2.81250E-005	  1.77250E+000	  1.10832E+000	  1.21625E+000	  4.59417E+000
  3.12500E-005	  1.06274E+000	  1.03805E+000	  1.21625E+000	  3.17730E+000
  3.43750E-005	  9.74024E-001	  6.16381E-001	  1.24620E+000	  2.07801E+000
  3.75000E-005	  4.63883E-001	  5.69529E-001	  2.57870E-001	  2.37116E+000
  4.06250E-005	  5.30423E-001	  7.10084E-001	  7.07110E-001	  1.93144E+000
  4.37500E-005	  7.07863E-001	  6.63232E-001	  9.46704E-001	  1.78487E+000
  4.68750E-005	  5.52603E-001	  6.16381E-001	  5.57363E-001	  1.32072E+000
  5.00000E-005	  5.41513E-001	  6.63232E-001	  5.42388E-001	  1.30851E+000
  5.62500E-005	  4.74973E-001	  5.81242E-001	  5.87312E-001	  9.78723E-001
  6.25000E-005	  5.74783E-001	  4.28974E-001	  7.07110E-001	  1.01537E+000
  6.87500E-005	  6.52413E-001	  6.16381E-001	  7.37059E-001	  1.05201E+000
  7.50000E-005	  4.52793E-001	  6.28094E-001	  6.62186E-001	  8.07722E-001
  8.12500E-005	  6.08053E-001	  3.23558E-001	  6.62186E-001	  8.07722E-001
  8.75000E-005	  3.97342E-001	  5.46103E-001	  5.57363E-001	  7.22222E-001
  9.37500E-005	  4.63883E-001	  2.88419E-001	  5.27414E-001	  4.41292E-001
  1.00000E-004	  4.91607E-001	  4.75826E-001	  6.32236E-001	  5.63435E-001
  1.12500E-004	  5.58148E-001	  4.34831E-001	  4.37566E-001	  4.71828E-001
  1.25000E-004	  4.19522E-001	  4.93395E-001	  3.32743E-001	  6.97793E-001
  1.37500E-004	  5.80328E-001	  5.87098E-001	  6.17261E-001	  6.00078E-001
  1.50000E-004	  4.80517E-001	  5.51960E-001	  3.70180E-001	  5.14578E-001
  1.62500E-004	  5.41512E-001	  3.70410E-001	  3.02794E-001	  4.84042E-001
  1.75000E-004	  3.08622E-001	  6.10524E-001	  5.27414E-001	  5.02364E-001
  1.87500E-004	  4.86062E-001	  4.75826E-001	  6.24749E-001	  4.84042E-001
  2.00000E-004	  5.91417E-001	  4.11404E-001	  5.79825E-001	  3.92434E-001
  2.25000E-004	  4.11204E-001	  4.81682E-001	  4.60027E-001	  4.47399E-001
  2.50000E-004	  5.19332E-001	  4.49471E-001	  4.89977E-001	  4.04649E-001
  2.75000E-004	  4.97152E-001	  5.37318E-001	  4.30078E-001	  4.50452E-001
  3.00000E-004	  4.97152E-001	  4.67041E-001	  4.11360E-001	  4.41292E-001
  3.25000E-004	  6.16370E-001	  4.67041E-001	  5.16182E-001	  4.50452E-001
  3.50000E-004	  5.02697E-001	  4.72897E-001	  5.16182E-001	  4.10756E-001
  3.75000E-004	  5.49830E-001	  4.20189E-001	  5.68594E-001	  4.41292E-001
  4.00000E-004	  5.26263E-001	  4.83145E-001	  4.61899E-001	  4.79461E-001
  4.50000E-004	  5.09641E-001	  4.72897E-001	  3.62692E-001	  4.44331E-001
  5.00000E-004	  4.74984E-001	  4.83145E-001	  4.54411E-001	  4.87081E-001
  5.50000E-004	  6.02520E-001	  4.80217E-001	  3.81410E-001	  3.92421E-001
  6.00000E-004	  4.95778E-001	  5.35853E-001	  4.37565E-001	  4.99309E-001
  6.50000E-004	  5.29048E-001	  4.99251E-001	  4.03872E-001	  4.90148E-001
  7.00000E-004	  5.31821E-001	  5.16820E-001	  4.56283E-001	  5.11523E-001
  7.50000E-004	  4.68053E-001	  4.99251E-001	  5.40515E-001	  4.19916E-001
  8.00000E-004	  4.52110E-001	  4.42881E-001	  4.52538E-001	  4.70312E-001
  9.00000E-004	  4.80528E-001	  4.52398E-001	  4.73128E-001	  5.00848E-001
  1.00000E-003	  4.84687E-001	  4.66307E-001	  4.86231E-001	  4.56571E-001
  1.10000E-003	  4.97856E-001	  5.17551E-001	  4.75936E-001	  4.88634E-001
  1.20000E-003	  4.34088E-001	  4.48738E-001	  5.29283E-001	  4.27561E-001
  1.30000E-003	  4.88845E-001	  4.26044E-001	  4.89039E-001	  4.78696E-001
  1.40000E-003	  5.15184E-001	  4.69235E-001	  4.72192E-001	  4.32129E-001
  1.50000E-003	  4.56961E-001	  4.53130E-001	  4.36628E-001	  4.87093E-001
  1.60000E-003	  4.98893E-001	  4.62657E-001	  4.34285E-001	  4.81379E-001
  1.80000E-003	  5.01319E-001	  5.02554E-001	  4.63299E-001	  4.69928E-001
  2.00000E-003	  4.94041E-001	  4.65585E-001	  4.74998E-001	  4.40537E-001
  2.20000E-003	  4.45176E-001	  4.86449E-001	  5.00735E-001	  5.10006E-001
  2.40000E-003	  4.86764E-001	  4.62657E-001	  4.42709E-001	  4.64202E-001
  2.60000E-003	  4.32699E-001	  4.63389E-001	  4.41305E-001	  4.03130E-001
  2.80000E-003	  4.95081E-001	  4.87181E-001	  4.35689E-001	  4.66111E-001
  3.00000E-003	  4.53147E-001	  4.55702E-001	  4.42241E-001	  4.09606E-001
  3.20000E-003	  4.65965E-001	  4.80797E-001	  4.60252E-001	  4.30608E-001
  3.60000E-003	  4.37732E-001	  4.43095E-001	  4.67052E-001	  4.80038E-001
  4.00000E-003	  4.83652E-001	  4.77319E-001	  4.17682E-001	  4.43013E-001
  4.40000E-003	  4.87118E-001	  4.78966E-001	  4.47398E-001	  4.58663E-001
  4.80000E-003	  4.50035E-001	  4.67972E-001	  4.56069E-001	  4.81374E-001
  5.20000E-003	  4.71176E-001	  4.54063E-001	  4.56537E-001	  4.57327E-001
  5.60000E-003	  4.76894E-001	  4.48390E-001	  4.51624E-001	  4.72022E-001
  6.00000E-003	  4.70136E-001	  4.55710E-001	  4.57239E-001	  4.46639E-001
  6.40000E-003	  4.69260E-001	  4.55922E-001	  4.63211E-001	  4.43112E-001
  7.20000E-003	  4.78097E-001	  4.84381E-001	  4.48821E-001	  4.51032E-001
  8.00000E-003	  4.64321E-001	  4.73126E-001	  4.53968E-001	  4.68399E-001
  8.80000E-003	  4.70386E-001	  4.63047E-001	  4.44258E-001	  4.45402E-001
  9.60000E-003	  4.61982E-001	  4.46850E-001	  4.60169E-001	  4.50078E-001
  1.04000E-002	  4.78270E-001	  4.45660E-001	  4.79238E-001	  4.60097E-001
  1.12000E-002	  4.54444E-001	  4.66328E-001	  4.41947E-001	  4.51318E-001
  1.20000E-002	  4.76278E-001	  4.43543E-001	  4.69557E-001	  4.42444E-001
  1.28000E-002	  4.75045E-001	  4.55326E-001	  4.58174E-001	  4.38824E-001
  1.44000E-002	  4.55996E-001	  4.56274E-001	  4.52792E-001	  4.32096E-001
  1.60000E-002	  4.61381E-001	  4.47214E-001	  4.33781E-001	  4.34851E-001
  1.76000E-002	  4.56529E-001	  4.60392E-001	  4.36427E-001	  4.25261E-001
  1.92000E-002	  4.58837E-001	  4.63882E-001	  4.44427E-001	  4.27885E-001
  2.08000E-002	  4.72972E-001	  4.48966E-001	  4.33898E-001	  4.42771E-001
  2.24000E-002	  4.55613E-001	  4.34951E-001	  4.48756E-001	  4.27230E-001
  2.40000E-002	  4.41570E-001	  4.50541E-001	  4.41678E-001	  4.29329E-001
  2.56000E-002	  4.46161E-001	  4.48535E-001	  4.34369E-001	  4.26317E-001
  2.88000E-002	  4.54522E-001	  4.35608E-001	  4.24307E-001	  4.25018E-001
  3.20000E-002	  4.48231E-001	  4.40960E-001	  4.32936E-001	  4.14711E-001
  3.52000E-002	  4.46705E-001	  4.31740E-001	  4.27759E-001	  4.30076E-001
  3.84000E-002	  4.32464E-001	  4.30288E-001	  4.21807E-001	  4.24313E-001
  4.16000E-002	  4.37155E-001	  4.40937E-001	  4.13354E-001	  4.08697E-001
  4.48000E-002	  4.27800E-001	  4.25219E-001	  4.05676E-001	  4.01779E-001
  4.80000E-002	  4.26729E-001	  4.09009E-001	  4.12842E-001	  4.10153E-001
  5.12000E-002	  4.23610E-001	  4.14288E-001	  4.05858E-001	  3.98614E-001
  5.76000E-002	  4.15844E-001	  4.06497E-001	  3.95840E-001	  3.94186E-001
  6.40000E-002	  4.20672E-001	  4.04975E-001	  3.93734E-001	  3.83330E-001
  7.04000E-002	  4.02391E-001	  4.01611E-001	  3.83568E-001	  3.89247E-001
  7.68000E-002	  3.98226E-001	  3.95823E-001	  3.75072E-001	  3.73069E-001
  8.32000E-002	  4.01335E-001	  3.90077E-001	  3.68769E-001	  3.77877E-001
  8.96000E-002	  3.91567E-001	  3.82012E-001	  3.56485E-001	  3.72223E-001
  9.60000E-002	  3.90627E-001	  3.79700E-001	  3.67482E-001	  3.67034E-001
  1.02400E-001	  3.80839E-001	  3.77839E-001	  3.56813E-001	  3.57349E-001
  1.15200E-001	  3.68319E-001	  3.66559E-001	  3.45124E-001	  3.48631E-001
  1.28000E-001	  3.63170E-001	  3.55644E-001	  3.28639E-001	  3.36096E-001
  1.40800E-001	  3.56211E-001	  3.43792E-001	  3.15380E-001	  3.32886E-001
  1.53600E-001	  3.47269E-001	  3.39021E-001	  3.13733E-001	  3.24603E-001
  1.66400E-001	  3.35731E-001	  3.27524E-001	  3.01482E-001	  3.14973E-001
  1.79200E-001	  3.26845E-001	  3.20980E-001	  2.86388E-001	  3.06316E-001
  1.92000E-001	  3.18613E-001	  3.19641E-001	  2.82637E-001	  2.99985E-001
  2.04800E-001	  3.13984E-001	  3.08297E-001	  2.77599E-001	  2.94137E-001
  2.30400E-001	  3.01657E-001	  2.94406E-001	  2.63433E-001	  2.78024E-001
  2.56000E-001	  2.86947E-001	  2.79951E-001	  2.42434E-001	  2.68705E-001
  2.81600E-001	  2.75273E-001	  2.64141E-001	  2.29255E-001	  2.55763E-001
  3.07200E-001	  2.62554E-001	  2.52317E-001	  2.20083E-001	  2.45784E-001
  3.32800E-001	  2.55968E-001	  2.44864E-001	  2.07352E-001	  2.31608E-001
  3.58400E-001	  2.44110E-001	  2.33382E-001	  1.97832E-001	  2.23400E-001
  3.84000E-001	  2.29808E-001	  2.20765E-001	  1.85278E-001	  2.12165E-001
  4.09600E-001	  2.23346E-001	  2.08365E-001	  1.77262E-001	  2.03603E-001
  4.60800E-001	  2.00779E-001	  1.90331E-001	  1.54685E-001	  1.84900E-001
  5.12000E-001	  1.84781E-001	  1.72876E-001	  1.32770E-001	  1.68642E-001
  5.63200E-001	  1.72899E-001	  1.58506E-001	  1.20263E-001	  1.53938E-001
  6.14400E-001	  1.57837E-001	  1.43261E-001	  1.08757E-001	  1.40994E-001
  6.65600E-001	  1.41128E-001	  1.32452E-001	  9.92628E-002	  1.29103E-001
  7.16800E-001	  1.27554E-001	  1.17692E-001	  8.92780E-002	  1.16030E-001
  7.68000E-001	  1.20241E-001	  1.10287E-001	  8.00774E-002	  1.01123E-001
  8.19200E-001	  1.09509E-001	  1.01535E-001	  7.21990E-002	  9.18400E-002
  9.21600E-001	  9.48039E-002	  8.36556E-002	  5.92265E-002	  7.54757E-002
  1.02400E+000	  7.69725E-002	  7.14354E-002	  4.83624E-002	  5.78920E-002
  1.12640E+000	  6.08697E-002	  6.59727E-002	  3.50942E-002	  4.93544E-002
  1.22880E+000	  5.37570E-002	  6.13469E-002	  2.66577E-002	  4.20247E-002
  1.33120E+000	  4.49505E-002	  5.01353E-002	  2.23435E-002	  3.82498E-002
  1.43360E+000	  3.63316E-002	  4.43641E-002	  1.34288E-002	  3.26663E-002
  1.53600E+000	  2.81005E-002	  3.85797E-002	  6.90359E-003	  2.71018E-002
  1.63840E+000	  2.25692E-002	  3.50817E-002	  4.04990E-003	  2.25194E-002
  1.84320E+000	  1.39161E-002	  2.38329E-002	  3.71612E-003	  1.69742E-002
  2.04800E+000	  9.44454E-003	  1.37188E-002	 -2.80760E-004	  8.04997E-003
  2.25280E+000	  4.91552E-003	  3.40417E-003	 -1.61193E-003	 -1.84360E-003
  2.45760E+000	 -2.41529E-003	  1.02465E-003	 -1.62020E-003	 -5.02346E-003
  2.66240E+000	 -1.71091E-003	  5.65425E-003	  3.01662E-003	 -6.23210E-003
  2.86720E+000	 -5.87806E-003	  1.30774E-002	  4.16050E-005	 -2.75338E-003
  3.07200E+000	 -1.26147E-002	  1.46364E-002	 -1.26470E-003	 -5.52657E-003
  3.27680E+000	 -9.65338E-003	  1.38905E-002	  7.68872E-004	 -1.03211E-002
  3.68640E+000	 -1.44879E-002	  1.27179E-002	  9.30548E-003	 -1.08487E-002
  4.09600E+000	 -7.92786E-003	  5.82529E-003	  4.52103E-003	 -3.67796E-003
  4.50560E+000	 -4.74929E-003	  4.25847E-003	 -6.60675E-003	 -1.07057E-003
  4.91520E+000	  3.18509E-003	 -3.14665E-004	 -1.65568E-002	 -2.17144E-003
  5.32480E+000	  1.14921E-002	  2.90031E-003	 -1.01665E-002	 -8.47348E-003
  5.73440E+000	  7.36755E-003	  1.14901E-002	 -1.46107E-003	 -6.99485E-003
  6.14400E+000	 -1.05299E-002	  1.22731E-002	  6.48638E-003	  1.68138E-003
  6.55360E+000	 -2.51115E-002	  9.17963E-003	  1.26445E-003	  5.54293E-003
  7.37280E+000	 -1.59166E-002	 -1.93085E-004	 -1.70268E-003	  2.35713E-003
  8.19200E+000	 -8.34215E-003	 -9.69603E-003	 -4.30324E-003	 -2.26857E-003
  9.01120E+000	 -1.16860E-003	  2.79061E-003	  2.00785E-003	 -1.51102E-002
  9.83040E+000	 -8.33484E-003	  8.88155E-003	 -3.30247E-003	 -2.11537E-002
  1.06496E+001	 -8.99663E-003	  1.07551E-002	 -1.48423E-002	 -4.00737E-003
  1.14688E+001	 -8.22666E-003	  1.27604E-002	 -5.86956E-003	 -1.25725E-003
  1.22880E+001	 -4.97609E-003	  5.44237E-003	 -3.93874E-003	  3.94413E-003
  1.31072E+001	  5.05588E-004	 -5.11467E-003	 -6.70779E-003	  1.11618E-002
  1.47456E+001	 -2.58712E-003	 -1.62653E-002	 -1.38786E-002	 -1.17234E-002
  1.63840E+001	  3.42798E-003	 -1.21022E-002	 -2.78694E-003	 -1.62844E-002
  1.80224E+001	  3.94457E-003	  6.91357E-004	  5.69962E-003	  5.97058E-003
  1.96608E+001	 -2.03794E-002	 -5.47281E-003	 -6.35822E-003	  5.14070E-003
  2.12992E+001	 -1.40208E-002	 -3.46843E-003	 -8.39215E-003	 -5.30420E-003
  2.29376E+001	  1.12130E-003	  6.35480E-004	 -5.06632E-003	 -1.68834E-002
  2.45760E+001	  6.07389E-003	  7.50867E-003	  1.76679E-004	 -7.44367E-003
  2.62144E+001	 -2.67415E-004	  6.18293E-003	 -4.88838E-003	 -7.08213E-004
  2.94912E+001	  1.19410E-002	 -1.00885E-002	  2.80409E-003	 -3.64171E-003
  3.27680E+001	  2.58285E-003	 -6.80873E-004	 -4.56659E-003	 -9.64907E-004
  3.60448E+001	 -3.46217E-003	  3.88510E-003	  3.19941E-003	 -9.93811E-003
  3.93216E+001	 -1.01085E-003	  1.44493E-003	  7.42378E-003	  1.10607E-002
  4.25984E+001	  8.37084E-003	 -1.03048E-003	 -1.63895E-002	  6.89580E-004
  4.58752E+001	 -6.28062E-003	 -7.95565E-003	 -3.90556E-003	  8.14317E-004
  4.91520E+001	  4.16626E-003	 -8.24034E-003	  2.59321E-003	  3.76086E-004
  5.24288E+001	  7.31906E-003	 -1.01059E-002	  9.34136E-003	  8.71427E-003
  5.89824E+001	 -7.95660E-004	 -4.21082E-003	  2.53501E-003	  4.64635E-003
  6.55360E+001	  1.21523E-003	 -7.39638E-003	  3.15357E-004	 -3.57773E-003
  7.20896E+001	 -7.15526E-003	 -3.30432E-003	 -1.71190E-003	 -9.88759E-003
  7.86432E+001	  9.74352E-003	  8.81714E-003	  2.41363E-003	 -1.17572E-002
  8.51968E+001	 -6.96750E-003	 -3.43810E-003	 -3.07693E-003	  7.28498E-004
  9.17504E+001	  5.12741E-003	  2.80204E-003	 -4.83929E-003	  1.53039E-003
  9.83040E+001	 -5.80689E-003	 -1.77394E-004	 -4.44775E-004	 -4.41001E-003
  1.04858E+002	 -4.11936E-003	  4.07816E-003	  2.53462E-003	  7.07302E-003
  1.17965E+002	  1.52088E-004	  2.95114E-003	  2.97353E-003	 -3.67837E-003
  1.31072E+002	 -1.41130E-003	 -8.40138E-004	 -5.45699E-003	 -5.24468E-003
  1.44179E+002	  3.04877E-003	  1.99983E-003	  1.96599E-003	  4.85211E-003
  1.57286E+002	 -6.60392E-003	  4.63333E-003	  4.33169E-003	  4.86064E-003
  1.70394E+002	 -2.26383E-003	 -5.00420E-003	  3.94099E-005	 -8.07218E-005
  1.83501E+002	 -9.52254E-003	  1.41053E-002	 -7.83119E-003	 -5.02598E-003
  1.96608E+002	 -3.62252E-003	 -7.52133E-003	  4.01509E-003	 -1.15645E-003
  2.09715E+002	 -3.01045E-003	 -3.44866E-003	  1.59267E-003	  5.49546E-004
  2.35930E+002	 -6.14916E-004	  2.89375E-004	 -6.25069E-003	  4.65795E-003
  2.62144E+002	 -2.71940E-003	  4.78355E-003	 -1.49595E-003	 -3.43715E-003
  2.88358E+002	  5.55096E-003	 -1.55016E-003	 -3.86466E-003	  2.47422E-003
  3.14573E+002	 -8.14090E-004	 -4.93255E-003	  2.76241E-003	 -9.21591E-003
  3.40787E+002	  3.00543E-003	  1.01547E-003	 -1.42769E-003	  6.67346E-003
  3.67002E+002	  3.59004E-003	  4.74887E-003	  8.71828E-004	 -2.88138E-003
  3.93216E+002	 -6.54916E-004	 -1.22739E-003	 -9.57403E-004	  7.38639E-003

"Count Rate"
       0.01311	      85.37292	     122.60437	     118.78967	     142.51709
       0.02621	     123.90137	      79.26941	     107.49817	     113.29651
       0.03932	     102.84424	      81.78711	     119.55261	      98.34290
       0.05243	     149.91760	     128.86047	     101.31836	     124.28284
       0.06554	     146.71326	      95.67261	     113.14392	     114.51721
       0.07864	      88.27209	     168.83850	      94.90967	     140.99121
       0.09175	     133.81958	     122.68066	      75.91248	     162.65869
       0.10486	     146.56067	     126.26648	     101.92871	     127.33459
       0.11796	     117.34009	     112.76245	     122.07031	     107.65076
       0.13107	      93.68896	      82.77893	     107.26929	      99.41101
       0.14418	     158.38623	     125.42725	      92.92603	     115.20386
       0.15729	     130.76782	     151.82495	      98.41919	     101.31836
       0.17039	      85.98328	     120.62073	     109.25293	      97.96143
       0.18350	     110.47363	     169.06738	     120.77332	     106.96411
       0.19661	     106.35376	     118.33191	     106.27747	     105.97229
       0.20972	     128.93677	      79.04053	      64.77356	     134.35364
       0.22282	     135.34546	      88.11951	     150.29907	      93.53638
       0.23593	     138.16833	     151.44348	      70.57190	     126.26648
       0.24904	      89.03503	      83.77075	      90.10315	     141.22009
       0.26214	     101.54724	     160.14099	     114.82239	     149.68872
       0.27525	      96.43555	     125.73242	     118.56079	      96.96960
       0.28836	     117.11121	     139.69421	      96.20667	     138.85498
       0.30147	     111.54175	      95.13855	     108.87146	     106.96411
       0.31457	     110.39734	     138.77869	     119.62891	     118.56079
       0.32768	      93.61267	     107.11670	     131.75964	      93.53638
       0.34079	     125.57983	     150.68054	     102.31018	     133.36182
       0.35389	     145.03479	     139.08386	      81.86340	     166.77856
       0.36700	     134.73511	      97.50366	      95.97778	     103.68347
       0.38011	     113.90686	     142.66968	     116.80603	     117.03491
       0.39322	     127.94495	     124.43542	     146.25549	     162.27722
       0.40632	     170.28809	     107.95593	      70.26672	     115.05127
       0.41943	     128.25012	     152.58789	      94.90967	      83.38928
       0.43254	     100.70801	      90.40833	      94.37561	     135.80322
       0.44564	     178.14636	     124.51172	     126.19019	     113.67798
       0.45875	     102.46277	      96.66443	      84.38110	      96.35925
       0.47186	     143.28003	      94.60449	     121.84143	     101.31836
       0.48497	     114.51721	     105.28564	     104.06494	     117.56897
       0.49807	     175.17090	     116.80603	      92.69714	     148.01025
       0.51118	     117.26379	     113.14392	      97.88513	      93.07861
       0.52429	     141.14380	     187.37793	      92.23938	      73.62366
       0.53740	     133.43811	     164.71863	      91.47644	     101.08948
       0.55050	     103.91235	     111.99951	      81.55823	     118.63708
       0.56361	     118.02673	     147.70508	      95.29114	     119.24744
       0.57672	     107.95593	      81.78711	      63.24768	      91.32385
       0.58982	     106.88782	     136.94763	     132.37000	      99.86877
       0.60293	     124.51172	      85.29663	     114.13574	     136.56616
       0.61604	     102.46277	     101.62354	     103.53088	     121.68884
       0.62915	      80.03235	      97.50366	     120.77332	     134.42993
       0.64225	     165.48157	     110.01587	     102.00500	     103.98865
       0.65536	     108.41370	     125.50354	     101.62354	     143.28003
       0.66847	     120.92590	     134.73511	     105.51453	     106.88782
       0.68157	     115.20386	     104.67529	      68.66455	      80.33752
       0.69468	      76.21765	     115.81421	     121.00220	     100.40283
       0.70779	     131.53076	     120.39185	     103.22571	     116.65344
       0.72090	     119.55261	     120.16296	     128.02124	      98.80066
       0.73400	     137.48169	     107.57446	      89.18762	     107.42188
       0.74711	     118.33191	      94.07043	     125.19836	      94.60449
