ALV-7004/USB-FAST
Date :	"3/14/2024"
Time :	"12:32:12 PM"
Samplename : 	""
SampMemo(0) : 	""
SampMemo(1) : 	""
SampMemo(2) : 	""
SampMemo(3) : 	""
SampMemo(4) : 	""
SampMemo(5) : 	""
SampMemo(6) : 	""
SampMemo(7) : 	""
SampMemo(8) : 	""
SampMemo(9) : 	""
Temperature [K] :	     298.16000
Viscosity [cp]  :	       0.89000
Refractive Index:	       1.33200
Wavelength [nm] :	       0.00000
Angle [°]       :	       0.00000
Duration [s]    :	         1
FloatDur [ms]   :	          944
Stop TP [ms]   :	      3204
Runs            :	         1
Mode            :	"A-CH0+1  A-CH2+3 "
MeanCR0 [kHz]   :	     148.06747
MeanCR1 [kHz]   :	     141.84845
MeanCR2 [kHz]   :	     142.48213
MeanCR3 [kHz]   :	     141.02406

"Correlation"
  3.12500E-006	 -1.00000E+000	 -1.00000E+000	 -1.00000E+000	 -1.00000E+000
  6.25000E-006	 -1.00000E+000	 -1.00000E+000	 -1.00000E+000	 -1.00000E+000
  9.37500E-006	 -1.00000E+000	 -1.00000E+000	 -1.00000E+000	 -1.00000E+000
  1.25000E-005	 -1.00000E+000	 -1.00000E+000	 -1.00000E+000	 -1.00000E+000
  1.56250E-005	 -1.00000E+000	 -1.00000E+000	 -1.00000E+000	 -1.00000E+000
  1.87500E-005	 -1.00000E+000	 -1.00000E+000	 -1.00000E+000	 -1.00000E+000
  2.18750E-005	 -9.38135E-001	 -2.24796E-001	 -1.14757E-001	 -9.65900E-001
  2.50000E-005	  5.83613E+000	  5.38701E+000	  5.06308E+000	  9.65617E+000
  2.81250E-005	  1.56742E+000	  1.27506E+000	  9.70919E-001	  3.82511E+000
  3.12500E-005	  8.71430E-001	  1.02227E+000	  7.03676E-001	  2.56342E+000
  3.43750E-005	  6.08502E-001	  6.51522E-001	  1.07114E+000	  1.67683E+000
  3.75000E-005	  9.48762E-001	  7.86340E-001	  7.03676E-001	  1.60863E+000
  4.06250E-005	  6.08502E-001	  4.49295E-001	  5.86757E-001	  1.48928E+000
  4.37500E-005	  3.76506E-001	  2.13363E-001	  6.70270E-001	  1.31878E+000
  4.68750E-005	  7.16766E-001	  3.81886E-001	  5.70054E-001	  1.26763E+000
  5.00000E-005	  6.62634E-001	  5.92539E-001	  5.28297E-001	  9.60735E-001
  5.62500E-005	  6.62634E-001	  5.58834E-001	  5.78405E-001	  9.35160E-001
  6.25000E-005	  7.86365E-001	  5.08278E-001	  5.36649E-001	  1.05451E+000
  6.87500E-005	  6.70367E-001	  3.06051E-001	  7.37081E-001	  7.22037E-001
  7.50000E-005	  6.31701E-001	  4.91425E-001	  5.19946E-001	  8.32861E-001
  8.12500E-005	  4.69304E-001	  6.00965E-001	  4.19730E-001	  6.36788E-001
  8.75000E-005	  3.45573E-001	  6.51522E-001	  5.28297E-001	  5.77113E-001
  9.37500E-005	  7.09033E-001	  3.73460E-001	  4.36432E-001	  8.32861E-001
  1.00000E-004	  5.96902E-001	  4.70360E-001	  4.74013E-001	  7.17774E-001
  1.12500E-004	  4.42238E-001	  4.74573E-001	  4.44784E-001	  6.66625E-001
  1.25000E-004	  5.38903E-001	  4.99851E-001	  7.62135E-001	  6.11213E-001
  1.37500E-004	  5.11837E-001	  3.94525E-001	  3.86324E-001	  5.08913E-001
  1.50000E-004	  5.11837E-001	  4.78786E-001	  5.24122E-001	  5.77113E-001
  1.62500E-004	  4.80904E-001	  5.84113E-001	  4.90716E-001	  5.00388E-001
  1.75000E-004	  4.19039E-001	  4.78786E-001	  5.82581E-001	  5.72850E-001
  1.87500E-004	  5.35036E-001	  4.87212E-001	  6.95324E-001	  3.51202E-001
  2.00000E-004	  5.40836E-001	  5.75686E-001	  6.22250E-001	  4.55632E-001
  2.25000E-004	  5.07970E-001	  5.12490E-001	  5.99283E-001	  4.81207E-001
  2.50000E-004	  4.34505E-001	  4.80892E-001	  5.28297E-001	  3.91695E-001
  2.75000E-004	  4.88637E-001	  5.01958E-001	  5.15770E-001	  5.45144E-001
  3.00000E-004	  5.15703E-001	  4.40868E-001	  4.86540E-001	  4.83338E-001
  3.25000E-004	  3.80372E-001	  5.50408E-001	  4.86540E-001	  4.83338E-001
  3.50000E-004	  3.97772E-001	  3.65033E-001	  5.90932E-001	  4.25795E-001
  3.75000E-004	  5.38903E-001	  4.80892E-001	  5.40824E-001	  4.76945E-001
  4.00000E-004	  5.35035E-001	  5.43034E-001	  5.04286E-001	  4.37516E-001
  4.50000E-004	  4.98303E-001	  4.95637E-001	  4.66705E-001	  4.58828E-001
  5.00000E-004	  4.88636E-001	  5.00904E-001	  4.72969E-001	  4.70550E-001
  5.50000E-004	  4.60603E-001	  4.68252E-001	  4.44783E-001	  4.32188E-001
  6.00000E-004	  5.02169E-001	  5.09330E-001	  5.33516E-001	  4.67353E-001
  6.50000E-004	  5.01203E-001	  4.34548E-001	  5.67965E-001	  4.80141E-001
  7.00000E-004	  5.14736E-001	  4.78785E-001	  4.15553E-001	  4.39647E-001
  7.50000E-004	  4.84770E-001	  5.41981E-001	  4.99067E-001	  4.31122E-001
  8.00000E-004	  4.86702E-001	  5.70430E-001	  4.82363E-001	  4.33785E-001
  9.00000E-004	  5.00718E-001	  5.52524E-001	  5.01675E-001	  4.39113E-001
  1.00000E-003	  4.92502E-001	  4.88274E-001	  5.11592E-001	  4.90274E-001
  1.10000E-003	  4.56736E-001	  4.98807E-001	  4.96977E-001	  4.69494E-001
  1.20000E-003	  4.27253E-001	  4.76162E-001	  5.08460E-001	  4.33263E-001
  1.30000E-003	  5.06035E-001	  4.84061E-001	  5.03241E-001	  4.90807E-001
  1.40000E-003	  5.13768E-001	  4.80901E-001	  4.93846E-001	  4.58838E-001
  1.50000E-003	  4.54802E-001	  4.75108E-001	  5.16290E-001	  4.81216E-001
  1.60000E-003	  4.48275E-001	  4.94109E-001	  5.13417E-001	  4.72422E-001
  1.80000E-003	  4.32084E-001	  4.62247E-001	  4.83665E-001	  4.41519E-001
  2.00000E-003	  4.59633E-001	  4.59340E-001	  5.19419E-001	  4.42052E-001
  2.20000E-003	  4.66158E-001	  4.79089E-001	  4.87841E-001	  4.35658E-001
  2.40000E-003	  4.80658E-001	  4.70663E-001	  4.74531E-001	  4.61233E-001
  2.60000E-003	  4.61808E-001	  4.88305E-001	  4.73226E-001	  4.46048E-001
  2.80000E-003	  4.62533E-001	  4.65659E-001	  5.21768E-001	  4.48979E-001
  3.00000E-003	  4.82108E-001	  4.89095E-001	  5.07936E-001	  4.77750E-001
  3.20000E-003	  4.73182E-001	  4.71261E-001	  5.06126E-001	  4.60962E-001
  3.60000E-003	  4.65207E-001	  4.70987E-001	  5.21524E-001	  4.77879E-001
  4.00000E-003	  4.64482E-001	  4.93096E-001	  5.16827E-001	  4.31258E-001
  4.40000E-003	  4.73907E-001	  5.06646E-001	  4.85117E-001	  4.41115E-001
  4.80000E-003	  4.51432E-001	  4.67816E-001	  4.72982E-001	  4.55501E-001
  5.20000E-003	  4.23762E-001	  4.85711E-001	  4.91903E-001	  4.65757E-001
  5.60000E-003	  4.64362E-001	  4.96245E-001	  5.10694E-001	  4.21135E-001
  6.00000E-003	  4.85024E-001	  4.78733E-001	  5.03647E-001	  4.52037E-001
  6.40000E-003	  4.71693E-001	  4.85538E-001	  4.98777E-001	  4.49119E-001
  7.20000E-003	  4.50245E-001	  4.81642E-001	  5.02757E-001	  4.42326E-001
  8.00000E-003	  4.63416E-001	  4.75300E-001	  4.93557E-001	  4.61174E-001
  8.80000E-003	  4.56035E-001	  4.73918E-001	  4.74560E-001	  4.48520E-001
  9.60000E-003	  4.41475E-001	  4.69507E-001	  5.06008E-001	  4.37730E-001
  1.04000E-002	  4.53618E-001	  4.70999E-001	  4.85456E-001	  4.30204E-001
  1.12000E-002	  4.38575E-001	  4.58611E-001	  4.90741E-001	  4.32735E-001
  1.20000E-002	  4.37608E-001	  4.51095E-001	  4.82650E-001	  4.26408E-001
  1.28000E-002	  4.39170E-001	  4.52127E-001	  4.74366E-001	  4.37810E-001
  1.44000E-002	  4.21800E-001	  4.46816E-001	  4.62197E-001	  4.31283E-001
  1.60000E-002	  4.30984E-001	  4.47266E-001	  4.75682E-001	  4.33391E-001
  1.76000E-002	  4.16212E-001	  4.47869E-001	  4.72245E-001	  4.14932E-001
  1.92000E-002	  4.21851E-001	  4.49581E-001	  4.65558E-001	  4.18784E-001
  2.08000E-002	  4.09516E-001	  4.37698E-001	  4.52530E-001	  4.18950E-001
  2.24000E-002	  4.14580E-001	  4.34110E-001	  4.54672E-001	  4.07328E-001
  2.40000E-002	  4.17239E-001	  4.35800E-001	  4.44102E-001	  4.09327E-001
  2.56000E-002	  4.10031E-001	  4.29710E-001	  4.47634E-001	  4.08524E-001
  2.88000E-002	  4.04453E-001	  4.17326E-001	  4.36123E-001	  3.94470E-001
  3.20000E-002	  3.91272E-001	  3.97898E-001	  4.29550E-001	  3.83447E-001
  3.52000E-002	  3.86439E-001	  3.90727E-001	  4.25624E-001	  3.83131E-001
  3.84000E-002	  3.78796E-001	  3.94157E-001	  4.22715E-001	  3.75055E-001
  4.16000E-002	  3.71329E-001	  3.88310E-001	  3.99503E-001	  3.71892E-001
  4.48000E-002	  3.69099E-001	  3.78220E-001	  3.96719E-001	  3.58184E-001
  4.80000E-002	  3.58909E-001	  3.70650E-001	  3.87058E-001	  3.46672E-001
  5.12000E-002	  3.53114E-001	  3.64249E-001	  3.83022E-001	  3.41482E-001
  5.76000E-002	  3.35957E-001	  3.44560E-001	  3.65162E-001	  3.32407E-001
  6.40000E-002	  3.19148E-001	  3.28821E-001	  3.57839E-001	  3.18661E-001
  7.04000E-002	  3.07406E-001	  3.18022E-001	  3.49674E-001	  3.05461E-001
  7.68000E-002	  3.03728E-001	  3.07721E-001	  3.36145E-001	  2.92348E-001
  8.32000E-002	  2.84862E-001	  2.94785E-001	  3.20172E-001	  2.79409E-001
  8.96000E-002	  2.69145E-001	  2.85853E-001	  3.09844E-001	  2.72357E-001
  9.60000E-002	  2.62069E-001	  2.70699E-001	  3.02534E-001	  2.61574E-001
  1.02400E-001	  2.55921E-001	  2.57352E-001	  2.89753E-001	  2.56750E-001
  1.15200E-001	  2.39913E-001	  2.43804E-001	  2.73586E-001	  2.32838E-001
  1.28000E-001	  2.20717E-001	  2.24616E-001	  2.60092E-001	  2.19796E-001
  1.40800E-001	  2.05770E-001	  2.11671E-001	  2.39252E-001	  2.02715E-001
  1.53600E-001	  1.96943E-001	  1.97157E-001	  2.28781E-001	  1.92967E-001
  1.66400E-001	  1.81629E-001	  1.83373E-001	  2.15564E-001	  1.77975E-001
  1.79200E-001	  1.68429E-001	  1.71524E-001	  2.06075E-001	  1.66875E-001
  1.92000E-001	  1.62127E-001	  1.58707E-001	  1.94367E-001	  1.49040E-001
  2.04800E-001	  1.51921E-001	  1.49077E-001	  1.83640E-001	  1.43653E-001
  2.30400E-001	  1.33708E-001	  1.29859E-001	  1.64255E-001	  1.29414E-001
  2.56000E-001	  1.12755E-001	  1.13776E-001	  1.43682E-001	  1.15787E-001
  2.81600E-001	  1.01250E-001	  9.93392E-002	  1.31653E-001	  1.07147E-001
  3.07200E-001	  8.59715E-002	  8.87163E-002	  1.19899E-001	  9.69754E-002
  3.32800E-001	  7.75224E-002	  8.01529E-002	  1.09737E-001	  9.21097E-002
  3.58400E-001	  6.96265E-002	  7.31009E-002	  1.01394E-001	  7.98741E-002
  3.84000E-001	  6.33903E-002	  6.45238E-002	  9.44981E-002	  7.22654E-002
  4.09600E-001	  5.68910E-002	  5.77506E-002	  8.56543E-002	  6.49856E-002
  4.60800E-001	  4.31442E-002	  4.80532E-002	  6.79258E-002	  5.49825E-002
  5.12000E-001	  3.53691E-002	  3.71710E-002	  5.56038E-002	  4.21303E-002
  5.63200E-001	  2.77239E-002	  3.06732E-002	  4.43782E-002	  3.59314E-002
  6.14400E-001	  2.57056E-002	  2.42648E-002	  3.57608E-002	  3.18038E-002
  6.65600E-001	  2.05007E-002	  2.13517E-002	  2.69246E-002	  3.02320E-002
  7.16800E-001	  2.28442E-002	  2.03200E-002	  2.01858E-002	  2.11505E-002
  7.68000E-001	  2.26295E-002	  1.70971E-002	  1.74091E-002	  1.77234E-002
  8.19200E-001	  2.37276E-002	  1.27794E-002	  1.43987E-002	  1.73332E-002
  9.21600E-001	  1.80516E-002	  5.81525E-003	  1.29832E-002	  1.77194E-002
  1.02400E+000	  1.24567E-002	  3.08001E-003	  7.13245E-003	  9.81981E-003
  1.12640E+000	  8.46539E-003	  2.66104E-003	  4.17921E-003	  6.53542E-003
  1.22880E+000	  4.43890E-003	 -1.88776E-004	  2.22127E-003	  1.34042E-002
  1.33120E+000	  3.58052E-003	  2.20007E-003	  4.28380E-003	  1.17516E-002
  1.43360E+000	  1.96782E-003	  5.75952E-003	  6.48359E-003	  9.77258E-003
  1.53600E+000	 -1.65192E-003	  7.71279E-003	  2.84930E-003	  1.03944E-002
  1.63840E+000	 -5.20052E-003	  7.06232E-003	  4.80471E-003	  9.78729E-003
  1.84320E+000	 -8.26728E-003	  3.01013E-003	  2.41008E-003	  1.10106E-002
  2.04800E+000	 -1.23929E-002	  6.38072E-004	 -4.65251E-003	  1.07801E-002
  2.25280E+000	 -1.33322E-002	 -4.53137E-003	 -1.09834E-003	  6.64928E-003
  2.45760E+000	 -6.02684E-003	  6.38572E-003	  3.36160E-003	  9.10721E-004
  2.66240E+000	 -2.16170E-003	  1.33671E-002	  6.64923E-003	 -1.91495E-003
  2.86720E+000	 -5.17648E-003	  9.48899E-003	  8.83754E-003	 -2.25964E-003
  3.07200E+000	  1.93099E-004	 -1.14326E-003	  8.20239E-003	 -1.52690E-003
  3.27680E+000	  7.94502E-003	 -5.04788E-003	  8.45204E-003	 -1.85293E-003
  3.68640E+000	  1.13463E-003	 -9.47382E-004	 -2.60635E-003	 -5.31388E-003
  4.09600E+000	  5.15169E-003	  7.64051E-003	 -6.58645E-003	 -1.06646E-002
  4.50560E+000	 -1.31093E-003	  1.24507E-002	  4.76660E-004	 -1.06857E-003
  4.91520E+000	  7.42999E-003	  2.58669E-003	  7.11486E-003	  2.05919E-003
  5.32480E+000	  8.77594E-003	 -1.21647E-003	 -7.05182E-004	  1.94213E-003
  5.73440E+000	  3.05488E-003	 -1.68641E-003	 -5.21542E-003	  5.58451E-003
  6.14400E+000	 -1.32111E-003	 -2.49664E-003	 -8.07373E-003	  1.60435E-003
  6.55360E+000	 -7.90479E-003	  3.80554E-003	 -1.22667E-002	  2.67753E-003
  7.37280E+000	 -1.13616E-002	 -1.30831E-003	 -6.27304E-003	  6.50118E-003
  8.19200E+000	 -1.16136E-002	 -2.80688E-003	 -1.03786E-002	  1.63093E-003
  9.01120E+000	 -4.65685E-003	 -4.17584E-003	 -1.71955E-002	  7.17467E-004
  9.83040E+000	 -6.57194E-004	  3.19804E-003	 -3.58722E-003	 -5.52518E-003
  1.06496E+001	  5.35303E-003	  2.11239E-003	 -3.13944E-003	 -8.89902E-003
  1.14688E+001	 -5.68366E-003	 -2.82092E-003	  3.34011E-003	 -5.10341E-003
  1.22880E+001	 -7.08723E-003	 -3.12373E-003	 -1.00754E-003	  1.59773E-003
  1.31072E+001	 -6.94609E-003	  5.57623E-003	  6.75390E-004	  6.70807E-004
  1.47456E+001	  1.65162E-003	 -2.55284E-003	 -2.59214E-003	  1.16124E-003
  1.63840E+001	 -2.09169E-004	 -7.36195E-003	  1.89384E-003	 -1.65186E-003
  1.80224E+001	 -1.27771E-003	  1.49521E-003	  1.13239E-002	 -6.57060E-003
  1.96608E+001	  6.31987E-004	 -2.35547E-003	  6.24921E-003	 -5.28826E-003
  2.12992E+001	  6.67031E-003	 -8.36600E-003	  3.63349E-003	  4.63910E-003
  2.29376E+001	  6.33320E-003	 -1.10147E-003	  8.25730E-005	  7.59213E-004
  2.45760E+001	  1.29794E-002	 -3.61516E-003	  6.47742E-005	 -1.16182E-003
  2.62144E+001	  7.79168E-003	 -2.16024E-003	  1.12694E-003	 -3.90878E-004
  2.94912E+001	  2.45198E-003	 -1.59941E-003	  1.14605E-003	 -1.09713E-003
  3.27680E+001	  3.97036E-003	  3.80035E-003	  5.35336E-003	  5.55071E-003
  3.60448E+001	 -8.78796E-004	 -1.59785E-003	  6.04882E-003	  3.63934E-003
  3.93216E+001	 -6.15421E-003	  1.03222E-003	 -2.92444E-003	 -3.68567E-003
  4.25984E+001	 -5.35323E-003	 -3.57586E-003	 -1.57313E-003	 -3.40348E-003
  4.58752E+001	  2.64082E-003	 -1.45436E-003	  4.50460E-003	  4.99036E-003
  4.91520E+001	  5.42597E-003	 -1.00166E-003	  1.23193E-002	 -5.64799E-004
  5.24288E+001	 -1.88518E-003	  5.12999E-004	 -3.40515E-004	 -9.38866E-004
  5.89824E+001	  2.10558E-003	  6.15529E-003	  8.66098E-004	 -3.99394E-004
  6.55360E+001	  8.99531E-004	  1.06229E-004	 -1.44998E-003	  2.32199E-003
  7.20896E+001	 -2.50594E-004	 -2.06206E-003	 -1.13075E-003	 -4.22492E-004
  7.86432E+001	  3.25549E-003	 -4.77996E-003	  2.10298E-003	  4.74795E-003
  8.51968E+001	  1.39891E-003	  1.16773E-003	 -5.54107E-003	  1.64488E-003
  9.17504E+001	  4.41070E-004	 -6.92354E-004	  3.12424E-003	  2.61761E-003
  9.83040E+001	  5.25012E-004	 -2.59306E-003	 -4.75175E-003	  4.78012E-003
  1.04858E+002	  3.64534E-004	 -1.46612E-003	 -4.51382E-003	 -1.74945E-004
  1.17965E+002	 -2.94680E-003	  2.18940E-003	 -4.75271E-004	  2.07558E-003
  1.31072E+002	  7.61460E-004	 -8.74757E-004	  6.33732E-004	  7.96224E-004
  1.44179E+002	 -1.35382E-003	 -3.06850E-003	 -3.57198E-003	 -1.12898E-003
  1.57286E+002	  9.38605E-004	  1.39976E-003	 -3.10615E-003	 -8.28122E-005
  1.70394E+002	  4.86990E-004	  2.35254E-003	  2.50686E-003	 -2.00838E-003
  1.83501E+002	 -5.03393E-004	 -3.43399E-004	 -1.16617E-003	  2.79909E-004
  1.96608E+002	  1.24553E-004	 -1.48643E-003	 -1.23307E-003	  1.78932E-004
  2.09715E+002	 -1.13922E-003	  4.04990E-004	 -2.54142E-004	 -4.80576E-004
  2.35930E+002	 -1.57550E-004	  1.20027E-003	  3.07469E-003	 -1.27007E-003
  2.62144E+002	 -6.17420E-004	  1.29865E-003	  1.11600E-004	  3.31747E-004
  2.88358E+002	 -2.57396E-003	 -5.51996E-004	 -8.99484E-004	  3.31085E-005
  3.14573E+002	 -1.98322E-003	 -2.73009E-003	 -9.33642E-005	 -2.16892E-003
  3.40787E+002	 -7.41228E-004	  2.51422E-003	 -1.89375E-003	 -5.30360E-003
  3.67002E+002	 -2.51963E-003	 -1.98471E-004	  1.70389E-003	 -1.75810E-003
  3.93216E+002	 -9.00600E-004	 -1.71339E-003	 -3.18702E-003	 -1.81284E-003

"Count Rate"
       0.01311	     147.47620	     144.42444	     155.02930	     130.46265
       0.02621	     153.73230	     140.68604	     187.83569	     138.09204
       0.03932	     154.64783	     148.23914	     132.44629	     138.16833
       0.05243	     164.26086	     131.30188	     149.53613	     133.43811
       0.06554	     166.09192	     126.80054	     118.78967	     165.02380
       0.07864	     163.57422	     120.16296	     168.30444	     154.26636
       0.09175	     140.91492	     155.56335	     114.97498	     154.34265
       0.10486	     154.72412	     116.11938	     143.73779	     123.44360
       0.11796	     158.38623	     134.96399	     150.98572	     164.56604
       0.13107	     160.90393	     183.79211	     109.17664	     128.70789
       0.14418	     132.37000	     168.07556	     134.73511	     182.57141
       0.15729	     172.19543	     155.79224	     147.70508	     170.05920
       0.17039	     143.66150	     120.92590	     151.36719	     144.95850
       0.18350	     144.34814	     102.53906	     123.67249	     132.29370
       0.19661	     158.84399	     174.71313	     133.81958	     145.95032
       0.20972	     140.60974	     157.77588	     158.99658	     137.17651
       0.22282	     129.69971	     129.62341	     122.07031	     140.15198
       0.23593	     159.53064	     136.03210	     140.45715	     120.62073
       0.24904	     128.93677	     127.48718	     169.44885	     119.40002
       0.26214	     158.23364	     159.68323	     121.30737	     158.15735
       0.27525	     132.67517	     135.72693	     144.57703	     145.11108
       0.28836	     150.07019	     149.45984	     149.00208	     134.58252
       0.30147	     150.07019	     134.88770	     127.86865	     126.72424
       0.31457	     148.31543	     170.44067	     120.31555	     119.40002
       0.32768	     181.73218	     154.95300	     164.10828	     122.07031
       0.34079	     165.40527	     122.90955	     119.93408	     135.34546
       0.35389	     151.21460	     137.32910	     129.08936	     146.63696
       0.36700	     137.55798	     168.60962	     124.35913	     109.86328
       0.38011	     131.91223	     127.18201	     172.88208	     147.17102
       0.39322	     157.62329	     118.10303	     107.87964	     140.99121
       0.40632	     143.28003	     160.06470	     112.38098	     115.66162
       0.41943	     134.42993	     153.73230	     145.56885	     150.14648
       0.43254	     121.68884	     129.47083	     124.51172	     135.65063
       0.44564	     123.67249	     121.53625	     161.97205	     146.40808
       0.45875	     147.47620	     140.83862	     133.43811	     112.76245
       0.47186	     144.80591	     150.45166	     132.98035	     135.80322
       0.48497	     146.71326	     154.11377	     141.67786	     115.66162
       0.49807	     122.14661	     136.18469	     169.14368	     120.16296
       0.51118	     133.13293	     126.57166	     163.72681	     150.68054
       0.52429	     121.68884	     132.98035	     158.30994	     116.57715
       0.53740	     129.47083	     177.53601	     165.02380	     143.89038
       0.55050	     139.54163	     159.60693	     131.68335	     139.99939
       0.56361	     166.16821	     149.68872	     154.26636	     141.06750
       0.57672	     146.40808	     160.29358	     150.45166	     127.63977
       0.58982	     153.88489	     132.14111	     126.95313	     132.44629
       0.60293	     121.07849	     137.40540	     131.53076	     149.91760
       0.61604	     127.86865	     115.66162	     139.69421	     118.17932
       0.62915	     129.54712	     125.27466	     138.47351	     140.38086
       0.64225	     127.48718	     115.58533	     140.91492	     148.77319
       0.65536	     163.65051	     145.18738	     131.45447	     142.74597
       0.66847	     144.65332	     129.08936	     128.25012	     139.99939
       0.68157	     141.75415	     136.26099	     142.28821	     120.16296
       0.69468	     131.14929	     148.54431	     138.93127	     157.62329
       0.70779	     134.73511	     115.35645	     156.63147	     140.76233
       0.72090	     167.00745	     143.20374	     137.93945	     128.32642
       0.73400	     129.92859	     138.32092	     137.78687	     167.00745
       0.74711	     178.07007	     132.52258	     167.46521	     158.38623
