ALV-7004/USB-FAST
Date :	"3/14/2024"
Time :	"12:32:14 PM"
Samplename : 	""
SampMemo(0) : 	""
SampMemo(1) : 	""
SampMemo(2) : 	""
SampMemo(3) : 	""
SampMemo(4) : 	""
SampMemo(5) : 	""
SampMemo(6) : 	""
SampMemo(7) : 	""
SampMemo(8) : 	""
SampMemo(9) : 	""
Temperature [K] :	     298.16000
Viscosity [cp]  :	       0.89000
Refractive Index:	       1.33200
Wavelength [nm] :	       0.00000
Angle [°]       :	       0.00000
Duration [s]    :	         1
FloatDur [ms]   :	          944
Stop TP [ms]   :	      3205
Runs            :	         1
Mode            :	"A-CH0+1  A-CH2+3 "
MeanCR0 [kHz]   :	     148.15648
MeanCR1 [kHz]   :	     141.70434
MeanCR2 [kHz]   :	     135.29142
MeanCR3 [kHz]   :	     139.67197

"Correlation"
  3.12500E-006	 -1.00000E+000	 -1.00000E+000	 -1.00000E+000	 -1.00000E+000
  6.25000E-006	 -1.00000E+000	 -1.00000E+000	 -1.00000E+000	 -1.00000E+000
  9.37500E-006	 -1.00000E+000	 -1.00000E+000	 -1.00000E+000	 -1.00000E+000
  1.25000E-005	 -1.00000E+000	 -1.00000E+000	 -1.00000E+000	 -1.00000E+000
  1.56250E-005	 -1.00000E+000	 -1.00000E+000	 -1.00000E+000	 -1.00000E+000
  1.87500E-005	 -1.00000E+000	 -1.00000E+000	 -1.00000E+000	 -1.00000E+000
  2.18750E-005	 -9.38209E-001	 -4.42744E-001	 -4.44234E-001	 -9.82618E-001
  2.50000E-005	  4.94740E+000	  5.24803E+000	  5.46541E+000	  9.82872E+000
  2.81250E-005	  1.84239E+000	  1.24591E+000	  1.01928E+000	  3.76255E+000
  3.12500E-005	  7.61047E-001	  8.74408E-001	  6.11720E-001	  2.47631E+000
  3.43750E-005	  8.38286E-001	  9.08181E-001	  8.71078E-001	  1.79843E+000
  3.75000E-005	  6.68361E-001	  1.16148E+000	  6.48771E-001	  1.79843E+000
  4.06250E-005	  9.77316E-001	  5.87337E-001	  2.41210E-001	  1.53771E+000
  4.37500E-005	  3.43957E-001	  1.21214E+000	  6.85822E-001	  1.74629E+000
  4.68750E-005	  9.61869E-001	  5.70450E-001	  6.30246E-001	  1.19008E+000
  5.00000E-005	  7.45600E-001	  4.86017E-001	  6.11720E-001	  9.98881E-001
  5.62500E-005	  7.68771E-001	  4.18471E-001	  3.98677E-001	  1.05103E+000
  6.25000E-005	  7.14704E-001	  7.13986E-001	  5.19093E-001	  8.07683E-001
  6.87500E-005	  6.91532E-001	  5.62007E-001	  5.65407E-001	  7.81611E-001
  7.50000E-005	  3.43957E-001	  3.17152E-001	  6.85822E-001	  7.12085E-001
  8.12500E-005	  5.60226E-001	  5.02904E-001	  5.74669E-001	  5.03506E-001
  8.75000E-005	  3.82577E-001	  5.53563E-001	  5.74669E-001	  6.86012E-001
  9.37500E-005	  6.14293E-001	  6.29553E-001	  5.37618E-001	  6.33868E-001
  1.00000E-004	  4.71401E-001	  5.91558E-001	  4.63516E-001	  6.68631E-001
  1.12500E-004	  6.22017E-001	  5.15568E-001	  5.97826E-001	  5.68687E-001
  1.25000E-004	  3.78715E-001	  5.87336E-001	  4.95936E-001	  5.59996E-001
  1.37500E-004	  4.82987E-001	  5.66228E-001	  6.67297E-001	  6.16486E-001
  1.50000E-004	  3.94162E-001	  4.56466E-001	  5.19093E-001	  4.55706E-001
  1.62500E-004	  6.33603E-001	  3.97363E-001	  5.28355E-001	  4.51361E-001
  1.75000E-004	  4.75263E-001	  4.94460E-001	  4.68147E-001	  6.07795E-001
  1.87500E-004	  5.91122E-001	  4.98682E-001	  4.49622E-001	  5.16542E-001
  2.00000E-004	  5.44778E-001	  5.45120E-001	  4.63516E-001	  5.31751E-001
  2.25000E-004	  5.31261E-001	  4.67019E-001	  5.83932E-001	  5.03505E-001
  2.50000E-004	  4.94573E-001	  4.52244E-001	  4.70463E-001	  5.23060E-001
  2.75000E-004	  5.21606E-001	  4.50133E-001	  5.79300E-001	  5.81722E-001
  3.00000E-004	  4.63677E-001	  4.56465E-001	  5.07514E-001	  6.33867E-001
  3.25000E-004	  4.40505E-001	  5.11347E-001	  4.82041E-001	  6.01277E-001
  3.50000E-004	  5.19675E-001	  5.30344E-001	  4.68147E-001	  4.77433E-001
  3.75000E-004	  5.00366E-001	  5.47230E-001	  4.49621E-001	  6.07795E-001
  4.00000E-004	  5.42846E-001	  4.99736E-001	  4.36885E-001	  5.07850E-001
  4.50000E-004	  4.82986E-001	  5.33509E-001	  4.46147E-001	  4.27471E-001
  5.00000E-004	  4.71400E-001	  3.98417E-001	  5.29512E-001	  4.81789E-001
  5.50000E-004	  4.98434E-001	  4.98681E-001	  5.10987E-001	  4.17694E-001
  6.00000E-004	  4.82021E-001	  5.50396E-001	  4.41516E-001	  5.03516E-001
  6.50000E-004	  4.55953E-001	  4.90238E-001	  4.68146E-001	  4.54630E-001
  7.00000E-004	  4.26988E-001	  4.49077E-001	  4.47305E-001	  5.10034E-001
  7.50000E-004	  5.34157E-001	  4.54354E-001	  4.65831E-001	  5.74129E-001
  8.00000E-004	  5.07144E-001	  4.83915E-001	  4.61777E-001	  5.35562E-001
  9.00000E-004	  4.47283E-001	  5.10301E-001	  4.77408E-001	  5.01342E-001
  1.00000E-003	  5.21143E-001	  5.24549E-001	  4.58303E-001	  4.96454E-001
  1.10000E-003	  4.82513E-001	  4.64918E-001	  4.74513E-001	  5.04601E-001
  1.20000E-003	  5.08098E-001	  4.98174E-001	  4.97091E-001	  4.49740E-001
  1.30000E-003	  4.62720E-001	  4.65984E-001	  4.56567E-001	  4.73640E-001
  1.40000E-003	  4.46790E-001	  4.76011E-001	  4.49620E-001	  4.80702E-001
  1.50000E-003	  4.91202E-001	  4.35904E-001	  4.24147E-001	  5.19267E-001
  1.60000E-003	  4.81566E-001	  4.53327E-001	  4.63801E-001	  4.97809E-001
  1.80000E-003	  4.25325E-001	  4.28261E-001	  4.77984E-001	  4.99167E-001
  2.00000E-003	  4.78921E-001	  4.33274E-001	  4.85800E-001	  5.23882E-001
  2.20000E-003	  4.90255E-001	  4.82088E-001	  4.96510E-001	  4.57614E-001
  2.40000E-003	  4.51877E-001	  4.90784E-001	  4.80011E-001	  4.91834E-001
  2.60000E-003	  5.01117E-001	  4.84188E-001	  4.42670E-001	  4.72551E-001
  2.80000E-003	  4.45591E-001	  4.75480E-001	  4.86958E-001	  5.06228E-001
  3.00000E-003	  4.62487E-001	  4.70995E-001	  4.95931E-001	  4.95908E-001
  3.20000E-003	  4.55393E-001	  4.78411E-001	  4.79884E-001	  4.73904E-001
  3.60000E-003	  4.64575E-001	  4.78015E-001	  4.55001E-001	  4.85583E-001
  4.00000E-003	  4.76644E-001	  4.63118E-001	  4.71067E-001	  5.08803E-001
  4.40000E-003	  4.65420E-001	  4.64580E-001	  4.50659E-001	  4.78521E-001
  4.80000E-003	  4.83062E-001	  4.54168E-001	  4.64699E-001	  4.84632E-001
  5.20000E-003	  4.67976E-001	  4.55762E-001	  4.41831E-001	  5.00520E-001
  5.60000E-003	  4.61810E-001	  4.88746E-001	  4.86698E-001	  5.12334E-001
  6.00000E-003	  4.61075E-001	  4.67109E-001	  4.66146E-001	  4.82063E-001
  6.40000E-003	  4.87582E-001	  4.70518E-001	  4.51625E-001	  4.71529E-001
  7.20000E-003	  4.63261E-001	  4.56599E-001	  4.53217E-001	  4.90880E-001
  8.00000E-003	  4.60968E-001	  4.53410E-001	  4.74698E-001	  4.52450E-001
  8.80000E-003	  4.69949E-001	  4.45835E-001	  4.74843E-001	  4.65079E-001
  9.60000E-003	  4.71951E-001	  4.51046E-001	  4.54146E-001	  4.67387E-001
  1.04000E-002	  4.47400E-001	  4.44186E-001	  4.54218E-001	  4.77572E-001
  1.12000E-002	  4.55245E-001	  4.41745E-001	  4.45679E-001	  4.69492E-001
  1.20000E-002	  4.38760E-001	  4.35742E-001	  4.71225E-001	  4.67116E-001
  1.28000E-002	  4.43159E-001	  4.41381E-001	  4.51748E-001	  4.69483E-001
  1.44000E-002	  4.38240E-001	  4.28737E-001	  4.34198E-001	  4.64085E-001
  1.60000E-002	  4.37023E-001	  4.30089E-001	  4.27432E-001	  4.39890E-001
  1.76000E-002	  4.24439E-001	  4.17278E-001	  4.43378E-001	  4.44417E-001
  1.92000E-002	  4.35413E-001	  4.23942E-001	  4.17687E-001	  4.52463E-001
  2.08000E-002	  4.25153E-001	  4.12385E-001	  4.05348E-001	  4.36008E-001
  2.24000E-002	  4.22457E-001	  4.09691E-001	  4.19749E-001	  4.42968E-001
  2.40000E-002	  4.11735E-001	  4.09636E-001	  4.10353E-001	  4.22971E-001
  2.56000E-002	  4.11376E-001	  4.03187E-001	  3.98874E-001	  4.19392E-001
  2.88000E-002	  3.93560E-001	  3.90347E-001	  3.92549E-001	  4.04601E-001
  3.20000E-002	  3.95104E-001	  3.84052E-001	  3.84501E-001	  3.99966E-001
  3.52000E-002	  3.77609E-001	  3.82646E-001	  3.78531E-001	  3.91784E-001
  3.84000E-002	  3.67066E-001	  3.65832E-001	  3.65468E-001	  3.75318E-001
  4.16000E-002	  3.63696E-001	  3.37942E-001	  3.47737E-001	  3.74860E-001
  4.48000E-002	  3.45624E-001	  3.41456E-001	  3.43855E-001	  3.60770E-001
  4.80000E-002	  3.40811E-001	  3.31373E-001	  3.33467E-001	  3.55297E-001
  5.12000E-002	  3.34772E-001	  3.20300E-001	  3.30023E-001	  3.39955E-001
  5.76000E-002	  3.15048E-001	  3.03561E-001	  3.09071E-001	  3.26615E-001
  6.40000E-002	  2.96333E-001	  2.86698E-001	  2.89187E-001	  3.07634E-001
  7.04000E-002	  2.84030E-001	  2.69474E-001	  2.74514E-001	  2.90438E-001
  7.68000E-002	  2.69493E-001	  2.58860E-001	  2.60990E-001	  2.75435E-001
  8.32000E-002	  2.48222E-001	  2.46262E-001	  2.49437E-001	  2.59853E-001
  8.96000E-002	  2.48982E-001	  2.29148E-001	  2.31688E-001	  2.48405E-001
  9.60000E-002	  2.26038E-001	  2.20142E-001	  2.19158E-001	  2.32558E-001
  1.02400E-001	  2.25190E-001	  2.03997E-001	  2.11103E-001	  2.24723E-001
  1.15200E-001	  2.07830E-001	  1.86371E-001	  1.91027E-001	  1.99702E-001
  1.28000E-001	  1.87169E-001	  1.68088E-001	  1.73583E-001	  1.88349E-001
  1.40800E-001	  1.70722E-001	  1.51764E-001	  1.56921E-001	  1.71366E-001
  1.53600E-001	  1.60238E-001	  1.37517E-001	  1.40639E-001	  1.55011E-001
  1.66400E-001	  1.50791E-001	  1.25213E-001	  1.29171E-001	  1.43703E-001
  1.79200E-001	  1.37511E-001	  1.17732E-001	  1.17042E-001	  1.34797E-001
  1.92000E-001	  1.20434E-001	  1.07174E-001	  1.04352E-001	  1.22190E-001
  2.04800E-001	  1.14604E-001	  9.70628E-002	  9.73755E-002	  1.15375E-001
  2.30400E-001	  9.95896E-002	  8.00625E-002	  8.01365E-002	  9.66847E-002
  2.56000E-001	  8.35231E-002	  6.92886E-002	  7.22816E-002	  8.22223E-002
  2.81600E-001	  7.65932E-002	  5.92873E-002	  6.65377E-002	  7.18506E-002
  3.07200E-001	  7.05763E-002	  5.17659E-002	  5.46316E-002	  5.30031E-002
  3.32800E-001	  6.33750E-002	  4.64109E-002	  4.28183E-002	  4.94431E-002
  3.58400E-001	  5.89292E-002	  3.69816E-002	  3.95508E-002	  3.82819E-002
  3.84000E-001	  5.07926E-002	  3.52006E-002	  3.52158E-002	  3.72407E-002
  4.09600E-001	  4.64368E-002	  3.37884E-002	  2.98733E-002	  3.58650E-002
  4.60800E-001	  3.47470E-002	  3.23887E-002	  2.63775E-002	  2.50532E-002
  5.12000E-001	  2.82924E-002	  2.76552E-002	  2.39203E-002	  2.05092E-002
  5.63200E-001	  1.99700E-002	  2.05489E-002	  1.94292E-002	  2.05158E-002
  6.14400E-001	  1.21531E-002	  1.61365E-002	  1.40302E-002	  1.85094E-002
  6.65600E-001	  7.01601E-003	  1.04923E-002	  8.30506E-003	  1.54161E-002
  7.16800E-001	  4.11144E-003	  5.80076E-003	  7.55708E-003	  1.49728E-002
  7.68000E-001	  4.63978E-003	  4.13149E-003	  1.02425E-002	  8.32657E-003
  8.19200E-001	  8.69383E-004	  4.85545E-003	  1.12287E-002	  5.37200E-003
  9.21600E-001	 -2.83221E-004	  3.19538E-003	  1.08465E-002	  5.18244E-003
  1.02400E+000	  3.79000E-004	  4.87991E-003	  6.48911E-003	  5.86023E-003
  1.12640E+000	  2.96692E-003	 -3.75553E-003	  8.02814E-003	  8.04311E-003
  1.22880E+000	  4.50327E-004	 -1.74532E-003	  1.23378E-002	  1.31793E-003
  1.33120E+000	 -1.76624E-004	  2.09227E-003	  1.02657E-002	 -2.75671E-003
  1.43360E+000	  1.82689E-003	 -1.15147E-003	  7.98440E-003	 -2.59904E-003
  1.53600E+000	  1.88053E-003	  1.00542E-004	  3.31474E-003	 -1.70255E-003
  1.63840E+000	  2.38141E-003	  5.86014E-004	  2.23168E-003	 -2.93850E-003
  1.84320E+000	  7.81640E-003	  1.93915E-003	  1.21820E-002	 -4.95468E-003
  2.04800E+000	  1.24130E-002	 -2.80421E-003	  2.01424E-002	 -5.69942E-003
  2.25280E+000	  8.23989E-003	 -1.05377E-002	  9.58352E-003	 -3.66721E-003
  2.45760E+000	  5.21080E-003	 -1.32816E-002	  1.34892E-002	 -1.00453E-002
  2.66240E+000	 -4.73064E-003	 -4.72660E-003	  8.00996E-003	 -2.85506E-003
  2.86720E+000	 -1.45928E-002	 -6.79544E-003	  6.36927E-003	  6.09365E-003
  3.07200E+000	 -7.27987E-003	 -4.40395E-003	  7.61965E-003	  1.46531E-002
  3.27680E+000	 -1.99768E-003	 -1.54990E-003	  9.17620E-003	  1.52364E-002
  3.68640E+000	 -1.52864E-003	  8.90564E-004	  1.05125E-002	  1.10094E-002
  4.09600E+000	  8.99326E-003	 -5.48120E-003	  7.85516E-003	  2.30225E-003
  4.50560E+000	 -1.81779E-003	 -6.96852E-003	  3.76624E-003	 -2.94879E-003
  4.91520E+000	 -3.41577E-003	 -4.84698E-003	  1.44091E-003	 -8.57629E-003
  5.32480E+000	 -3.34856E-003	 -1.02142E-002	  3.94784E-003	 -2.85695E-003
  5.73440E+000	 -7.90967E-004	 -2.45298E-004	  7.33531E-003	 -2.57173E-004
  6.14400E+000	  4.71208E-003	  7.69780E-003	  5.15259E-003	 -3.31399E-003
  6.55360E+000	  4.06003E-003	  3.59235E-003	 -4.16144E-003	  4.11821E-004
  7.37280E+000	 -1.12772E-003	  3.66399E-003	 -5.14630E-003	  3.71943E-003
  8.19200E+000	  2.18299E-003	  1.99302E-003	 -6.34959E-003	 -1.12565E-003
  9.01120E+000	  5.18810E-003	  1.68837E-004	 -1.52825E-003	 -2.78586E-003
  9.83040E+000	  5.29120E-003	 -3.07477E-003	 -9.44984E-003	 -4.64096E-003
  1.06496E+001	 -8.66705E-004	 -6.49107E-003	 -4.37879E-004	  5.71942E-003
  1.14688E+001	  4.00746E-004	 -8.37119E-003	  4.72539E-003	 -7.90849E-004
  1.22880E+001	  7.17393E-003	 -3.24848E-003	 -5.55791E-004	 -1.77517E-003
  1.31072E+001	  1.89656E-003	  4.40170E-003	  4.21275E-003	 -4.94751E-003
  1.47456E+001	 -2.56224E-003	  3.49475E-003	  1.96887E-003	 -8.67463E-003
  1.63840E+001	 -1.25760E-003	  1.72839E-003	 -4.12999E-003	 -4.65745E-003
  1.80224E+001	  7.14402E-003	 -5.07738E-003	  1.16690E-003	 -2.32019E-005
  1.96608E+001	  1.04517E-003	  8.96583E-004	 -2.31163E-003	  2.57023E-003
  2.12992E+001	  3.07919E-003	  2.93416E-003	 -3.00662E-003	  1.21762E-003
  2.29376E+001	  4.30690E-003	 -3.77693E-004	 -2.83925E-003	  3.72902E-003
  2.45760E+001	  1.03823E-003	 -3.96439E-003	 -2.47548E-003	  6.08751E-003
  2.62144E+001	 -9.98643E-004	 -4.80077E-004	 -1.33061E-003	  1.89359E-003
  2.94912E+001	  5.14227E-003	  3.74673E-003	  8.74800E-004	  3.69338E-003
  3.27680E+001	 -4.00475E-003	 -2.67937E-003	  2.92579E-003	 -1.03301E-003
  3.60448E+001	 -2.94119E-003	 -3.97086E-003	 -1.88357E-003	 -7.29338E-004
  3.93216E+001	  3.63058E-003	  1.33533E-003	  2.94782E-003	 -1.16027E-003
  4.25984E+001	 -4.65688E-004	 -1.15242E-004	  1.26688E-003	 -5.31903E-005
  4.58752E+001	 -2.13274E-003	  1.24198E-003	  2.11894E-003	  1.37606E-003
  4.91520E+001	  1.75858E-003	 -2.43336E-004	 -5.32369E-003	  2.82201E-003
  5.24288E+001	 -1.20199E-003	 -4.66855E-004	 -3.13290E-003	  1.99421E-004
  5.89824E+001	  1.84996E-003	 -1.52137E-003	 -5.83556E-004	 -1.00296E-004
  6.55360E+001	 -1.74699E-006	 -1.50502E-003	  4.37744E-003	  5.33483E-004
  7.20896E+001	 -3.04908E-003	 -1.42936E-003	 -1.39666E-003	 -5.14386E-005
  7.86432E+001	  4.24920E-004	 -7.89981E-004	  1.90263E-004	 -1.29266E-003
  8.51968E+001	  1.19739E-003	  7.44468E-004	  2.16303E-003	 -4.54000E-004
  9.17504E+001	 -1.41341E-003	  3.16237E-004	 -4.61475E-003	  2.75371E-004
  9.83040E+001	 -6.94496E-004	  1.93456E-003	 -4.15082E-004	  1.61804E-003
  1.04858E+002	 -1.84429E-003	  2.36115E-003	 -7.82995E-004	 -6.62774E-005
  1.17965E+002	 -1.87486E-003	 -3.80045E-004	  5.45947E-004	 -5.01517E-004
  1.31072E+002	 -1.10247E-003	 -1.49753E-003	 -9.33279E-004	 -1.97979E-003
  1.44179E+002	  2.13194E-004	  1.02753E-003	 -1.55377E-003	 -1.31619E-003
  1.57286E+002	  1.79751E-003	 -1.45613E-003	  6.81858E-004	  1.02765E-003
  1.70394E+002	  2.44726E-003	 -1.38643E-003	  1.56825E-003	 -1.13409E-003
  1.83501E+002	  3.64516E-003	 -1.51349E-003	  2.61852E-004	  2.08781E-003
  1.96608E+002	 -1.41510E-003	 -2.48626E-003	  1.15129E-003	 -5.69292E-004
  2.09715E+002	  1.54102E-003	 -7.31320E-004	 -4.44956E-004	  2.68780E-003
  2.35930E+002	 -1.65695E-003	 -1.32387E-003	  8.90913E-004	  3.57317E-004
  2.62144E+002	 -2.92758E-003	  2.76541E-004	 -1.12548E-004	  4.93658E-004
  2.88358E+002	 -2.25088E-003	  4.79681E-005	 -2.70805E-003	 -2.39636E-003
  3.14573E+002	 -2.04993E-003	  9.23433E-004	  1.65420E-004	 -1.26451E-003
  3.40787E+002	 -6.40594E-004	 -1.34213E-003	 -3.92185E-004	 -1.98959E-003
  3.67002E+002	  9.75169E-004	  9.65013E-004	 -1.35507E-003	  5.22745E-004
  3.93216E+002	  3.70485E-004	  3.35215E-004	  2.30649E-004	 -5.11404E-004

"Count Rate"
       0.01311	     117.95044	     179.90112	     111.61804	     127.25830
       0.02621	     168.15186	     142.13562	     142.74597	     163.72681
       0.03932	     163.49792	     138.77869	     141.75415	     125.88501
       0.05243	     121.53625	     146.48438	     109.17664	     140.99121
       0.06554	     117.95044	     138.39722	      94.22302	     160.82764
       0.07864	     157.39441	     162.04834	     150.52795	     138.47351
       0.09175	     176.08643	     122.68066	     183.25806	     142.36450
       0.10486	     140.45715	     147.55249	     115.96680	     110.24475
       0.11796	     164.87122	     119.09485	     150.22278	     163.34534
       0.13107	     108.64258	     134.65881	     136.48987	     125.88501
       0.14418	     150.60425	     141.67786	     128.78418	     135.65063
       0.15729	     138.16833	     137.40540	     131.53076	     158.15735
       0.17039	     146.71326	     127.41089	     134.73511	     152.20642
       0.18350	     145.49255	     147.85767	     124.43542	     148.62061
       0.19661	     155.33447	     139.31274	     156.09741	     147.39990
       0.20972	     130.08118	     154.19006	     130.08118	     126.64795
       0.22282	     130.53894	     120.77332	     116.95862	     130.23376
       0.23593	     129.54712	     128.02124	     133.05664	     136.71875
       0.24904	     132.82776	     150.83313	     128.93677	     110.77881
       0.26214	     135.65063	     133.05664	     130.38635	     139.92310
       0.27525	     148.08655	     115.96680	     135.34546	     140.38086
       0.28836	     132.44629	     146.94214	     124.43542	     106.04858
       0.30147	     147.32361	     149.38354	     119.85779	     125.35095
       0.31457	     132.67517	     140.07568	     131.68335	     120.69702
       0.32768	     151.90125	     142.82227	     159.68323	     160.90393
       0.34079	     162.96387	     154.57153	     120.54443	     104.75159
       0.35389	     146.17920	     131.75964	     135.65063	     123.67249
       0.36700	     132.67517	     144.42444	     132.37000	     149.61243
       0.38011	     145.72144	     122.22290	     116.27197	     148.16284
       0.39322	     117.11121	     171.81396	     120.69702	     141.44897
       0.40632	     123.97766	     130.99670	     115.35645	     125.65613
       0.41943	     141.67786	     144.27185	     106.27747	     138.47351
       0.43254	     152.43530	     137.25281	     143.58521	     139.54163
       0.44564	     156.47888	     148.08655	     147.24731	     138.24463
       0.45875	     165.10010	     146.40808	     113.06763	     135.26917
       0.47186	     153.27454	     160.36987	     112.22839	     111.31287
       0.48497	     179.74854	     142.82227	     116.57715	     130.61523
       0.49807	     165.32898	     123.51990	     133.81958	     136.03210
       0.51118	     152.13013	     146.17920	     149.45984	     129.39453
       0.52429	     170.13550	     130.76782	     139.38904	     135.95581
       0.53740	     154.26636	     141.22009	     109.86328	     128.93677
       0.55050	     154.19006	     120.23926	     158.00476	     142.74597
       0.56361	     135.57434	     140.45715	     130.76782	     120.08667
       0.57672	     132.75146	     109.55811	     148.54431	     165.02380
       0.58982	     132.14111	     109.63440	     136.48987	     132.21741
       0.60293	     130.46265	     134.88770	     151.51978	     180.05371
       0.61604	     169.83032	     160.67505	     133.20923	     139.54163
       0.62915	     149.53613	     145.49255	     117.79785	     130.99670
       0.64225	     144.80591	     135.42175	     128.70789	     126.19019
       0.65536	     167.23633	     126.95313	     122.75696	     141.37268
       0.66847	     152.43530	     125.50354	     117.34009	     128.78418
       0.68157	     136.71875	     125.19836	     143.12744	     129.39453
       0.69468	     149.84131	     124.28284	     151.21460	     150.68054
       0.70779	     191.95557	     148.77319	     144.19556	     154.72412
       0.72090	     154.11377	     168.60962	     136.18469	     131.14929
       0.73400	     139.31274	     138.62610	     130.99670	     120.31555
       0.74711	     118.10303	     154.03748	     155.25818	     135.65063
