ALV-7004/USB-FAST
Date :	"3/14/2024"
Time :	"12:37:34 PM"
Samplename : 	""
SampMemo(0) : 	""
SampMemo(1) : 	""
SampMemo(2) : 	""
SampMemo(3) : 	""
SampMemo(4) : 	""
SampMemo(5) : 	""
SampMemo(6) : 	""
SampMemo(7) : 	""
SampMemo(8) : 	""
SampMemo(9) : 	""
Temperature [K] :	     298.16000
Viscosity [cp]  :	       0.89000
Refractive Index:	       1.33200
Wavelength [nm] :	       0.00000
Angle [°]       :	       0.00000
Duration [s]    :	         1
FloatDur [ms]   :	          944
Stop TP [ms]   :	      4077
Runs            :	         1
Mode            :	"A-CH0+1  A-CH2+3 "
MeanCR0 [kHz]   :	     139.21525
MeanCR1 [kHz]   :	     143.21963
MeanCR2 [kHz]   :	     134.99155
MeanCR3 [kHz]   :	     138.41098

"Correlation"
  3.12500E-006	 -1.00000E+000	 -1.00000E+000	 -1.00000E+000	 -1.00000E+000
  6.25000E-006	 -1.00000E+000	 -1.00000E+000	 -1.00000E+000	 -1.00000E+000
  9.37500E-006	 -1.00000E+000	 -1.00000E+000	 -1.00000E+000	 -1.00000E+000
  1.25000E-005	 -1.00000E+000	 -1.00000E+000	 -1.00000E+000	 -1.00000E+000
  1.56250E-005	 -1.00000E+000	 -1.00000E+000	 -1.00000E+000	 -1.00000E+000
  1.87500E-005	 -1.00000E+000	 -1.00000E+000	 -1.00000E+000	 -1.00000E+000
  2.18750E-005	 -1.00000E+000	 -6.52846E-001	 -4.41767E-001	 -9.82300E-001
  2.50000E-005	  5.15852E+000	  5.34795E+000	  6.33146E+000	  9.51363E+000
  2.81250E-005	  1.76434E+000	  1.06639E+000	  1.40040E+000	  4.57541E+000
  3.12500E-005	  8.89547E-001	  7.02706E-001	  7.67739E-001	  2.20365E+000
  3.43750E-005	  1.20447E+000	  8.68017E-001	  8.60777E-001	  2.11515E+000
  3.75000E-005	  6.44605E-001	  9.01079E-001	  5.63053E-001	  1.65496E+000
  4.06250E-005	  5.57126E-001	  5.53926E-001	  4.88622E-001	  1.44256E+000
  4.37500E-005	  6.09614E-001	  6.20050E-001	  8.04954E-001	  1.19477E+000
  4.68750E-005	  4.52152E-001	  6.36581E-001	  7.30523E-001	  1.12397E+000
  5.00000E-005	  4.95891E-001	  6.11785E-001	  6.56092E-001	  1.02662E+000
  5.62500E-005	  6.44605E-001	  4.63005E-001	  8.51473E-001	  1.01777E+000
  6.25000E-005	  4.95891E-001	  5.53926E-001	  6.28180E-001	  1.06202E+000
  6.87500E-005	  3.90916E-001	  7.19237E-001	  6.18876E-001	  6.63773E-001
  7.50000E-005	  7.32084E-001	  7.19237E-001	  4.70014E-001	  9.55819E-001
  8.12500E-005	  4.87143E-001	  6.61378E-001	  4.88622E-001	  6.81473E-001
  8.75000E-005	  4.60899E-001	  3.96880E-001	  7.11915E-001	  6.28374E-001
  9.37500E-005	  5.13387E-001	  4.87801E-001	  9.16601E-001	  6.19524E-001
  1.00000E-004	  5.17761E-001	  6.65511E-001	  5.30489E-001	  7.12448E-001
  1.12500E-004	  6.31483E-001	  5.29129E-001	  5.72357E-001	  7.47847E-001
  1.25000E-004	  4.91517E-001	  5.33262E-001	  5.67705E-001	  5.75275E-001
  1.37500E-004	  4.91517E-001	  6.32448E-001	  5.11881E-001	  6.06249E-001
  1.50000E-004	  4.65273E-001	  5.41527E-001	  5.35141E-001	  7.08023E-001
  1.62500E-004	  5.78996E-001	  5.24996E-001	  5.63053E-001	  4.42527E-001
  1.75000E-004	  4.78395E-001	  5.16731E-001	  5.86313E-001	  5.53150E-001
  1.87500E-004	  4.78395E-001	  4.75403E-001	  5.90964E-001	  4.77926E-001
  2.00000E-004	  5.00264E-001	  5.04332E-001	  4.79318E-001	  5.64212E-001
  2.25000E-004	  4.93704E-001	  4.69203E-001	  5.77008E-001	  5.50937E-001
  2.50000E-004	  4.52151E-001	  4.77469E-001	  5.70030E-001	  4.53589E-001
  2.75000E-004	  5.50565E-001	  3.94813E-001	  4.11864E-001	  5.33238E-001
  3.00000E-004	  4.80582E-001	  5.55992E-001	  5.00251E-001	  4.77926E-001
  3.25000E-004	  4.23720E-001	  5.29129E-001	  4.83969E-001	  5.46512E-001
  3.50000E-004	  4.95891E-001	  4.42340E-001	  4.42102E-001	  5.42087E-001
  3.75000E-004	  4.41216E-001	  4.67137E-001	  4.56058E-001	  5.68637E-001
  4.00000E-004	  5.18853E-001	  4.69203E-001	  4.46753E-001	  4.97838E-001
  4.50000E-004	  4.51057E-001	  5.12597E-001	  5.60726E-001	  5.27706E-001
  5.00000E-004	  3.84354E-001	  5.08464E-001	  5.53748E-001	  4.96731E-001
  5.50000E-004	  5.16666E-001	  4.35107E-001	  5.60726E-001	  4.63544E-001
  6.00000E-004	  5.04638E-001	  4.51638E-001	  5.06066E-001	  4.50270E-001
  6.50000E-004	  4.99170E-001	  4.90900E-001	  4.57220E-001	  4.98944E-001
  7.00000E-004	  5.37442E-001	  5.15696E-001	  5.74682E-001	  4.69076E-001
  7.50000E-004	  4.42309E-001	  5.08464E-001	  4.64198E-001	  5.24387E-001
  8.00000E-004	  4.69656E-001	  4.76950E-001	  4.89201E-001	  5.31023E-001
  9.00000E-004	  4.44506E-001	  5.39459E-001	  4.60708E-001	  5.03920E-001
  1.00000E-003	  5.23237E-001	  4.79533E-001	  5.14787E-001	  4.72393E-001
  1.10000E-003	  5.07382E-001	  5.04330E-001	  5.18857E-001	  4.54140E-001
  1.20000E-003	  5.16676E-001	  4.52154E-001	  4.85712E-001	  4.57459E-001
  1.30000E-003	  5.21050E-001	  5.20344E-001	  4.31052E-001	  5.00602E-001
  1.40000E-003	  4.62548E-001	  5.28093E-001	  5.06064E-001	  5.42085E-001
  1.50000E-003	  4.47240E-001	  4.98647E-001	  5.02575E-001	  4.84008E-001
  1.60000E-003	  4.98369E-001	  5.03036E-001	  5.08678E-001	  4.69625E-001
  1.80000E-003	  4.75679E-001	  4.67133E-001	  5.37753E-001	  4.89537E-001
  2.00000E-003	  5.03017E-001	  4.75398E-001	  5.29321E-001	  4.77922E-001
  2.20000E-003	  4.19911E-001	  4.78498E-001	  5.04608E-001	  4.53585E-001
  2.40000E-003	  4.79222E-001	  4.76690E-001	  4.82814E-001	  4.95621E-001
  2.60000E-003	  4.90977E-001	  4.57059E-001	  4.74964E-001	  4.51096E-001
  2.80000E-003	  4.75121E-001	  5.20859E-001	  5.07237E-001	  4.70731E-001
  3.00000E-003	  4.79222E-001	  4.44402E-001	  5.22646E-001	  4.79304E-001
  3.20000E-003	  4.72006E-001	  4.58862E-001	  4.97346E-001	  4.54962E-001
  3.60000E-003	  4.53963E-001	  4.73714E-001	  4.97491E-001	  4.98105E-001
  4.00000E-003	  4.62984E-001	  4.78234E-001	  5.10430E-001	  5.07646E-001
  4.40000E-003	  4.67632E-001	  4.91020E-001	  4.80192E-001	  4.88426E-001
  4.80000E-003	  4.81711E-001	  4.66998E-001	  4.82809E-001	  4.66854E-001
  5.20000E-003	  4.52733E-001	  4.69065E-001	  4.93130E-001	  4.68375E-001
  5.60000E-003	  4.76095E-001	  4.83917E-001	  4.84989E-001	  4.69482E-001
  6.00000E-003	  4.59146E-001	  4.61445E-001	  4.90513E-001	  4.83309E-001
  6.40000E-003	  4.77656E-001	  4.57765E-001	  4.97481E-001	  4.85189E-001
  7.20000E-003	  4.69444E-001	  4.73134E-001	  5.00025E-001	  4.77238E-001
  8.00000E-003	  4.47721E-001	  4.69841E-001	  5.04677E-001	  4.83253E-001
  8.80000E-003	  4.66721E-001	  4.71584E-001	  5.01116E-001	  4.71568E-001
  9.60000E-003	  4.75526E-001	  4.72359E-001	  4.83162E-001	  4.82008E-001
  1.04000E-002	  4.56253E-001	  4.65772E-001	  4.94210E-001	  4.63202E-001
  1.12000E-002	  4.53587E-001	  4.55699E-001	  4.99516E-001	  4.84290E-001
  1.20000E-002	  4.61368E-001	  4.65191E-001	  4.88395E-001	  4.86019E-001
  1.28000E-002	  4.51708E-001	  4.56034E-001	  4.79871E-001	  4.67398E-001
  1.44000E-002	  4.47231E-001	  4.67173E-001	  4.80235E-001	  4.58732E-001
  1.60000E-002	  4.46958E-001	  4.65236E-001	  4.89175E-001	  4.53119E-001
  1.76000E-002	  4.40648E-001	  4.39955E-001	  4.71113E-001	  4.52946E-001
  1.92000E-002	  4.36489E-001	  4.51213E-001	  4.61809E-001	  4.56416E-001
  2.08000E-002	  4.28653E-001	  4.42979E-001	  4.58465E-001	  4.56105E-001
  2.24000E-002	  4.27822E-001	  4.38395E-001	  4.46908E-001	  4.50331E-001
  2.40000E-002	  4.27206E-001	  4.45498E-001	  4.51887E-001	  4.44465E-001
  2.56000E-002	  4.22566E-001	  4.37639E-001	  4.49799E-001	  4.42666E-001
  2.88000E-002	  4.29032E-001	  4.37494E-001	  4.49381E-001	  4.30260E-001
  3.20000E-002	  4.14666E-001	  4.16562E-001	  4.38479E-001	  4.18408E-001
  3.52000E-002	  4.16945E-001	  4.25688E-001	  4.36771E-001	  4.22688E-001
  3.84000E-002	  4.04037E-001	  4.18456E-001	  4.34165E-001	  4.01375E-001
  4.16000E-002	  3.93773E-001	  3.95672E-001	  4.25218E-001	  4.02543E-001
  4.48000E-002	  3.89343E-001	  3.87977E-001	  4.14279E-001	  3.94311E-001
  4.80000E-002	  3.78385E-001	  3.94919E-001	  4.02097E-001	  3.91798E-001
  5.12000E-002	  3.70904E-001	  3.85213E-001	  3.98803E-001	  3.91382E-001
  5.76000E-002	  3.62989E-001	  3.69233E-001	  3.93226E-001	  3.71064E-001
  6.40000E-002	  3.53989E-001	  3.64689E-001	  3.69938E-001	  3.55806E-001
  7.04000E-002	  3.41275E-001	  3.45214E-001	  3.64685E-001	  3.52412E-001
  7.68000E-002	  3.31318E-001	  3.39895E-001	  3.51375E-001	  3.37540E-001
  8.32000E-002	  3.11748E-001	  3.35518E-001	  3.44279E-001	  3.32628E-001
  8.96000E-002	  3.01466E-001	  3.27824E-001	  3.38764E-001	  3.15522E-001
  9.60000E-002	  3.01804E-001	  3.17272E-001	  3.24972E-001	  3.02781E-001
  1.02400E-001	  2.92988E-001	  3.06146E-001	  3.16551E-001	  3.01609E-001
  1.15200E-001	  2.67606E-001	  2.86607E-001	  2.95563E-001	  2.78045E-001
  1.28000E-001	  2.55515E-001	  2.69986E-001	  2.80283E-001	  2.63756E-001
  1.40800E-001	  2.39573E-001	  2.55667E-001	  2.62503E-001	  2.46875E-001
  1.53600E-001	  2.23836E-001	  2.41359E-001	  2.51574E-001	  2.34512E-001
  1.66400E-001	  2.16657E-001	  2.33163E-001	  2.37508E-001	  2.19501E-001
  1.79200E-001	  1.92998E-001	  2.16781E-001	  2.22374E-001	  2.08829E-001
  1.92000E-001	  1.86322E-001	  2.06695E-001	  2.11171E-001	  1.94969E-001
  2.04800E-001	  1.77701E-001	  1.96932E-001	  2.03615E-001	  1.84021E-001
  2.30400E-001	  1.62576E-001	  1.78232E-001	  1.87073E-001	  1.67702E-001
  2.56000E-001	  1.44759E-001	  1.63004E-001	  1.73623E-001	  1.44026E-001
  2.81600E-001	  1.32235E-001	  1.50405E-001	  1.61083E-001	  1.32467E-001
  3.07200E-001	  1.18806E-001	  1.38871E-001	  1.47811E-001	  1.23564E-001
  3.32800E-001	  1.08512E-001	  1.25242E-001	  1.35471E-001	  1.12990E-001
  3.58400E-001	  1.01038E-001	  1.17136E-001	  1.23256E-001	  1.06051E-001
  3.84000E-001	  9.29688E-002	  1.06407E-001	  1.14754E-001	  9.18382E-002
  4.09600E-001	  8.43720E-002	  9.57917E-002	  1.04150E-001	  8.54832E-002
  4.60800E-001	  7.37234E-002	  7.93334E-002	  8.87549E-002	  6.89361E-002
  5.12000E-001	  6.21710E-002	  6.94022E-002	  7.70314E-002	  5.96882E-002
  5.63200E-001	  5.00606E-002	  5.71666E-002	  6.26880E-002	  5.02862E-002
  6.14400E-001	  3.95635E-002	  4.67823E-002	  5.20622E-002	  4.42561E-002
  6.65600E-001	  3.34831E-002	  3.90851E-002	  4.48922E-002	  3.91643E-002
  7.16800E-001	  2.94067E-002	  3.60962E-002	  3.80328E-002	  3.38989E-002
  7.68000E-001	  2.03891E-002	  3.29769E-002	  3.49683E-002	  3.16727E-002
  8.19200E-001	  1.63065E-002	  3.19584E-002	  3.01340E-002	  2.98106E-002
  9.21600E-001	  8.93063E-003	  3.25093E-002	  2.50773E-002	  2.24510E-002
  1.02400E+000	  1.56084E-003	  2.73156E-002	  2.25083E-002	  1.82038E-002
  1.12640E+000	  2.17222E-003	  2.18285E-002	  1.71685E-002	  1.11022E-002
  1.22880E+000	  7.64664E-003	  1.89385E-002	  1.62813E-002	  8.28210E-003
  1.33120E+000	  9.51494E-003	  2.09496E-002	  1.97540E-002	  2.26416E-003
  1.43360E+000	  5.61788E-003	  2.35923E-002	  1.89886E-002	  2.98162E-004
  1.53600E+000	 -8.41398E-004	  2.04261E-002	  1.73749E-002	 -8.02833E-003
  1.63840E+000	 -6.43414E-003	  1.75153E-002	  1.49459E-002	 -8.20825E-003
  1.84320E+000	 -1.32145E-002	  1.32311E-002	  3.89798E-003	 -5.53819E-003
  2.04800E+000	 -1.09770E-002	  1.09200E-002	  9.81507E-003	 -6.69698E-003
  2.25280E+000	 -1.32301E-002	  1.60524E-002	  8.47380E-003	 -9.38409E-003
  2.45760E+000	 -1.08544E-002	  1.88826E-002	  3.70626E-003	 -5.63574E-003
  2.66240E+000	 -1.18496E-002	  1.84329E-002	  6.86956E-004	  2.24347E-003
  2.86720E+000	 -1.02872E-002	  2.13039E-002	 -4.41555E-003	  4.39035E-003
  3.07200E+000	 -1.03946E-002	  9.69929E-003	 -1.32591E-002	  3.81198E-003
  3.27680E+000	 -8.33513E-003	  1.99019E-003	 -1.32160E-002	  7.27760E-003
  3.68640E+000	 -7.01478E-003	 -7.30198E-003	 -3.91035E-003	  1.15469E-002
  4.09600E+000	 -8.79195E-003	 -3.26671E-004	 -3.48502E-003	  6.27983E-003
  4.50560E+000	 -7.45708E-003	  2.33037E-003	 -3.91472E-003	  8.09028E-003
  4.91520E+000	 -5.12950E-003	  6.74840E-003	 -8.57592E-003	  7.83921E-003
  5.32480E+000	  1.07207E-003	  1.27710E-003	 -9.55276E-003	 -1.86806E-003
  5.73440E+000	 -1.10155E-003	 -2.97555E-003	  8.89297E-005	  6.67647E-005
  6.14400E+000	  2.07516E-003	  2.93097E-003	  4.24125E-003	  2.13361E-003
  6.55360E+000	 -6.79063E-003	  8.80046E-003	 -4.10429E-003	 -5.07694E-003
  7.37280E+000	  1.98105E-003	  2.34019E-003	 -7.56092E-003	 -6.86533E-003
  8.19200E+000	  5.47631E-005	  6.08233E-003	 -5.48110E-003	  3.98460E-004
  9.01120E+000	 -3.89800E-003	  2.55186E-003	 -1.25582E-003	  4.37550E-003
  9.83040E+000	 -1.14093E-002	 -4.77231E-003	 -8.26507E-003	 -3.36208E-003
  1.06496E+001	 -3.25612E-003	 -1.56385E-002	 -1.12286E-002	 -2.62053E-003
  1.14688E+001	  5.70410E-003	 -1.20068E-003	 -5.80739E-003	  8.46005E-003
  1.22880E+001	  7.00199E-003	 -3.53718E-003	 -1.07427E-002	  7.05898E-003
  1.31072E+001	  6.99533E-003	 -6.80479E-003	 -5.67415E-003	 -4.61842E-004
  1.47456E+001	  5.31146E-003	 -8.78014E-003	  1.38306E-003	 -3.34977E-004
  1.63840E+001	  4.77282E-003	 -1.11812E-002	 -8.76920E-003	 -4.89637E-004
  1.80224E+001	 -8.77988E-003	 -1.59360E-002	 -1.16286E-002	 -1.24800E-003
  1.96608E+001	 -2.62983E-003	 -2.03983E-003	  8.66708E-004	 -4.63125E-003
  2.12992E+001	  2.25134E-003	  1.16619E-003	 -9.99238E-004	 -1.45684E-003
  2.29376E+001	 -2.85445E-003	 -8.34377E-003	 -1.80050E-003	 -6.99919E-003
  2.45760E+001	  6.49329E-004	 -6.01523E-003	 -2.96267E-003	  9.39706E-006
  2.62144E+001	 -9.25826E-004	  2.21946E-003	 -6.80221E-003	  3.76440E-003
  2.94912E+001	  4.35092E-003	  6.84043E-003	  8.44821E-003	 -2.56106E-003
  3.27680E+001	 -5.91065E-003	 -1.36228E-003	  5.18563E-003	  6.78767E-003
  3.60448E+001	  5.86046E-004	 -8.50240E-003	 -1.73368E-004	 -2.59917E-003
  3.93216E+001	 -4.80808E-004	 -1.43330E-003	 -3.61706E-003	 -5.53490E-003
  4.25984E+001	 -4.34931E-003	 -3.55197E-003	  3.64587E-003	 -2.89900E-004
  4.58752E+001	  1.68048E-003	 -7.24484E-004	  2.51892E-003	 -2.54960E-004
  4.91520E+001	  2.93977E-003	  1.41504E-003	  6.75916E-003	  2.23688E-003
  5.24288E+001	 -1.06456E-003	  4.28788E-003	 -2.08564E-003	 -3.15331E-003
  5.89824E+001	  7.32357E-004	 -1.77423E-003	 -1.23244E-003	 -5.68270E-004
  6.55360E+001	 -6.91305E-003	  7.16403E-003	 -2.60803E-003	 -2.80706E-003
  7.20896E+001	  4.46141E-004	  3.52753E-003	  2.31895E-003	 -1.54562E-003
  7.86432E+001	  3.78893E-003	 -5.18003E-004	 -9.63425E-004	  1.50298E-004
  8.51968E+001	  3.57278E-003	 -3.50448E-003	 -2.03830E-003	  7.73659E-004
  9.17504E+001	 -2.07927E-004	 -4.42274E-003	  6.14312E-004	 -5.98747E-003
  9.83040E+001	 -1.07251E-004	  3.14978E-003	 -1.05995E-003	 -2.85553E-004
  1.04858E+002	  1.65131E-003	  4.30848E-003	 -5.67796E-003	  3.69925E-003
  1.17965E+002	  9.87438E-004	 -1.73238E-003	 -1.52941E-003	  1.01889E-003
  1.31072E+002	  1.31332E-003	 -1.30784E-003	  1.17976E-003	  1.29074E-004
  1.44179E+002	  1.31104E-004	 -3.04000E-004	  2.10777E-003	 -9.83983E-004
  1.57286E+002	 -1.51682E-003	  1.03978E-003	 -5.06016E-003	 -4.19281E-003
  1.70394E+002	 -1.22666E-003	 -3.11424E-003	  1.69478E-003	  2.66227E-004
  1.83501E+002	  5.90515E-004	  7.29193E-004	  1.36981E-003	 -1.15445E-003
  1.96608E+002	  1.24126E-003	  4.72357E-005	 -4.01287E-003	 -1.77758E-003
  2.09715E+002	 -5.21103E-004	 -1.65678E-003	 -1.44959E-004	  1.19195E-003
  2.35930E+002	 -5.80560E-004	  1.25229E-004	 -1.43743E-003	  3.26119E-003
  2.62144E+002	  7.31645E-004	  3.57429E-003	  3.66174E-004	 -1.18760E-003
  2.88358E+002	  7.00143E-004	 -3.68857E-003	  9.52436E-005	 -2.56274E-003
  3.14573E+002	 -1.09100E-003	  1.77552E-004	 -2.83544E-003	  5.69484E-004
  3.40787E+002	 -1.83419E-003	 -1.24214E-003	  1.23616E-003	  2.58178E-003
  3.67002E+002	  1.16098E-003	  6.95548E-003	 -1.60529E-003	 -1.34918E-003
  3.93216E+002	 -1.53229E-004	 -4.43873E-003	  4.08342E-003	 -1.77033E-004

"Count Rate"
       0.01311	     151.44348	     121.68884	     131.22559	     115.81421
       0.02621	     162.42981	     138.47351	     137.48169	     114.13574
       0.03932	     148.92578	     172.11914	     145.72144	     133.28552
       0.05243	     116.57715	     148.31543	     106.04858	     175.39978
       0.06554	     121.38367	     114.97498	     169.75403	     113.98315
       0.07864	     164.03198	     134.96399	     104.44641	     103.91235
       0.09175	     133.13293	     166.16821	     135.80322	     131.75964
       0.10486	     140.68604	     129.08936	     163.57422	     145.95032
       0.11796	     126.72424	     161.36169	     111.99951	     115.43274
       0.13107	     140.68604	     139.16016	     167.46521	     143.73779
       0.14418	     124.43542	     146.78955	     100.17395	     122.60437
       0.15729	     141.60156	     112.15210	     108.56628	     160.82764
       0.17039	     142.13562	     167.99927	     147.24731	     149.99390
       0.18350	     164.18457	     120.23926	     130.00488	     150.52795
       0.19661	     162.96387	     177.38342	     163.87939	     119.55261
       0.20972	     115.12756	     144.50073	     156.93665	     106.50635
       0.22282	     152.28271	     111.84692	     134.42993	     144.11926
       0.23593	     113.98315	     137.71057	     131.83594	     170.05920
       0.24904	     135.72693	     167.99927	     147.39990	     119.47632
       0.26214	     141.06750	     129.01306	     158.92029	     156.63147
       0.27525	     159.83582	     140.60974	     130.76782	     155.63965
       0.28836	     124.51172	     125.57983	     114.05945	     112.68616
       0.30147	     173.11096	     162.73499	     124.13025	     139.16016
       0.31457	     143.50891	     130.08118	     133.59070	     131.75964
       0.32768	     139.00757	     104.06494	     104.98047	     124.96948
       0.34079	     121.00220	     115.73792	     128.47900	     157.69958
       0.35389	     123.36731	     204.08630	     132.21741	     136.33728
       0.36700	     122.90955	     145.49255	     111.38916	     129.85229
       0.38011	     142.51709	     151.36719	     144.65332	     137.63428
       0.39322	     142.89856	     109.48181	     124.58801	     106.12488
       0.40632	     146.48438	     128.25012	     113.83057	     146.25549
       0.41943	     156.32629	     117.26379	     129.16565	     116.42456
       0.43254	     147.17102	     147.62878	     130.84412	     136.87134
       0.44564	     137.32910	     156.17371	     124.66431	     141.60156
       0.45875	     126.26648	     121.23108	     154.80042	     159.37805
       0.47186	     153.27454	     166.16821	     114.51721	     142.44080
       0.48497	     150.37537	     130.00488	     144.04297	     144.57703
       0.49807	     123.44360	     177.76489	     125.57983	     136.03210
       0.51118	     134.12476	     121.23108	     129.24194	     120.08667
       0.52429	     117.79785	     131.53076	     123.67249	     117.79785
       0.53740	     143.50891	     130.53894	     123.36731	     122.52808
       0.55050	     120.23926	     144.88220	     146.10291	     121.91772
       0.56361	     131.98853	     125.57983	     118.48450	     144.11926
       0.57672	     128.09753	     186.30981	     139.16016	     163.95569
       0.58982	     131.98853	     138.24463	     128.25012	     116.65344
       0.60293	     125.27466	     115.05127	     159.75952	     139.69421
       0.61604	     134.65881	     127.86865	     110.62622	     136.10840
       0.62915	     129.16565	     183.25806	     137.86316	     140.53345
       0.64225	     124.96948	     137.55798	     201.18713	     117.49268
       0.65536	     113.98315	     121.84143	     120.84961	     113.52539
       0.66847	     165.40527	     127.86865	     125.27466	     132.14111
       0.68157	     135.95581	     143.96667	     126.72424	     130.08118
       0.69468	     124.96948	     139.38904	     147.39990	     130.38635
       0.70779	     125.96130	     127.41089	     102.76794	     154.87671
       0.72090	     151.51978	     130.92041	     151.82495	     124.05396
       0.73400	     122.29919	     161.13281	     134.88770	     130.69153
       0.74711	     130.46265	     113.98315	     128.70789	     123.13843
