ALV-7004/USB-FAST
Date :	"3/14/2024"
Time :	"12:33:51 PM"
Samplename : 	""
SampMemo(0) : 	""
SampMemo(1) : 	""
SampMemo(2) : 	""
SampMemo(3) : 	""
SampMemo(4) : 	""
SampMemo(5) : 	""
SampMemo(6) : 	""
SampMemo(7) : 	""
SampMemo(8) : 	""
SampMemo(9) : 	""
Temperature [K] :	     298.16000
Viscosity [cp]  :	       0.89000
Refractive Index:	       1.33200
Wavelength [nm] :	       0.00000
Angle [°]       :	       0.00000
Duration [s]    :	         1
FloatDur [ms]   :	          944
Stop TP [ms]   :	      3361
Runs            :	         1
Mode            :	"A-CH0+1  A-CH2+3 "
MeanCR0 [kHz]   :	     118.76106
MeanCR1 [kHz]   :	     116.84736
MeanCR2 [kHz]   :	     110.10594
MeanCR3 [kHz]   :	     112.85146

"Correlation"
  3.12500E-006	 -1.00000E+000	 -1.00000E+000	 -1.00000E+000	 -1.00000E+000
  6.25000E-006	 -1.00000E+000	 -1.00000E+000	 -1.00000E+000	 -1.00000E+000
  9.37500E-006	 -1.00000E+000	 -1.00000E+000	 -1.00000E+000	 -1.00000E+000
  1.25000E-005	 -1.00000E+000	 -1.00000E+000	 -1.00000E+000	 -1.00000E+000
  1.56250E-005	 -1.00000E+000	 -1.00000E+000	 -1.00000E+000	 -1.00000E+000
  1.87500E-005	 -1.00000E+000	 -1.00000E+000	 -1.00000E+000	 -1.00000E+000
  2.18750E-005	 -8.79793E-001	 -4.03952E-001	 -7.70036E-002	 -9.20124E-001
  2.50000E-005	  5.97200E+000	  7.09631E+000	  6.10428E+000	  1.24990E+001
  2.81250E-005	  2.19750E+000	  7.63308E-001	  1.43335E+000	  4.88417E+000
  3.12500E-005	  9.95435E-001	  7.38472E-001	  1.04178E+000	  2.94053E+000
  3.43750E-005	  2.02069E-001	  7.13637E-001	  7.06145E-001	  2.59440E+000
  3.75000E-005	  9.71393E-001	  2.16931E-001	  7.62084E-001	  2.00865E+000
  4.06250E-005	  9.95435E-001	  6.88802E-001	  5.38327E-001	  1.82227E+000
  4.37500E-005	  6.34814E-001	  5.64625E-001	  2.02692E-001	  8.63765E-001
  4.68750E-005	  7.30979E-001	  5.14955E-001	  5.66297E-001	  1.71577E+000
  5.00000E-005	  4.30462E-001	  8.50231E-001	  5.80282E-001	  1.48946E+000
  5.62500E-005	  9.11290E-001	  3.16272E-001	  5.10358E-001	  1.01020E+000
  6.25000E-005	  6.22793E-001	  2.04513E-001	  5.10358E-001	  9.56953E-001
  6.87500E-005	  5.38648E-001	  5.14954E-001	  1.02779E+000	  1.16996E+000
  7.50000E-005	  5.02586E-001	  7.38472E-001	  6.64190E-001	  5.57575E-001
  8.12500E-005	  6.46834E-001	  6.39131E-001	  4.54418E-001	  7.97202E-001
  8.75000E-005	  2.98234E-001	  5.14954E-001	  4.26449E-001	  6.50763E-001
  9.37500E-005	  6.82896E-001	  6.76384E-001	  6.50205E-001	  3.17948E-001
  1.00000E-004	  7.06938E-001	  5.58416E-001	  4.96373E-001	  6.30794E-001
  1.12500E-004	  8.27145E-001	  6.08087E-001	  5.10357E-001	  7.50608E-001
  1.25000E-004	  4.48493E-001	  3.90778E-001	  7.83061E-001	  5.30950E-001
  1.37500E-004	  6.76886E-001	  5.77043E-001	  4.89380E-001	  5.30950E-001
  1.50000E-004	  6.04762E-001	  6.14296E-001	  4.12464E-001	  6.90701E-001
  1.62500E-004	  5.14607E-001	  6.01878E-001	  4.96373E-001	  6.90701E-001
  1.75000E-004	  5.44658E-001	  4.59075E-001	  6.22236E-001	  5.90856E-001
  1.87500E-004	  5.26627E-001	  5.08745E-001	  3.35548E-001	  5.30950E-001
  2.00000E-004	  4.18441E-001	  4.90119E-001	  3.42540E-001	  4.31105E-001
  2.25000E-004	  4.42482E-001	  4.96327E-001	  4.26448E-001	  4.91012E-001
  2.50000E-004	  5.59684E-001	  5.08745E-001	  4.26448E-001	  5.34278E-001
  2.75000E-004	  5.38648E-001	  4.31135E-001	  5.94266E-001	  5.47590E-001
  3.00000E-004	  5.11601E-001	  4.40448E-001	  4.75395E-001	  3.74526E-001
  3.25000E-004	  4.06420E-001	  4.99432E-001	  5.52311E-001	  5.17637E-001
  3.50000E-004	  4.75539E-001	  4.87014E-001	  4.43929E-001	  5.17637E-001
  3.75000E-004	  3.55332E-001	  4.77701E-001	  5.31334E-001	  4.77699E-001
  4.00000E-004	  4.16938E-001	  4.90118E-001	  5.76784E-001	  4.87683E-001
  4.50000E-004	  5.50668E-001	  4.77700E-001	  5.13853E-001	  4.94339E-001
  5.00000E-004	  4.98077E-001	  5.56863E-001	  4.91127E-001	  4.67714E-001
  5.50000E-004	  5.40150E-001	  4.99431E-001	  5.64547E-001	  5.27621E-001
  6.00000E-004	  5.58181E-001	  5.38236E-001	  4.52669E-001	  4.06143E-001
  6.50000E-004	  4.86057E-001	  5.22714E-001	  5.01616E-001	  4.74370E-001
  7.00000E-004	  5.11601E-001	  4.97879E-001	  3.70509E-001	  5.22628E-001
  7.50000E-004	  5.20616E-001	  4.38895E-001	  5.55807E-001	  5.09316E-001
  8.00000E-004	  4.62014E-001	  4.84684E-001	  5.12977E-001	  4.36109E-001
  9.00000E-004	  4.74035E-001	  4.35790E-001	  5.58428E-001	  4.86031E-001
  1.00000E-003	  4.82299E-001	  4.69938E-001	  4.38683E-001	  4.53582E-001
  1.10000E-003	  4.95822E-001	  4.70714E-001	  5.36577E-001	  4.94352E-001
  1.20000E-003	  4.80045E-001	  5.32026E-001	  5.23466E-001	  4.70223E-001
  1.30000E-003	  4.56755E-001	  5.21161E-001	  5.28710E-001	  5.06833E-001
  1.40000E-003	  4.53750E-001	  4.80803E-001	  4.57912E-001	  3.94507E-001
  1.50000E-003	  5.04086E-001	  5.03310E-001	  4.89378E-001	  5.15985E-001
  1.60000E-003	  4.74408E-001	  5.00980E-001	  5.23463E-001	  4.57753E-001
  1.80000E-003	  5.08216E-001	  4.57130E-001	  4.54851E-001	  4.70220E-001
  2.00000E-003	  4.71778E-001	  5.10293E-001	  4.67524E-001	  4.99758E-001
  2.20000E-003	  5.13851E-001	  4.62563E-001	  4.75391E-001	  4.80621E-001
  2.40000E-003	  4.92814E-001	  4.93995E-001	  4.67961E-001	  5.18063E-001
  2.60000E-003	  5.41273E-001	  4.59846E-001	  4.84131E-001	  4.85197E-001
  2.80000E-003	  4.72154E-001	  4.80025E-001	  4.84568E-001	  4.59820E-001
  3.00000E-003	  4.86053E-001	  5.04084E-001	  4.32125E-001	  4.91853E-001
  3.20000E-003	  4.65213E-001	  4.76721E-001	  4.72764E-001	  4.84388E-001
  3.60000E-003	  5.00336E-001	  4.94184E-001	  4.90463E-001	  4.75235E-001
  4.00000E-003	  4.74416E-001	  4.76721E-001	  4.96581E-001	  4.86884E-001
  4.40000E-003	  4.87000E-001	  4.50140E-001	  4.90245E-001	  5.18294E-001
  4.80000E-003	  4.92823E-001	  5.02915E-001	  4.71234E-001	  4.83972E-001
  5.20000E-003	  5.35271E-001	  4.82154E-001	  5.33073E-001	  4.55890E-001
  5.60000E-003	  5.01650E-001	  4.83124E-001	  4.81504E-001	  4.73571E-001
  6.00000E-003	  4.76294E-001	  4.73811E-001	  4.93304E-001	  4.38625E-001
  6.40000E-003	  4.98085E-001	  4.87383E-001	  4.86192E-001	  4.92844E-001
  7.20000E-003	  4.93389E-001	  4.74674E-001	  4.58004E-001	  4.48120E-001
  8.00000E-003	  5.07758E-001	  4.52944E-001	  4.73409E-001	  4.90868E-001
  8.80000E-003	  4.88613E-001	  4.72346E-001	  4.76578E-001	  4.83677E-001
  9.60000E-003	  4.85420E-001	  4.64488E-001	  4.68711E-001	  4.67972E-001
  1.04000E-002	  4.90022E-001	  4.60802E-001	  4.72426E-001	  4.79725E-001
  1.12000E-002	  4.90961E-001	  4.62160E-001	  4.76031E-001	  4.55179E-001
  1.20000E-002	  5.00352E-001	  4.69145E-001	  4.86301E-001	  4.73783E-001
  1.28000E-002	  4.85990E-001	  4.59172E-001	  4.72624E-001	  4.69048E-001
  1.44000E-002	  4.71199E-001	  4.58008E-001	  4.80381E-001	  4.58036E-001
  1.60000E-002	  4.70776E-001	  4.63926E-001	  4.44328E-001	  4.71558E-001
  1.76000E-002	  4.69696E-001	  4.70959E-001	  4.56346E-001	  4.54396E-001
  1.92000E-002	  4.60445E-001	  4.54952E-001	  4.72133E-001	  4.58570E-001
  2.08000E-002	  4.64309E-001	  4.49083E-001	  4.72679E-001	  4.55723E-001
  2.24000E-002	  4.56501E-001	  4.58105E-001	  4.56182E-001	  4.55553E-001
  2.40000E-002	  4.65892E-001	  4.54710E-001	  4.65141E-001	  4.58376E-001
  2.56000E-002	  4.54056E-001	  4.55223E-001	  4.62056E-001	  4.51305E-001
  2.88000E-002	  4.63753E-001	  4.53234E-001	  4.50038E-001	  4.60251E-001
  3.20000E-002	  4.49574E-001	  4.37456E-001	  4.39687E-001	  4.47770E-001
  3.52000E-002	  4.56701E-001	  4.41650E-001	  4.49792E-001	  4.49122E-001
  3.84000E-002	  4.50841E-001	  4.40995E-001	  4.39892E-001	  4.31361E-001
  4.16000E-002	  4.52015E-001	  4.38473E-001	  4.36314E-001	  4.38252E-001
  4.48000E-002	  4.42459E-001	  4.32593E-001	  4.25416E-001	  4.31673E-001
  4.80000E-002	  4.38173E-001	  4.36255E-001	  4.22220E-001	  4.22247E-001
  5.12000E-002	  4.33180E-001	  4.24400E-001	  4.18347E-001	  4.23007E-001
  5.76000E-002	  4.30573E-001	  4.18095E-001	  4.18592E-001	  4.06233E-001
  6.40000E-002	  4.25959E-001	  4.12382E-001	  4.04062E-001	  4.09705E-001
  7.04000E-002	  4.12586E-001	  4.09763E-001	  4.00430E-001	  4.04438E-001
  7.68000E-002	  4.07422E-001	  3.95246E-001	  3.93752E-001	  3.98444E-001
  8.32000E-002	  3.99556E-001	  3.92880E-001	  3.85572E-001	  3.90759E-001
  8.96000E-002	  3.94965E-001	  3.85081E-001	  3.85817E-001	  3.79797E-001
  9.60000E-002	  3.83518E-001	  3.78193E-001	  3.75971E-001	  3.71943E-001
  1.02400E-001	  3.74508E-001	  3.67159E-001	  3.67638E-001	  3.67052E-001
  1.15200E-001	  3.63509E-001	  3.58075E-001	  3.51968E-001	  3.46433E-001
  1.28000E-001	  3.49798E-001	  3.44244E-001	  3.42163E-001	  3.32598E-001
  1.40800E-001	  3.37302E-001	  3.37355E-001	  3.30521E-001	  3.25237E-001
  1.53600E-001	  3.18482E-001	  3.15440E-001	  3.08766E-001	  3.13053E-001
  1.66400E-001	  3.14506E-001	  3.04180E-001	  2.99014E-001	  2.97992E-001
  1.79200E-001	  2.95598E-001	  2.94570E-001	  2.86075E-001	  2.79950E-001
  1.92000E-001	  2.85687E-001	  2.85178E-001	  2.77577E-001	  2.73313E-001
  2.04800E-001	  2.76423E-001	  2.69794E-001	  2.61358E-001	  2.60047E-001
  2.30400E-001	  2.48785E-001	  2.42707E-001	  2.39961E-001	  2.39445E-001
  2.56000E-001	  2.29876E-001	  2.22012E-001	  2.18345E-001	  2.18461E-001
  2.81600E-001	  2.06185E-001	  2.00205E-001	  1.98168E-001	  1.94410E-001
  3.07200E-001	  1.93662E-001	  1.86232E-001	  1.77541E-001	  1.81441E-001
  3.32800E-001	  1.74946E-001	  1.70119E-001	  1.62523E-001	  1.59934E-001
  3.58400E-001	  1.59117E-001	  1.52425E-001	  1.43377E-001	  1.50466E-001
  3.84000E-001	  1.48445E-001	  1.39510E-001	  1.35159E-001	  1.32973E-001
  4.09600E-001	  1.36443E-001	  1.28271E-001	  1.20447E-001	  1.22313E-001
  4.60800E-001	  1.15359E-001	  1.08782E-001	  9.84875E-002	  9.64025E-002
  5.12000E-001	  9.76202E-002	  9.14892E-002	  8.40032E-002	  8.02701E-002
  5.63200E-001	  8.16666E-002	  7.64091E-002	  7.05165E-002	  6.68480E-002
  6.14400E-001	  7.13105E-002	  6.39556E-002	  6.49949E-002	  5.48234E-002
  6.65600E-001	  6.20449E-002	  5.32138E-002	  6.13039E-002	  4.66591E-002
  7.16800E-001	  5.21972E-002	  4.31923E-002	  5.47860E-002	  3.95196E-002
  7.68000E-001	  4.39571E-002	  3.73980E-002	  5.18067E-002	  3.38935E-002
  8.19200E-001	  3.90130E-002	  2.84226E-002	  4.57685E-002	  3.39407E-002
  9.21600E-001	  3.00347E-002	  2.09165E-002	  3.84646E-002	  2.79926E-002
  1.02400E+000	  2.76717E-002	  2.08568E-002	  3.36358E-002	  1.69086E-002
  1.12640E+000	  2.45467E-002	  2.32378E-002	  2.30014E-002	  7.32652E-003
  1.22880E+000	  1.72423E-002	  2.46100E-002	  1.92603E-002	  4.58204E-003
  1.33120E+000	  1.00531E-002	  2.11480E-002	  1.14330E-002	  1.92224E-003
  1.43360E+000	  5.20792E-003	  1.88136E-002	  2.57330E-003	 -1.77535E-003
  1.53600E+000	  4.79573E-003	  1.42190E-002	 -4.46244E-003	  5.19204E-003
  1.63840E+000	  6.77755E-004	  1.57000E-002	 -8.44669E-003	  1.49505E-003
  1.84320E+000	  4.62797E-003	  1.01737E-002	 -1.09710E-002	 -8.48699E-004
  2.04800E+000	  9.15262E-003	  3.91165E-003	 -1.48718E-002	 -2.51218E-003
  2.25280E+000	  1.61439E-002	 -6.80726E-003	 -1.15269E-002	 -7.78173E-003
  2.45760E+000	  2.32563E-002	 -1.53989E-002	 -1.19741E-002	 -5.74813E-003
  2.66240E+000	  1.97826E-002	 -1.20224E-002	 -1.10936E-002	 -9.31459E-003
  2.86720E+000	  1.32128E-002	 -5.27572E-003	 -3.31059E-004	 -2.59996E-003
  3.07200E+000	  4.33147E-003	  8.57019E-003	 -5.66147E-003	  1.49662E-003
  3.27680E+000	 -2.47731E-003	  1.67923E-002	 -1.28491E-002	 -4.69758E-003
  3.68640E+000	 -6.79646E-003	  9.16768E-003	 -1.52456E-002	 -8.53254E-003
  4.09600E+000	 -1.39272E-003	 -1.97613E-002	 -7.31166E-003	 -1.69395E-002
  4.50560E+000	 -4.32591E-003	 -2.09477E-002	  1.14688E-002	 -9.61316E-003
  4.91520E+000	 -1.59701E-003	 -9.67745E-003	  7.10602E-003	 -3.14249E-003
  5.32480E+000	  2.97469E-003	 -1.52725E-003	  1.08896E-002	  5.33496E-003
  5.73440E+000	 -3.64406E-003	  5.25162E-003	  4.17061E-003	  8.04207E-003
  6.14400E+000	 -1.66402E-002	  8.02885E-003	 -7.71373E-003	  1.66593E-002
  6.55360E+000	 -5.96588E-003	  3.50247E-003	 -1.07393E-002	  1.50394E-002
  7.37280E+000	  9.40257E-003	  6.27284E-004	 -4.39071E-003	  1.06221E-002
  8.19200E+000	  1.56621E-002	 -2.45902E-003	  5.23758E-003	  7.80136E-003
  9.01120E+000	 -7.57976E-004	  4.35006E-003	  5.60873E-003	  1.44284E-003
  9.83040E+000	 -1.47163E-002	  1.49181E-003	  3.61437E-003	  3.94317E-003
  1.06496E+001	 -1.91916E-002	  3.07074E-003	  1.58027E-003	 -1.47709E-002
  1.14688E+001	 -1.98229E-003	  1.28854E-002	  8.55918E-003	 -7.52205E-003
  1.22880E+001	 -7.99624E-003	  8.57699E-003	  5.61772E-004	 -1.66239E-004
  1.31072E+001	 -7.48445E-004	  8.95193E-003	 -3.00494E-003	  3.54671E-003
  1.47456E+001	 -3.77195E-003	 -1.51223E-002	 -3.35640E-003	  1.80916E-003
  1.63840E+001	 -8.36434E-003	 -2.17428E-002	  2.79082E-003	 -5.75839E-003
  1.80224E+001	 -1.29345E-002	 -1.90760E-002	  4.25833E-003	 -6.94931E-003
  1.96608E+001	  1.75667E-003	 -1.07273E-002	 -7.76186E-004	  9.49514E-003
  2.12992E+001	  1.09035E-002	 -6.14738E-003	 -1.34647E-003	 -3.51170E-004
  2.29376E+001	 -1.95462E-003	 -3.50781E-003	 -3.46350E-003	 -1.03598E-003
  2.45760E+001	 -1.04573E-002	 -6.30230E-003	  5.43039E-003	 -3.76663E-003
  2.62144E+001	  3.68455E-003	 -7.93147E-003	  3.36568E-003	 -3.99881E-003
  2.94912E+001	  1.94564E-003	 -1.05417E-002	  1.12973E-003	 -8.44519E-003
  3.27680E+001	 -4.31635E-003	  8.15981E-003	  1.96599E-003	  1.41535E-003
  3.60448E+001	  9.03226E-003	  6.46130E-003	  4.64317E-003	 -5.72345E-003
  3.93216E+001	  8.39383E-003	 -5.97701E-003	  1.38155E-003	 -6.90040E-003
  4.25984E+001	  5.48453E-003	  1.04287E-002	  1.51710E-003	 -2.26300E-003
  4.58752E+001	 -2.11099E-003	 -2.90553E-003	 -7.72262E-003	 -5.39135E-003
  4.91520E+001	 -7.29531E-004	 -4.54132E-003	 -4.07299E-003	  8.24032E-003
  5.24288E+001	 -5.16409E-003	 -1.07493E-003	 -9.27782E-004	  5.65824E-003
  5.89824E+001	  8.38397E-003	  2.40267E-003	 -2.16993E-003	 -4.88623E-003
  6.55360E+001	 -3.85984E-003	  4.31262E-003	  2.19547E-003	 -3.94378E-003
  7.20896E+001	 -1.27732E-003	 -3.29673E-003	  6.16082E-003	  2.44529E-003
  7.86432E+001	 -3.84321E-003	 -1.44525E-003	  2.91728E-003	 -4.86787E-003
  8.51968E+001	  1.23519E-003	 -6.63372E-003	 -7.21464E-003	 -7.33294E-003
  9.17504E+001	 -2.79553E-003	 -1.64308E-004	 -2.45362E-003	 -3.53927E-003
  9.83040E+001	 -1.14575E-003	 -2.27615E-003	  9.74976E-004	  2.57463E-003
  1.04858E+002	 -8.56199E-004	  2.39493E-003	 -2.47989E-003	 -2.57766E-004
  1.17965E+002	  1.62468E-003	  3.48370E-003	  2.39916E-003	  3.82654E-004
  1.31072E+002	  3.02326E-004	 -3.29245E-003	  3.56910E-003	  1.00452E-003
  1.44179E+002	  2.65517E-003	  4.28591E-004	  1.59389E-003	  1.26191E-003
  1.57286E+002	  3.77097E-004	 -3.35798E-003	 -3.56991E-003	  3.99028E-004
  1.70394E+002	  2.59626E-003	  1.92677E-003	 -3.91660E-003	 -4.35678E-003
  1.83501E+002	 -3.34196E-004	  3.65219E-003	  1.31567E-003	 -1.96370E-003
  1.96608E+002	  2.59450E-004	 -4.42589E-003	 -2.84803E-004	  9.85097E-004
  2.09715E+002	 -5.19630E-004	 -4.89283E-003	 -1.10909E-003	 -1.55566E-003
  2.35930E+002	 -8.55183E-004	  5.78918E-003	 -1.70762E-004	  6.07194E-004
  2.62144E+002	 -4.72065E-004	 -4.30522E-003	  3.61058E-003	  4.56526E-004
  2.88358E+002	  1.62545E-003	 -2.67551E-004	 -1.54237E-003	  1.54127E-003
  3.14573E+002	  2.05741E-003	  1.64000E-003	  8.52411E-004	 -7.14473E-004
  3.40787E+002	 -3.01065E-003	 -3.21550E-004	  7.36931E-004	 -4.33793E-004
  3.67002E+002	 -5.42831E-003	  3.65705E-004	  5.39638E-003	 -7.34581E-005
  3.93216E+002	 -1.60601E-003	 -2.69982E-003	  3.99266E-003	  3.20165E-003

"Count Rate"
       0.01311	     126.11389	     108.26111	     103.98865	     113.75427
       0.02621	     116.34827	     103.53088	     110.01587	     124.05396
       0.03932	     119.09485	      92.01050	     132.82776	      93.84155
       0.05243	      97.57996	      92.92603	     102.99683	     140.07568
       0.06554	     142.44080	     113.44910	     111.31287	     170.13550
       0.07864	     105.66711	     105.89600	      93.91785	      92.01050
       0.09175	      83.00781	     101.69983	     101.47095	      85.44922
       0.10486	     104.75159	     107.65076	     121.15479	     117.49268
       0.11796	     112.38098	     155.63965	      83.46558	     102.38647
       0.13107	     135.80322	     111.08398	     119.17114	      88.42468
       0.14418	     105.59082	      88.34839	     109.32922	      98.03772
       0.15729	     116.72974	     139.38904	     108.87146	     107.80334
       0.17039	      93.46008	      80.56641	     141.75415	     138.32092
       0.18350	     118.02673	     142.59338	      96.58813	     126.64795
       0.19661	     115.20386	     103.07312	      80.56641	     127.94495
       0.20972	     109.71069	     114.89868	     104.82788	     105.20935
       0.22282	     131.60706	     126.41907	     109.17664	     118.40820
       0.23593	     126.49536	     127.48718	     126.80054	     102.00500
       0.24904	     138.70239	     102.92053	     103.83606	     111.23657
       0.26214	     125.96130	     127.48718	      89.72168	     119.62891
       0.27525	     123.06213	     113.37280	      88.65356	      98.80066
       0.28836	     118.10303	      98.41919	      89.64539	     125.73242
       0.30147	     129.62341	     139.99939	      95.13855	      96.66443
       0.31457	      96.43555	      95.82520	     111.16028	     140.22827
       0.32768	     119.93408	     108.87146	      84.38110	     112.38098
       0.34079	      99.41101	      99.71619	      74.31030	     107.95593
       0.35389	     107.04041	     108.48999	     111.69434	     103.07312
       0.36700	     107.72705	     139.77051	      88.95874	     111.08398
       0.38011	     131.37817	     107.65076	      91.40015	      92.84973
       0.39322	     125.65613	     119.47632	     108.10852	     125.35095
       0.40632	     171.58508	     105.74341	      98.49548	     111.69434
       0.41943	     118.02673	     118.78967	     118.63708	     100.63171
       0.43254	     110.01587	     116.19568	     141.98303	      92.39197
       0.44564	     123.74878	     118.48450	     131.14929	     106.81152
       0.45875	     125.35095	     111.99951	      98.49548	     109.55811
       0.47186	     136.48987	     136.71875	      94.83337	     117.72156
       0.48497	      96.58813	     111.23657	     106.73523	      99.79248
       0.49807	     121.38367	     132.21741	     115.35645	      99.56360
       0.51118	     117.41638	     121.23108	     105.13306	      97.35107
       0.52429	     110.16846	      82.09229	      92.77344	     111.84692
       0.53740	     127.56348	     146.17920	     111.00769	     101.08948
       0.55050	     124.20654	     139.08386	     133.36182	     115.12756
       0.56361	      95.44373	      91.93420	     123.82507	     140.30457
       0.57672	     138.32092	     123.82507	     119.01855	     109.71069
       0.58982	     129.31824	     117.72156	     109.32922	     125.04578
       0.60293	     108.64258	     142.05933	     110.32104	     128.86047
       0.61604	     122.90955	     110.24475	     102.23389	     108.33740
       0.62915	     112.68616	     116.04309	     102.69165	      91.70532
       0.64225	      98.11401	     108.48999	      95.74890	     100.40283
       0.65536	     112.53357	     120.23926	     111.77063	     129.69971
       0.66847	     118.63708	     136.03210	      89.41650	     112.38098
       0.68157	     108.87146	     109.48181	     134.81140	      90.48462
       0.69468	     141.44897	     120.46814	      98.80066	      90.78979
       0.70779	     115.96680	     123.06213	     110.85510	     138.01575
       0.72090	     128.78418	     122.29919	     101.47095	     120.54443
       0.73400	     114.05945	     116.72974	     121.23108	      85.29663
       0.74711	     103.30200	      86.89880	     101.24207	     103.14941
