ALV-7004/USB-FAST
Date :	"3/14/2024"
Time :	"12:37:11 PM"
Samplename : 	""
SampMemo(0) : 	""
SampMemo(1) : 	""
SampMemo(2) : 	""
SampMemo(3) : 	""
SampMemo(4) : 	""
SampMemo(5) : 	""
SampMemo(6) : 	""
SampMemo(7) : 	""
SampMemo(8) : 	""
SampMemo(9) : 	""
Temperature [K] :	     298.16000
Viscosity [cp]  :	       0.89000
Refractive Index:	       1.33200
Wavelength [nm] :	       0.00000
Angle [°]       :	       0.00000
Duration [s]    :	         1
FloatDur [ms]   :	          944
Stop TP [ms]   :	      4062
Runs            :	         1
Mode            :	"A-CH0+1  A-CH2+3 "
MeanCR0 [kHz]   :	     138.96836
MeanCR1 [kHz]   :	     146.94956
MeanCR2 [kHz]   :	     134.93856
MeanCR3 [kHz]   :	     138.61869

"Correlation"
  3.12500E-006	 -1.00000E+000	 -1.00000E+000	 -1.00000E+000	 -1.00000E+000
  6.25000E-006	 -1.00000E+000	 -1.00000E+000	 -1.00000E+000	 -1.00000E+000
  9.37500E-006	 -1.00000E+000	 -1.00000E+000	 -1.00000E+000	 -1.00000E+000
  1.25000E-005	 -1.00000E+000	 -1.00000E+000	 -1.00000E+000	 -1.00000E+000
  1.56250E-005	 -1.00000E+000	 -1.00000E+000	 -1.00000E+000	 -1.00000E+000
  1.87500E-005	 -1.00000E+000	 -1.00000E+000	 -1.00000E+000	 -1.00000E+000
  2.18750E-005	 -9.64884E-001	 -4.03306E-001	 -4.22706E-001	 -9.82353E-001
  2.50000E-005	  4.96973E+000	  5.75206E+000	  5.29437E+000	  9.42921E+000
  2.81250E-005	  1.86196E+000	  1.15124E+000	  1.55127E+000	  4.04696E+000
  3.12500E-005	  8.43593E-001	  6.80164E-001	  7.31882E-001	  1.98230E+000
  3.43750E-005	  7.03128E-001	  4.28924E-001	  7.87749E-001	  1.57642E+000
  3.75000E-005	  8.26035E-001	  5.07437E-001	  8.43617E-001	  1.84112E+000
  4.06250E-005	  6.32896E-001	  7.11569E-001	  8.62239E-001	  1.43525E+000
  4.37500E-005	  4.22200E-001	  5.23139E-001	  5.45658E-001	  9.94079E-001
  4.68750E-005	  7.55802E-001	  4.60329E-001	  5.08414E-001	  1.13525E+000
  5.00000E-005	  4.66095E-001	  4.60329E-001	  7.13260E-001	  9.85256E-001
  5.62500E-005	  6.76791E-001	  4.76032E-001	  5.54969E-001	  1.17937E+000
  6.25000E-005	  4.74874E-001	  6.72312E-001	  6.66704E-001	  8.61729E-001
  6.87500E-005	  7.99697E-001	  6.40908E-001	  4.05990E-001	  6.49968E-001
  7.50000E-005	  6.76791E-001	  3.81817E-001	  6.57393E-001	  7.55849E-001
  8.12500E-005	  4.66095E-001	  5.78098E-001	  6.10837E-001	  5.79381E-001
  8.75000E-005	  7.47023E-001	  3.26858E-001	  2.66322E-001	  7.47025E-001
  9.37500E-005	  3.87084E-001	  5.23139E-001	  4.80480E-001	  6.49968E-001
  1.00000E-004	  6.54844E-001	  5.34916E-001	  4.66513E-001	  6.01440E-001
  1.12500E-004	  6.06559E-001	  6.52684E-001	  5.50314E-001	  5.74970E-001
  1.25000E-004	  6.81181E-001	  3.62189E-001	  4.52546E-001	  3.45562E-001
  1.37500E-004	  5.97780E-001	  4.87808E-001	  4.29268E-001	  6.14675E-001
  1.50000E-004	  4.09031E-001	  5.19213E-001	  5.13069E-001	  5.66146E-001
  1.62500E-004	  3.69526E-001	  5.54544E-001	  5.31691E-001	  6.72027E-001
  1.75000E-004	  5.09990E-001	  5.38841E-001	  4.66513E-001	  5.92616E-001
  1.87500E-004	  5.49495E-001	  4.72106E-001	  5.27036E-001	  5.92616E-001
  2.00000E-004	  5.53885E-001	  4.56403E-001	  4.78152E-001	  5.13206E-001
  2.25000E-004	  5.14379E-001	  4.87808E-001	  5.01430E-001	  5.70558E-001
  2.50000E-004	  4.00252E-001	  4.70143E-001	  4.96774E-001	  5.04382E-001
  2.75000E-004	  5.45106E-001	  5.56506E-001	  4.57201E-001	  4.18355E-001
  3.00000E-004	  4.81458E-001	  5.01548E-001	  4.57201E-001	  5.57323E-001
  3.25000E-004	  5.47300E-001	  5.62395E-001	  4.33923E-001	  5.26441E-001
  3.50000E-004	  4.22199E-001	  5.60432E-001	  3.75729E-001	  3.23504E-001
  3.75000E-004	  4.44147E-001	  5.36878E-001	  3.71073E-001	  5.08794E-001
  4.00000E-004	  4.75970E-001	  5.20194E-001	  3.97842E-001	  5.03279E-001
  4.50000E-004	  4.51828E-001	  4.75049E-001	  4.42070E-001	  4.42618E-001
  5.00000E-004	  4.79262E-001	  3.99481E-001	  4.43234E-001	  5.02176E-001
  5.50000E-004	  4.94626E-001	  5.09398E-001	  4.36251E-001	  4.47030E-001
  6.00000E-004	  5.05599E-001	  4.49533E-001	  5.03757E-001	  4.86735E-001
  6.50000E-004	  4.13420E-001	  4.63272E-001	  4.83970E-001	  4.45927E-001
  7.00000E-004	  4.23296E-001	  4.39719E-001	  5.77082E-001	  6.01439E-001
  7.50000E-004	  4.97918E-001	  5.38840E-001	  5.30526E-001	  4.61368E-001
  8.00000E-004	  4.84748E-001	  4.85374E-001	  4.62437E-001	  4.56404E-001
  9.00000E-004	  4.85297E-001	  5.03040E-001	  4.64765E-001	  4.80668E-001
  1.00000E-003	  4.77066E-001	  5.39341E-001	  4.32176E-001	  4.90594E-001
  1.10000E-003	  4.69385E-001	  4.33839E-001	  4.82223E-001	  4.63021E-001
  1.20000E-003	  5.09988E-001	  4.93215E-001	  4.29266E-001	  4.39308E-001
  1.30000E-003	  5.31935E-001	  4.77512E-001	  4.35086E-001	  4.54749E-001
  1.40000E-003	  4.79261E-001	  4.68189E-001	  4.08316E-001	  4.39860E-001
  1.50000E-003	  4.61703E-001	  4.87326E-001	  4.88043E-001	  4.99417E-001
  1.60000E-003	  4.79807E-001	  4.84401E-001	  4.74365E-001	  4.51714E-001
  1.80000E-003	  4.91055E-001	  4.50051E-001	  4.67381E-001	  4.40409E-001
  2.00000E-003	  4.78436E-001	  4.89788E-001	  4.61271E-001	  4.83698E-001
  2.20000E-003	  4.82002E-001	  5.00829E-001	  4.72037E-001	  4.51438E-001
  2.40000E-003	  5.01755E-001	  4.86598E-001	  4.37993E-001	  4.47578E-001
  2.60000E-003	  4.91055E-001	  4.84379E-001	  4.52251E-001	  4.62467E-001
  2.80000E-003	  4.71028E-001	  4.64997E-001	  4.94442E-001	  4.52541E-001
  3.00000E-003	  4.85294E-001	  4.90268E-001	  4.41485E-001	  4.54471E-001
  3.20000E-003	  4.90364E-001	  5.00723E-001	  4.53264E-001	  4.47297E-001
  3.60000E-003	  4.83369E-001	  4.70298E-001	  4.60393E-001	  4.56269E-001
  4.00000E-003	  4.94754E-001	  4.71157E-001	  4.38424E-001	  4.40415E-001
  4.40000E-003	  4.87210E-001	  4.46131E-001	  4.40316E-001	  4.53512E-001
  4.80000E-003	  4.93245E-001	  4.70912E-001	  4.48317E-001	  4.65782E-001
  5.20000E-003	  4.87210E-001	  4.73232E-001	  4.56610E-001	  4.57786E-001
  5.60000E-003	  4.80625E-001	  4.72864E-001	  4.64612E-001	  4.65093E-001
  6.00000E-003	  4.76236E-001	  4.57519E-001	  4.65194E-001	  4.61370E-001
  6.40000E-003	  4.77906E-001	  4.59319E-001	  4.53557E-001	  4.38635E-001
  7.20000E-003	  4.70636E-001	  4.76801E-001	  4.51022E-001	  4.51399E-001
  8.00000E-003	  4.89703E-001	  4.65883E-001	  4.32109E-001	  4.44298E-001
  8.80000E-003	  4.68235E-001	  4.47103E-001	  4.43820E-001	  4.37957E-001
  9.60000E-003	  4.78797E-001	  4.71699E-001	  4.58806E-001	  4.59602E-001
  1.04000E-002	  4.90937E-001	  4.71515E-001	  4.55314E-001	  4.65737E-001
  1.12000E-002	  4.75162E-001	  4.55690E-001	  4.48767E-001	  4.67529E-001
  1.20000E-002	  4.67618E-001	  4.59728E-001	  4.30799E-001	  4.46711E-001
  1.28000E-002	  4.72798E-001	  4.56724E-001	  4.37747E-001	  4.49551E-001
  1.44000E-002	  4.63002E-001	  4.63380E-001	  4.42875E-001	  4.52194E-001
  1.60000E-002	  4.62076E-001	  4.60139E-001	  4.26326E-001	  4.32203E-001
  1.76000E-002	  4.66157E-001	  4.54343E-001	  4.42682E-001	  4.38832E-001
  1.92000E-002	  4.50965E-001	  4.49987E-001	  4.33625E-001	  4.21484E-001
  2.08000E-002	  4.58749E-001	  4.50907E-001	  4.33589E-001	  4.31410E-001
  2.24000E-002	  4.51308E-001	  4.40469E-001	  4.17076E-001	  4.23242E-001
  2.40000E-002	  4.55148E-001	  4.40899E-001	  4.11995E-001	  4.22828E-001
  2.56000E-002	  4.51798E-001	  4.36270E-001	  4.05862E-001	  4.19179E-001
  2.88000E-002	  4.34473E-001	  4.39076E-001	  4.13300E-001	  4.17014E-001
  3.20000E-002	  4.28454E-001	  4.38432E-001	  4.07473E-001	  4.10449E-001
  3.52000E-002	  4.17034E-001	  4.26527E-001	  4.04618E-001	  4.05599E-001
  3.84000E-002	  4.19287E-001	  4.25321E-001	  3.96037E-001	  3.93053E-001
  4.16000E-002	  4.19464E-001	  4.17745E-001	  3.85627E-001	  3.91544E-001
  4.48000E-002	  4.11377E-001	  4.16902E-001	  3.88726E-001	  3.93859E-001
  4.80000E-002	  4.07039E-001	  4.00310E-001	  3.78286E-001	  3.88310E-001
  5.12000E-002	  3.90276E-001	  4.02392E-001	  3.73412E-001	  3.79272E-001
  5.76000E-002	  3.82352E-001	  3.86168E-001	  3.63536E-001	  3.62384E-001
  6.40000E-002	  3.83518E-001	  3.83684E-001	  3.59659E-001	  3.54153E-001
  7.04000E-002	  3.63738E-001	  3.67937E-001	  3.50266E-001	  3.46270E-001
  7.68000E-002	  3.55850E-001	  3.63352E-001	  3.38288E-001	  3.41971E-001
  8.32000E-002	  3.56167E-001	  3.56527E-001	  3.30403E-001	  3.29975E-001
  8.96000E-002	  3.37516E-001	  3.47351E-001	  3.17549E-001	  3.24032E-001
  9.60000E-002	  3.29186E-001	  3.38533E-001	  3.17139E-001	  3.15483E-001
  1.02400E-001	  3.20519E-001	  3.32048E-001	  3.06998E-001	  3.08973E-001
  1.15200E-001	  3.08612E-001	  3.17039E-001	  2.92977E-001	  2.96033E-001
  1.28000E-001	  2.95526E-001	  3.03122E-001	  2.76697E-001	  2.80921E-001
  1.40800E-001	  2.84057E-001	  2.90720E-001	  2.64214E-001	  2.64354E-001
  1.53600E-001	  2.70617E-001	  2.74036E-001	  2.56500E-001	  2.53973E-001
  1.66400E-001	  2.54236E-001	  2.68362E-001	  2.41548E-001	  2.42636E-001
  1.79200E-001	  2.44505E-001	  2.55139E-001	  2.31394E-001	  2.26353E-001
  1.92000E-001	  2.35821E-001	  2.43028E-001	  2.25458E-001	  2.17839E-001
  2.04800E-001	  2.25744E-001	  2.33978E-001	  2.12798E-001	  2.08979E-001
  2.30400E-001	  2.08468E-001	  2.19231E-001	  1.92779E-001	  1.92956E-001
  2.56000E-001	  1.92769E-001	  2.01161E-001	  1.77861E-001	  1.79401E-001
  2.81600E-001	  1.78821E-001	  1.86902E-001	  1.63539E-001	  1.62721E-001
  3.07200E-001	  1.65469E-001	  1.76219E-001	  1.53887E-001	  1.53359E-001
  3.32800E-001	  1.52789E-001	  1.61386E-001	  1.40368E-001	  1.40325E-001
  3.58400E-001	  1.38236E-001	  1.49233E-001	  1.29648E-001	  1.29766E-001
  3.84000E-001	  1.35302E-001	  1.35777E-001	  1.19263E-001	  1.21928E-001
  4.09600E-001	  1.23360E-001	  1.27116E-001	  1.13456E-001	  1.11097E-001
  4.60800E-001	  1.04142E-001	  1.11503E-001	  1.05226E-001	  9.46699E-002
  5.12000E-001	  9.21580E-002	  9.75104E-002	  9.33706E-002	  8.34753E-002
  5.63200E-001	  7.83124E-002	  8.62216E-002	  8.76386E-002	  7.04821E-002
  6.14400E-001	  6.92271E-002	  8.18692E-002	  8.02167E-002	  6.64752E-002
  6.65600E-001	  6.27815E-002	  7.20772E-002	  7.87911E-002	  6.41263E-002
  7.16800E-001	  5.84533E-002	  6.75142E-002	  7.39318E-002	  5.33372E-002
  7.68000E-001	  5.61008E-002	  6.35151E-002	  6.82463E-002	  4.33892E-002
  8.19200E-001	  5.12256E-002	  5.65541E-002	  6.53364E-002	  3.99565E-002
  9.21600E-001	  4.45218E-002	  5.38956E-002	  5.57556E-002	  2.92782E-002
  1.02400E+000	  4.25457E-002	  5.05770E-002	  4.65294E-002	  2.54009E-002
  1.12640E+000	  3.75481E-002	  4.51628E-002	  3.52796E-002	  2.41231E-002
  1.22880E+000	  3.21665E-002	  3.78538E-002	  2.67095E-002	  2.07721E-002
  1.33120E+000	  2.71296E-002	  3.45565E-002	  2.65437E-002	  2.30004E-002
  1.43360E+000	  2.02241E-002	  3.28225E-002	  2.22458E-002	  2.01384E-002
  1.53600E+000	  1.72627E-002	  2.70574E-002	  1.89401E-002	  1.74142E-002
  1.63840E+000	  1.98549E-002	  2.91525E-002	  2.07125E-002	  1.59780E-002
  1.84320E+000	  1.56283E-002	  2.92029E-002	  1.90703E-002	  9.08170E-003
  2.04800E+000	  7.67109E-003	  3.20719E-002	  1.70881E-002	  4.91755E-003
  2.25280E+000	  6.12409E-003	  2.27126E-002	  8.54639E-003	 -6.36227E-003
  2.45760E+000	  6.57117E-004	  9.34270E-003	  1.14017E-002	 -4.48032E-003
  2.66240E+000	 -4.18609E-003	 -1.20449E-003	  5.00611E-003	 -3.55041E-003
  2.86720E+000	 -4.64017E-003	  2.56588E-003	 -2.37698E-004	 -1.94436E-003
  3.07200E+000	 -8.17032E-003	  5.58509E-003	 -4.57040E-003	  1.68359E-003
  3.27680E+000	 -3.58334E-003	  1.15487E-002	 -8.66105E-003	  4.75306E-003
  3.68640E+000	 -2.93219E-003	  1.05481E-002	 -7.39352E-003	  1.18563E-002
  4.09600E+000	  9.46174E-005	  6.15757E-003	 -4.21060E-003	  1.61061E-002
  4.50560E+000	  2.33841E-004	  1.76540E-003	 -2.45958E-003	  1.03037E-002
  4.91520E+000	  1.73023E-003	 -1.04390E-003	 -4.56672E-003	  7.88999E-003
  5.32480E+000	  1.16226E-002	 -1.29976E-003	 -7.77936E-003	  3.25591E-003
  5.73440E+000	  9.19320E-003	 -1.31800E-002	 -7.10745E-003	  2.85112E-003
  6.14400E+000	  5.97082E-003	 -1.96249E-002	 -9.83581E-003	 -7.88121E-003
  6.55360E+000	  9.80376E-003	 -9.78354E-003	 -5.91051E-003	  2.77989E-003
  7.37280E+000	  6.20969E-003	 -3.56879E-003	 -2.86602E-003	 -7.12471E-003
  8.19200E+000	  1.21672E-004	 -7.56410E-003	 -1.69561E-002	 -2.20315E-002
  9.01120E+000	 -6.71406E-004	 -5.33898E-003	 -1.31525E-002	 -1.52455E-002
  9.83040E+000	 -3.13333E-003	 -3.10703E-003	 -8.73245E-003	 -2.59457E-003
  1.06496E+001	  2.90911E-004	  5.48448E-003	  1.09664E-003	 -8.95195E-003
  1.14688E+001	  1.20994E-002	  2.64655E-003	  4.43020E-003	 -1.12135E-002
  1.22880E+001	  4.29985E-003	 -9.05042E-003	 -1.04376E-003	 -1.09403E-002
  1.31072E+001	  7.36675E-003	 -7.47909E-003	 -2.66528E-003	 -1.13459E-003
  1.47456E+001	  1.62321E-002	  4.70759E-003	  7.66728E-003	 -3.18606E-003
  1.63840E+001	 -1.06057E-002	  6.32740E-004	  9.95735E-003	 -4.79030E-003
  1.80224E+001	 -8.34614E-003	  4.94042E-003	 -1.44121E-003	  1.23157E-003
  1.96608E+001	  7.82351E-003	  4.88728E-003	 -5.06219E-003	 -1.22708E-004
  2.12992E+001	  5.45788E-003	 -1.31196E-002	 -9.71344E-003	 -2.14786E-003
  2.29376E+001	 -2.36894E-003	 -1.37347E-002	 -3.66509E-003	 -3.49027E-003
  2.45760E+001	  5.28578E-003	 -5.53555E-003	 -3.12952E-003	 -6.16532E-003
  2.62144E+001	  9.28732E-003	  2.72077E-003	 -5.02824E-003	  1.31750E-003
  2.94912E+001	  7.78325E-003	  3.56228E-003	 -2.59556E-003	  8.25210E-005
  3.27680E+001	 -6.33087E-004	 -4.12794E-004	  8.94744E-003	  1.26679E-003
  3.60448E+001	 -7.34735E-003	 -5.12154E-003	 -1.82655E-003	 -2.58392E-003
  3.93216E+001	 -4.99141E-003	 -6.12201E-003	 -9.00803E-003	 -4.33795E-003
  4.25984E+001	 -4.46362E-003	 -2.97209E-003	 -6.56477E-003	 -7.68000E-003
  4.58752E+001	 -7.39393E-003	 -1.27506E-004	  5.98899E-003	 -6.46921E-003
  4.91520E+001	 -9.58438E-003	 -8.99037E-003	 -4.19017E-003	 -1.59226E-003
  5.24288E+001	 -5.93844E-003	 -5.33438E-003	 -6.08011E-003	 -9.84254E-004
  5.89824E+001	  5.83626E-004	 -4.77573E-003	  4.00529E-003	  1.79185E-003
  6.55360E+001	 -4.61888E-003	  2.82326E-003	 -3.72242E-003	  1.05734E-002
  7.20896E+001	 -9.74523E-003	 -4.16422E-003	 -1.31669E-003	 -9.37907E-003
  7.86432E+001	 -2.44085E-003	 -4.86291E-003	  2.61072E-003	  6.16787E-003
  8.51968E+001	 -1.07802E-002	 -7.15367E-003	 -3.17119E-004	  8.33192E-004
  9.17504E+001	 -5.19658E-003	  8.95953E-004	  6.49415E-004	 -7.83438E-005
  9.83040E+001	 -1.07396E-002	  5.52572E-003	 -1.22620E-003	 -6.72171E-003
  1.04858E+002	 -9.14806E-003	 -1.86284E-003	  3.33672E-003	 -7.86029E-005
  1.17965E+002	 -1.10933E-004	  1.28490E-003	 -2.61766E-003	  8.31014E-004
  1.31072E+002	  1.00876E-002	 -1.17376E-003	 -1.71587E-003	  8.55393E-004
  1.44179E+002	  7.23878E-003	  1.62422E-003	  3.42589E-003	  5.36454E-004
  1.57286E+002	 -2.00945E-003	 -1.05283E-003	 -1.07848E-003	 -4.88389E-003
  1.70394E+002	  4.26167E-003	  8.39281E-004	 -2.88930E-003	  1.32421E-003
  1.83501E+002	 -1.98470E-003	 -1.82955E-003	  4.21374E-004	 -7.13232E-003
  1.96608E+002	  5.13370E-004	  2.10359E-003	 -3.40783E-003	  8.70163E-003
  2.09715E+002	 -3.50123E-003	  1.63401E-003	  2.68168E-004	  8.78700E-004
  2.35930E+002	 -7.48957E-003	 -2.96008E-003	  2.93031E-003	 -8.87900E-005
  2.62144E+002	  5.26305E-003	  1.36241E-003	  9.17745E-004	  8.78968E-004
  2.88358E+002	  7.36088E-004	 -1.05032E-003	 -3.10479E-003	 -2.68582E-003
  3.14573E+002	 -2.67540E-003	  3.15639E-003	  3.61225E-003	  4.03310E-003
  3.40787E+002	 -4.61259E-004	  1.89774E-003	 -1.54121E-003	 -2.27460E-003
  3.67002E+002	 -2.27543E-003	 -1.67397E-003	 -4.89575E-003	 -1.03464E-003
  3.93216E+002	  7.02596E-003	  2.69027E-004	  3.62271E-004	  1.47769E-003

"Count Rate"
       0.01311	     130.99670	     162.04834	     134.42993	     149.30725
       0.02621	     145.49255	     109.10034	     134.81140	     134.20105
       0.03932	     126.19019	     130.76782	     129.54712	     106.50635
       0.05243	     146.25549	     124.66431	     125.19836	     167.84668
       0.06554	     124.81689	     154.26636	     107.42188	     121.15479
       0.07864	     141.22009	     135.26917	     111.84692	     156.40259
       0.09175	     155.02930	     139.61792	     131.91223	     126.11389
       0.10486	     162.04834	     114.13574	     142.82227	     145.72144
       0.11796	     151.13831	     156.25000	     126.80054	     135.19287
       0.13107	     130.69153	     134.81140	     118.86597	     135.57434
       0.14418	     127.79236	     155.56335	     108.94775	     145.18738
       0.15729	     115.73792	     130.61523	     147.24731	     147.24731
       0.17039	     134.58252	     177.99377	     142.21191	     163.49792
       0.18350	     145.64514	     155.18188	     149.61243	     168.68591
       0.19661	     124.05396	     116.80603	     119.01855	     129.85229
       0.20972	     149.53613	     153.50342	     178.90930	     106.43005
       0.22282	     154.11377	     192.33704	     123.29102	     160.36987
       0.23593	     172.27173	     154.64783	     136.03210	     119.70520
       0.24904	     112.38098	     154.64783	     111.31287	     152.58789
       0.26214	     133.05664	     118.40820	     161.20911	     151.74866
       0.27525	     112.60986	     117.34009	     109.32922	     130.92041
       0.28836	     142.66968	     141.14380	     112.83875	     110.47363
       0.30147	     127.79236	     134.27734	     134.42993	     126.34277
       0.31457	     135.26917	     203.85742	     171.81396	     111.99951
       0.32768	     121.00220	     115.73792	     179.59595	     123.90137
       0.34079	     148.39172	     138.62610	     114.51721	     115.73792
       0.35389	     174.56055	     131.07300	     113.14392	     172.19543
       0.36700	     132.44629	     155.94482	     131.98853	     128.25012
       0.38011	     125.65613	     124.81689	     104.14124	     158.61511
       0.39322	     112.45728	     132.37000	     135.26917	     102.76794
       0.40632	     119.70520	     153.88489	     163.04016	     139.00757
       0.41943	     133.43811	     135.11658	     157.01294	     139.08386
       0.43254	     142.05933	     141.37268	     182.72400	     144.57703
       0.44564	      97.96143	     125.80872	     144.57703	     123.67249
       0.45875	     121.61255	     129.77600	     132.75146	     132.14111
       0.47186	     151.90125	     150.52795	     125.35095	     127.63977
       0.48497	     225.67749	     199.43237	     116.57715	     203.17078
       0.49807	     140.53345	     146.63696	     142.66968	     139.84680
       0.51118	     142.44080	     162.27722	     138.16833	      96.43555
       0.52429	     127.86865	     150.22278	     116.95862	     122.45178
       0.53740	      95.59631	     116.88232	     102.61536	     109.10034
       0.55050	     109.93958	     123.67249	     104.29382	     177.68860
       0.56361	     148.46802	     135.95581	     115.66162	     111.08398
       0.57672	     138.62610	     155.10559	     177.99377	     164.48975
       0.58982	     114.28833	     121.07849	     115.96680	     132.75146
       0.60293	     143.05115	     182.49512	      96.51184	     141.37268
       0.61604	     173.95020	     163.11646	     161.36169	     141.14380
       0.62915	     169.60144	     182.95288	     118.25562	     140.30457
       0.64225	     159.60693	     154.19006	     143.89038	     156.32629
       0.65536	     176.92566	     123.74878	     153.73230	     117.87415
       0.66847	     132.14111	     140.68604	     121.15479	     130.92041
       0.68157	     159.68323	     129.31824	     128.78418	     143.35632
       0.69468	     122.37549	     133.05664	     117.56897	     158.15735
       0.70779	     121.91772	     131.91223	     147.17102	     119.70520
       0.72090	     108.41370	     157.31812	     136.10840	     139.08386
       0.73400	     131.75964	     148.23914	     134.12476	     117.72156
       0.74711	     126.34277	     124.20654	     131.75964	     176.16272
