ALV-7004/USB-FAST
Date :	"3/14/2024"
Time :	"12:33:22 PM"
Samplename : 	""
SampMemo(0) : 	""
SampMemo(1) : 	""
SampMemo(2) : 	""
SampMemo(3) : 	""
SampMemo(4) : 	""
SampMemo(5) : 	""
SampMemo(6) : 	""
SampMemo(7) : 	""
SampMemo(8) : 	""
SampMemo(9) : 	""
Temperature [K] :	     298.16000
Viscosity [cp]  :	       0.89000
Refractive Index:	       1.33200
Wavelength [nm] :	       0.00000
Angle [°]       :	       0.00000
Duration [s]    :	         1
FloatDur [ms]   :	          944
Stop TP [ms]   :	      3257
Runs            :	         1
Mode            :	"A-CH0+1  A-CH2+3 "
MeanCR0 [kHz]   :	     127.75951
MeanCR1 [kHz]   :	     123.32280
MeanCR2 [kHz]   :	     116.48284
MeanCR3 [kHz]   :	     122.06607

"Correlation"
  3.12500E-006	 -1.00000E+000	 -1.00000E+000	 -1.00000E+000	 -1.00000E+000
  6.25000E-006	 -1.00000E+000	 -1.00000E+000	 -1.00000E+000	 -1.00000E+000
  9.37500E-006	 -1.00000E+000	 -1.00000E+000	 -1.00000E+000	 -1.00000E+000
  1.25000E-005	 -1.00000E+000	 -1.00000E+000	 -1.00000E+000	 -1.00000E+000
  1.56250E-005	 -1.00000E+000	 -1.00000E+000	 -1.00000E+000	 -1.00000E+000
  1.87500E-005	 -1.00000E+000	 -1.00000E+000	 -1.00000E+000	 -1.00000E+000
  2.18750E-005	 -9.58452E-001	 -3.53425E-001	 -1.00324E-001	 -9.77243E-001
  2.50000E-005	  6.00085E+000	  6.00084E+000	  6.27238E+000	  1.09701E+001
  2.81250E-005	  1.78372E+000	  1.36334E+000	  1.54908E+000	  4.66648E+000
  3.12500E-005	  1.03586E+000	  9.39724E-001	  6.24415E-001	  2.59560E+000
  3.43750E-005	  9.94308E-001	  8.05950E-001	  8.74325E-001	  1.77635E+000
  3.75000E-005	  6.41150E-001	  9.84316E-001	  5.49442E-001	  1.93564E+000
  4.06250E-005	  5.37279E-001	  5.38402E-001	  4.24487E-001	  1.77635E+000
  4.37500E-005	  4.74957E-001	  4.71515E-001	  6.24415E-001	  1.36672E+000
  4.68750E-005	  6.41150E-001	  4.93811E-001	  7.24379E-001	  1.48051E+000
  5.00000E-005	  5.68440E-001	  3.82332E-001	  4.24487E-001	  1.36672E+000
  5.62500E-005	  6.82698E-001	  7.16767E-001	  4.24487E-001	  8.43312E-001
  6.25000E-005	  4.43796E-001	  5.16106E-001	  4.11991E-001	  7.97798E-001
  6.87500E-005	  6.09988E-001	  5.27254E-001	  2.74541E-001	  1.15053E+000
  7.50000E-005	  6.09988E-001	  6.05289E-001	  6.11919E-001	  8.43312E-001
  8.12500E-005	  4.33409E-001	  4.26924E-001	  4.49478E-001	  6.38499E-001
  8.75000E-005	  6.51536E-001	  6.16437E-001	  6.49406E-001	  8.09176E-001
  9.37500E-005	  4.43796E-001	  4.82663E-001	  4.74469E-001	  8.66069E-001
  1.00000E-004	  6.20375E-001	  6.05289E-001	  5.36946E-001	  7.01081E-001
  1.12500E-004	  5.52860E-001	  5.32828E-001	  5.05708E-001	  6.27121E-001
  1.25000E-004	  4.23022E-001	  5.10532E-001	  4.11991E-001	  4.96268E-001
  1.37500E-004	  5.16505E-001	  2.65280E-001	  4.36982E-001	  4.96268E-001
  1.50000E-004	  5.99601E-001	  4.99384E-001	  6.18167E-001	  5.01958E-001
  1.62500E-004	  3.76280E-001	  6.88898E-001	  4.86964E-001	  4.67822E-001
  1.75000E-004	  5.58053E-001	  4.38071E-001	  5.99424E-001	  4.96268E-001
  1.87500E-004	  4.95731E-001	  4.88236E-001	  4.99460E-001	  5.19025E-001
  2.00000E-004	  4.64570E-001	  5.55123E-001	  4.43230E-001	  5.21870E-001
  2.25000E-004	  4.80150E-001	  4.85449E-001	  4.99459E-001	  4.22308E-001
  2.50000E-004	  3.94457E-001	  4.71514E-001	  4.27610E-001	  4.36531E-001
  2.75000E-004	  5.03521E-001	  4.74301E-001	  5.18203E-001	  5.56005E-001
  3.00000E-004	  4.43796E-001	  5.18893E-001	  4.68221E-001	  5.87296E-001
  3.25000E-004	  3.32135E-001	  4.10201E-001	  6.18167E-001	  4.73511E-001
  3.50000E-004	  4.82747E-001	  4.82662E-001	  6.05671E-001	  4.53599E-001
  3.75000E-004	  4.54183E-001	  4.18562E-001	  4.33858E-001	  3.85328E-001
  4.00000E-004	  4.90537E-001	  4.42251E-001	  4.83839E-001	  4.25152E-001
  4.50000E-004	  4.98327E-001	  4.45038E-001	  4.55725E-001	  5.26136E-001
  5.00000E-004	  5.34681E-001	  3.97659E-001	  4.63534E-001	  4.59287E-001
  5.50000E-004	  5.11311E-001	  5.64877E-001	  4.55725E-001	  4.52176E-001
  6.00000E-004	  5.20399E-001	  5.55123E-001	  5.02583E-001	  4.27997E-001
  6.50000E-004	  3.77578E-001	  4.50612E-001	  5.07268E-001	  3.73949E-001
  7.00000E-004	  5.03520E-001	  5.46762E-001	  4.94773E-001	  4.84889E-001
  7.50000E-004	  4.48988E-001	  5.06351E-001	  4.91649E-001	  4.64977E-001
  8.00000E-004	  4.41197E-001	  4.65242E-001	  4.35418E-001	  4.82056E-001
  9.00000E-004	  4.91834E-001	  5.00079E-001	  4.25266E-001	  4.51464E-001
  1.00000E-003	  4.15229E-001	  4.26921E-001	  4.44009E-001	  4.65687E-001
  1.10000E-003	  4.49636E-001	  4.36676E-001	  5.43192E-001	  4.99111E-001
  1.20000E-003	  4.01597E-001	  4.42250E-001	  4.93210E-001	  5.21868E-001
  1.30000E-003	  4.16540E-001	  5.07743E-001	  4.93210E-001	  5.11912E-001
  1.40000E-003	  4.34068E-001	  4.72209E-001	  4.90867E-001	  5.08356E-001
  1.50000E-003	  4.69124E-001	  4.61758E-001	  4.34637E-001	  4.77776E-001
  1.60000E-003	  4.37011E-001	  4.63149E-001	  4.56892E-001	  4.93788E-001
  1.80000E-003	  4.45775E-001	  4.87883E-001	  4.62750E-001	  4.70675E-001
  2.00000E-003	  4.44476E-001	  5.09147E-001	  4.65483E-001	  5.14411E-001
  2.20000E-003	  4.27922E-001	  4.52711E-001	  5.04141E-001	  4.65341E-001
  2.40000E-003	  4.28896E-001	  4.96257E-001	  5.13122E-001	  4.59652E-001
  2.60000E-003	  4.45450E-001	  4.47485E-001	  4.79931E-001	  4.91997E-001
  2.80000E-003	  4.40257E-001	  4.83019E-001	  4.79540E-001	  4.94486E-001
  3.00000E-003	  3.66247E-001	  4.78839E-001	  5.27960E-001	  4.87374E-001
  3.20000E-003	  4.22921E-001	  4.51835E-001	  4.67040E-001	  4.71572E-001
  3.60000E-003	  4.31199E-001	  4.91375E-001	  5.00036E-001	  4.60561E-001
  4.00000E-003	  4.57492E-001	  4.66641E-001	  4.84807E-001	  4.42782E-001
  4.40000E-003	  4.36368E-001	  4.88588E-001	  4.53959E-001	  4.85630E-001
  4.80000E-003	  4.46431E-001	  4.86323E-001	  4.48882E-001	  4.59317E-001
  5.20000E-003	  4.73860E-001	  4.63157E-001	  4.49663E-001	  4.64295E-001
  5.60000E-003	  4.38328E-001	  4.75698E-001	  4.66064E-001	  4.33359E-001
  6.00000E-003	  4.50338E-001	  4.68557E-001	  4.71140E-001	  4.52370E-001
  6.40000E-003	  4.31480E-001	  4.84049E-001	  4.52010E-001	  4.68565E-001
  7.20000E-003	  4.23921E-001	  4.66631E-001	  4.68996E-001	  4.76477E-001
  8.00000E-003	  4.44209E-001	  4.71943E-001	  4.86079E-001	  4.66342E-001
  8.80000E-003	  4.28546E-001	  5.00509E-001	  4.65774E-001	  4.45173E-001
  9.60000E-003	  4.55084E-001	  4.58270E-001	  4.63627E-001	  4.82420E-001
  1.04000E-002	  4.36662E-001	  4.89971E-001	  4.40686E-001	  4.81886E-001
  1.12000E-002	  4.48173E-001	  4.53044E-001	  4.39221E-001	  4.78064E-001
  1.20000E-002	  4.40870E-001	  4.49909E-001	  4.37855E-001	  4.73086E-001
  1.28000E-002	  4.32453E-001	  4.50511E-001	  4.62120E-001	  4.62830E-001
  1.44000E-002	  4.33642E-001	  4.64969E-001	  4.60740E-001	  4.58976E-001
  1.60000E-002	  4.23225E-001	  4.68060E-001	  4.59618E-001	  4.52130E-001
  1.76000E-002	  4.31016E-001	  4.73112E-001	  4.41851E-001	  4.54886E-001
  1.92000E-002	  4.29810E-001	  4.48334E-001	  4.46634E-001	  4.49463E-001
  2.08000E-002	  4.24158E-001	  4.52309E-001	  4.39459E-001	  4.53165E-001
  2.24000E-002	  4.19637E-001	  4.51700E-001	  4.57909E-001	  4.33284E-001
  2.40000E-002	  4.16489E-001	  4.55183E-001	  4.39069E-001	  4.62976E-001
  2.56000E-002	  4.11458E-001	  4.48292E-001	  4.46146E-001	  4.55453E-001
  2.88000E-002	  4.21258E-001	  4.47769E-001	  4.50550E-001	  4.52785E-001
  3.20000E-002	  4.15017E-001	  4.39508E-001	  4.40130E-001	  4.44075E-001
  3.52000E-002	  4.11000E-001	  4.41368E-001	  4.33223E-001	  4.35992E-001
  3.84000E-002	  4.14072E-001	  4.36578E-001	  4.16725E-001	  4.44625E-001
  4.16000E-002	  4.07043E-001	  4.40466E-001	  4.15736E-001	  4.17722E-001
  4.48000E-002	  4.00700E-001	  4.32248E-001	  4.21618E-001	  4.32838E-001
  4.80000E-002	  4.04251E-001	  4.13992E-001	  4.15541E-001	  4.20379E-001
  5.12000E-002	  3.91458E-001	  4.21196E-001	  4.11380E-001	  4.19409E-001
  5.76000E-002	  3.82591E-001	  4.19366E-001	  4.02814E-001	  4.13151E-001
  6.40000E-002	  3.80323E-001	  4.11474E-001	  4.02717E-001	  4.09708E-001
  7.04000E-002	  3.76050E-001	  4.07563E-001	  3.96507E-001	  3.96349E-001
  7.68000E-002	  3.70295E-001	  3.97974E-001	  3.92321E-001	  3.97004E-001
  8.32000E-002	  3.66681E-001	  3.87120E-001	  3.83388E-001	  3.90660E-001
  8.96000E-002	  3.54534E-001	  3.84539E-001	  3.83010E-001	  3.83076E-001
  9.60000E-002	  3.55679E-001	  3.77865E-001	  3.70076E-001	  3.77834E-001
  1.02400E-001	  3.43330E-001	  3.75899E-001	  3.65853E-001	  3.72624E-001
  1.15200E-001	  3.27920E-001	  3.64070E-001	  3.60588E-001	  3.60732E-001
  1.28000E-001	  3.20044E-001	  3.51011E-001	  3.49814E-001	  3.50825E-001
  1.40800E-001	  3.14174E-001	  3.42607E-001	  3.32847E-001	  3.41056E-001
  1.53600E-001	  3.04493E-001	  3.37671E-001	  3.27112E-001	  3.29624E-001
  1.66400E-001	  2.94428E-001	  3.25739E-001	  3.12092E-001	  3.18607E-001
  1.79200E-001	  2.90479E-001	  3.16718E-001	  3.11207E-001	  3.11865E-001
  1.92000E-001	  2.78185E-001	  3.05875E-001	  2.98358E-001	  3.03255E-001
  2.04800E-001	  2.71518E-001	  2.98586E-001	  2.89847E-001	  2.94951E-001
  2.30400E-001	  2.55601E-001	  2.77471E-001	  2.72006E-001	  2.79942E-001
  2.56000E-001	  2.43669E-001	  2.62601E-001	  2.57308E-001	  2.70830E-001
  2.81600E-001	  2.28300E-001	  2.54515E-001	  2.46549E-001	  2.59777E-001
  3.07200E-001	  2.20478E-001	  2.43130E-001	  2.32652E-001	  2.46525E-001
  3.32800E-001	  2.06384E-001	  2.27890E-001	  2.24084E-001	  2.41404E-001
  3.58400E-001	  1.94655E-001	  2.22406E-001	  2.05787E-001	  2.22166E-001
  3.84000E-001	  1.86486E-001	  2.09843E-001	  1.96257E-001	  2.13200E-001
  4.09600E-001	  1.77514E-001	  2.00368E-001	  1.86807E-001	  2.05529E-001
  4.60800E-001	  1.61341E-001	  1.79353E-001	  1.65640E-001	  1.90326E-001
  5.12000E-001	  1.50717E-001	  1.62679E-001	  1.50234E-001	  1.75076E-001
  5.63200E-001	  1.40943E-001	  1.48230E-001	  1.33240E-001	  1.54670E-001
  6.14400E-001	  1.27400E-001	  1.32974E-001	  1.18447E-001	  1.46568E-001
  6.65600E-001	  1.19481E-001	  1.22327E-001	  1.08280E-001	  1.32948E-001
  7.16800E-001	  1.11630E-001	  1.13082E-001	  9.61927E-002	  1.26864E-001
  7.68000E-001	  1.01436E-001	  1.04421E-001	  8.59380E-002	  1.16810E-001
  8.19200E-001	  9.30262E-002	  9.62518E-002	  7.58631E-002	  1.08398E-001
  9.21600E-001	  7.91943E-002	  7.84449E-002	  5.99984E-002	  9.48523E-002
  1.02400E+000	  6.88904E-002	  6.28886E-002	  4.32933E-002	  8.02651E-002
  1.12640E+000	  5.96602E-002	  5.02978E-002	  3.72227E-002	  7.16460E-002
  1.22880E+000	  5.19218E-002	  4.36067E-002	  2.68124E-002	  6.66644E-002
  1.33120E+000	  4.31311E-002	  4.23282E-002	  2.00182E-002	  5.83283E-002
  1.43360E+000	  3.53754E-002	  3.46360E-002	  1.14665E-002	  5.58426E-002
  1.53600E+000	  3.25654E-002	  2.96315E-002	  6.65560E-003	  5.02821E-002
  1.63840E+000	  2.91908E-002	  2.81801E-002	  2.51957E-003	  4.60760E-002
  1.84320E+000	  1.93275E-002	  2.63091E-002	 -4.73385E-003	  3.87069E-002
  2.04800E+000	  1.08145E-002	  2.17724E-002	 -9.87776E-003	  2.84620E-002
  2.25280E+000	  1.05421E-002	  1.47838E-002	 -1.34359E-002	  1.80424E-002
  2.45760E+000	  6.59298E-003	  1.13251E-002	 -8.80997E-003	  1.75054E-002
  2.66240E+000	  1.02921E-002	  6.77118E-003	 -7.83286E-003	  1.57131E-002
  2.86720E+000	  4.03907E-003	  2.25621E-003	 -4.22154E-003	  1.79871E-002
  3.07200E+000	  2.60699E-003	 -5.56658E-005	 -1.69382E-003	  2.30518E-002
  3.27680E+000	  2.29753E-003	  2.44940E-003	 -8.54419E-005	  2.10304E-002
  3.68640E+000	  7.33553E-003	  4.95697E-003	 -3.83379E-003	  1.56612E-002
  4.09600E+000	  2.05592E-003	  3.58286E-003	 -3.32689E-003	  5.92296E-003
  4.50560E+000	 -3.60913E-004	 -1.10701E-002	 -2.29394E-003	 -4.46511E-004
  4.91520E+000	  1.77249E-005	 -9.65999E-003	 -2.40100E-003	 -2.21877E-003
  5.32480E+000	 -3.54357E-003	  3.20686E-004	  5.27348E-004	 -4.84366E-003
  5.73440E+000	 -3.68199E-003	 -2.85565E-003	  2.60506E-004	 -7.37791E-003
  6.14400E+000	 -6.53633E-004	 -8.43230E-003	 -5.67779E-004	 -9.98916E-003
  6.55360E+000	 -9.88467E-004	 -1.08751E-002	 -1.18134E-003	 -8.96323E-003
  7.37280E+000	 -9.42565E-003	 -2.70103E-003	  1.28586E-004	 -1.87399E-002
  8.19200E+000	 -8.20794E-003	 -1.64858E-002	  2.23210E-003	 -1.23469E-002
  9.01120E+000	 -7.80468E-003	 -1.17959E-002	  6.13389E-003	 -7.73657E-003
  9.83040E+000	 -4.82347E-003	 -1.40862E-002	  7.46051E-003	 -6.03719E-003
  1.06496E+001	 -3.99508E-003	 -6.83477E-003	 -6.72201E-003	 -2.17302E-003
  1.14688E+001	  3.56253E-003	 -1.71474E-002	 -5.73560E-003	 -4.86575E-003
  1.22880E+001	  1.03277E-002	 -8.80907E-003	  1.09084E-002	 -2.88303E-003
  1.31072E+001	  6.60883E-003	  7.24499E-005	  1.00736E-002	 -6.07124E-003
  1.47456E+001	  5.33296E-003	 -3.07709E-003	 -6.71787E-003	  6.79352E-003
  1.63840E+001	  1.73222E-004	 -6.21733E-004	 -1.23732E-002	  2.46081E-003
  1.80224E+001	  2.20200E-004	  1.24916E-002	 -1.14692E-002	  1.24657E-002
  1.96608E+001	  6.61528E-003	  3.14178E-003	 -7.56661E-003	  8.02991E-003
  2.12992E+001	 -9.79072E-003	 -2.17540E-003	 -5.84776E-003	  1.68973E-004
  2.29376E+001	 -1.53047E-002	 -3.51332E-003	  9.58909E-003	 -1.20282E-002
  2.45760E+001	  5.17609E-003	 -6.82928E-003	 -6.40787E-003	 -8.67991E-003
  2.62144E+001	  1.30065E-002	 -2.05158E-003	 -4.82851E-003	 -1.03372E-002
  2.94912E+001	  9.92832E-003	 -4.06220E-004	 -2.09377E-003	  2.73119E-003
  3.27680E+001	 -4.13984E-003	 -5.50490E-003	  6.39956E-003	  1.51836E-002
  3.60448E+001	 -1.04231E-003	  2.02482E-003	 -1.66234E-003	 -9.59567E-004
  3.93216E+001	  9.38188E-003	  1.40658E-002	  1.17127E-002	 -1.04460E-002
  4.25984E+001	  9.43790E-003	 -1.59556E-003	  5.85243E-003	 -6.69568E-003
  4.58752E+001	 -1.20909E-004	 -6.69556E-003	  7.73286E-004	  4.65852E-004
  4.91520E+001	 -4.01187E-003	 -8.28701E-003	 -6.09435E-003	 -6.96182E-004
  5.24288E+001	 -2.27520E-003	  8.27661E-003	 -6.25281E-003	  8.56595E-004
  5.89824E+001	  1.73906E-003	  4.83621E-003	 -6.26830E-003	  6.23249E-003
  6.55360E+001	 -1.81261E-003	 -7.87284E-003	 -4.69792E-003	  4.10356E-003
  7.20896E+001	 -8.25063E-003	  4.43869E-003	  3.84092E-003	 -1.46031E-003
  7.86432E+001	 -3.12904E-003	  9.68577E-003	  7.32018E-003	 -2.33448E-004
  8.51968E+001	 -3.76738E-003	 -7.60447E-003	 -3.16285E-003	  3.32119E-003
  9.17504E+001	 -5.51755E-003	 -8.79042E-003	 -1.58585E-003	  5.02125E-003
  9.83040E+001	  7.32779E-004	  3.48142E-003	 -1.21838E-003	  5.74055E-003
  1.04858E+002	 -6.32488E-003	  2.55596E-003	 -3.86919E-003	 -1.87828E-003
  1.17965E+002	  4.14644E-003	 -2.97260E-003	 -4.57207E-003	 -1.48633E-003
  1.31072E+002	 -7.02468E-003	 -5.41871E-003	  4.08407E-003	 -1.56189E-003
  1.44179E+002	  4.26272E-003	  5.26137E-003	 -4.75863E-003	 -1.26790E-003
  1.57286E+002	  8.09418E-003	  3.72595E-003	  1.61493E-004	  5.68462E-004
  1.70394E+002	  5.35150E-003	 -2.17670E-003	  5.30749E-003	 -1.45725E-004
  1.83501E+002	  8.38199E-004	 -9.98521E-004	 -2.35855E-003	 -2.61742E-003
  1.96608E+002	  3.00689E-003	 -2.37269E-003	 -1.33647E-003	 -1.16691E-003
  2.09715E+002	  5.38930E-003	 -3.96777E-003	 -3.25957E-004	  1.81953E-003
  2.35930E+002	 -2.40151E-003	 -2.24964E-003	  2.35655E-003	  6.47139E-003
  2.62144E+002	 -7.46373E-003	  6.71084E-003	 -5.79434E-004	 -2.31477E-003
  2.88358E+002	 -7.33936E-003	 -2.42985E-003	 -3.54417E-003	 -6.34722E-003
  3.14573E+002	  3.83191E-003	  4.45629E-003	 -1.37356E-004	 -3.96488E-003
  3.40787E+002	  3.59340E-003	 -6.29476E-003	  1.37955E-003	 -1.11621E-002
  3.67002E+002	  5.97724E-003	  1.16900E-003	  8.21937E-004	  4.72200E-004
  3.93216E+002	 -1.36995E-003	  3.94250E-003	  9.78490E-005	 -1.93389E-003

"Count Rate"
       0.01311	     114.51721	      99.18213	      98.95325	     126.34277
       0.02621	     122.83325	     136.64246	      96.96960	      95.52002
       0.03932	     103.14941	     133.97217	      88.88245	      96.35925
       0.05243	     111.61804	     107.19299	     113.06763	     135.72693
       0.06554	     161.20911	      83.38928	     152.51160	     124.58801
       0.07864	     104.82788	     135.04028	     115.73792	     132.44629
       0.09175	     143.35632	      98.03772	     111.92322	     101.47095
       0.10486	     145.79773	      84.07593	      88.65356	      84.76257
       0.11796	     120.92590	     122.45178	      93.15491	     112.22839
       0.13107	     144.42444	     108.71887	     128.25012	      95.06226
       0.14418	     122.98584	     115.05127	     144.27185	     108.87146
       0.15729	     157.54700	     140.45715	     122.29919	     106.35376
       0.17039	     112.38098	     108.87146	     135.11658	     112.07581
       0.18350	      90.63721	     123.82507	     163.19275	     139.46533
       0.19661	     142.05933	     115.73792	      94.68079	     101.39465
       0.20972	     108.18481	     113.29651	     109.10034	     114.05945
       0.22282	     104.06494	     131.07300	     125.35095	     140.99121
       0.23593	      96.13037	     171.58508	     103.07312	     149.68872
       0.24904	     121.30737	      69.27490	      92.08679	     109.71069
       0.26214	     152.20642	     100.86060	     151.67236	     141.37268
       0.27525	     135.65063	     135.26917	      93.15491	      98.11401
       0.28836	     139.61792	     113.98315	     106.96411	     106.73523
       0.30147	     132.90405	     100.25024	     130.23376	     134.88770
       0.31457	     167.69409	     117.03491	      95.13855	     127.71606
       0.32768	     118.86597	     153.88489	     126.95313	     132.14111
       0.34079	     112.22839	     109.32922	     164.79492	     154.03748
       0.35389	     138.39722	      96.89331	     113.98315	     132.52258
       0.36700	     148.16284	     161.36169	     118.71338	     112.15210
       0.38011	     139.23645	     145.79773	      91.01868	     117.72156
       0.39322	      89.72168	     104.90417	     127.79236	     124.74060
       0.40632	     125.19836	     102.99683	     106.73523	     118.48450
       0.41943	     142.59338	     122.98584	     126.34277	     117.03491
       0.43254	     126.41907	     108.18481	     147.32361	     204.23889
       0.44564	     155.56335	     123.90137	      86.51733	     119.62891
       0.45875	     143.58521	     104.06494	      81.55823	     143.05115
       0.47186	     164.41345	     128.93677	     111.92322	     139.16016
       0.48497	     115.28015	     129.24194	      98.41919	     116.72974
       0.49807	     146.25549	     120.01038	     123.06213	     117.64526
       0.51118	      93.46008	      82.47375	      88.72986	     120.39185
       0.52429	     157.01294	     106.73523	     120.08667	     103.45459
       0.53740	      76.14136	     112.99133	     115.58533	     123.29102
       0.55050	      87.96692	     129.62341	     108.94775	     143.05115
       0.56361	     121.45996	     105.74341	     115.20386	     153.04565
       0.57672	      92.39197	     100.55542	     146.10291	      85.06775
       0.58982	     136.48987	     163.11646	      92.46826	     107.57446
       0.60293	     136.48987	     152.35901	     124.43542	     119.78149
       0.61604	     158.99658	     149.15466	     133.05664	     193.32886
       0.62915	     109.32922	     147.85767	      80.26123	     120.54443
       0.64225	     142.82227	     147.24731	     127.56348	     101.62354
       0.65536	      91.47644	     113.60168	     118.02673	     104.67529
       0.66847	     120.01038	     139.84680	     127.48718	     144.80591
       0.68157	     140.07568	     130.23376	     132.44629	     142.74597
       0.69468	     139.23645	     103.75977	     124.96948	      94.07043
       0.70779	      93.91785	     151.51978	     125.19836	     198.21167
       0.72090	     110.32104	     109.10034	     100.86060	      84.99146
       0.73400	     102.61536	     124.20654	     129.39453	      90.56091
       0.74711	      99.02954	     126.34277	     124.43542	     105.51453
