ALV-7004/USB-FAST
Date :	"3/14/2024"
Time :	"12:31:35 PM"
Samplename : 	""
SampMemo(0) : 	""
SampMemo(1) : 	""
SampMemo(2) : 	""
SampMemo(3) : 	""
SampMemo(4) : 	""
SampMemo(5) : 	""
SampMemo(6) : 	""
SampMemo(7) : 	""
SampMemo(8) : 	""
SampMemo(9) : 	""
Temperature [K] :	     298.16000
Viscosity [cp]  :	       0.89000
Refractive Index:	       1.33200
Wavelength [nm] :	       0.00000
Angle [°]       :	       0.00000
Duration [s]    :	         1
FloatDur [ms]   :	          944
Stop TP [ms]   :	      3189
Runs            :	         1
Mode            :	"A-CH0+1  A-CH2+3 "
MeanCR0 [kHz]   :	     150.14119
MeanCR1 [kHz]   :	     152.42683
MeanCR2 [kHz]   :	     147.94031
MeanCR3 [kHz]   :	     145.34739

"Correlation"
  3.12500E-006	 -1.00000E+000	 -1.00000E+000	 -1.00000E+000	 -1.00000E+000
  6.25000E-006	 -1.00000E+000	 -1.00000E+000	 -1.00000E+000	 -1.00000E+000
  9.37500E-006	 -1.00000E+000	 -1.00000E+000	 -1.00000E+000	 -1.00000E+000
  1.25000E-005	 -1.00000E+000	 -1.00000E+000	 -1.00000E+000	 -1.00000E+000
  1.56250E-005	 -1.00000E+000	 -1.00000E+000	 -1.00000E+000	 -1.00000E+000
  1.87500E-005	 -1.00000E+000	 -1.00000E+000	 -1.00000E+000	 -1.00000E+000
  2.18750E-005	 -9.24790E-001	 -4.01632E-001	 -3.18310E-001	 -9.83949E-001
  2.50000E-005	  5.64860E+000	  4.98368E+000	  4.88733E+000	  9.52924E+000
  2.81250E-005	  1.40673E+000	  1.21834E+000	  1.49437E+000	  3.20527E+000
  3.12500E-005	  8.35134E-001	  8.53482E-001	  6.88733E-001	  2.24223E+000
  3.43750E-005	  6.09502E-001	  6.92944E-001	  6.73240E-001	  1.79282E+000
  3.75000E-005	  5.64376E-001	  4.88624E-001	  5.33803E-001	  1.39155E+000
  4.06250E-005	  4.89166E-001	  8.97265E-001	  6.26761E-001	  1.55206E+000
  4.37500E-005	  6.54629E-001	  6.78350E-001	  9.83099E-001	  1.19894E+000
  4.68750E-005	  5.64376E-001	  6.34567E-001	  9.67606E-001	  1.42365E+000
  5.00000E-005	  5.94460E-001	  7.80510E-001	  7.73944E-001	  1.11869E+000
  5.62500E-005	  4.81645E-001	  6.41864E-001	  6.57747E-001	  9.02004E-001
  6.25000E-005	  4.81645E-001	  6.56458E-001	  5.33803E-001	  7.25447E-001
  6.87500E-005	  6.47107E-001	  4.52138E-001	  4.64085E-001	  8.29776E-001
  7.50000E-005	  5.71897E-001	  6.63756E-001	  5.64789E-001	  6.37168E-001
  8.12500E-005	  6.24544E-001	  5.17812E-001	  5.64789E-001	  6.61244E-001
  8.75000E-005	  4.81645E-001	  5.68892E-001	  6.26761E-001	  8.13725E-001
  9.37500E-005	  2.93619E-001	  5.03218E-001	  5.64789E-001	  6.37168E-001
  1.00000E-004	  5.11729E-001	  5.43352E-001	  4.71831E-001	  6.45193E-001
  1.12500E-004	  4.21476E-001	  5.76189E-001	  5.06690E-001	  5.28826E-001
  1.25000E-004	  5.23010E-001	  4.66732E-001	  5.49296E-001	  6.45193E-001
  1.37500E-004	  4.44039E-001	  6.09027E-001	  4.83451E-001	  4.72649E-001
  1.50000E-004	  4.66602E-001	  3.86463E-001	  5.84155E-001	  6.53219E-001
  1.62500E-004	  4.13955E-001	  5.10515E-001	  5.33803E-001	  4.72649E-001
  1.75000E-004	  4.51560E-001	  5.54298E-001	  6.22887E-001	  5.68953E-001
  1.87500E-004	  5.56855E-001	  4.95921E-001	  5.26056E-001	  4.52585E-001
  2.00000E-004	  5.00447E-001	  4.90447E-001	  4.29225E-001	  4.34528E-001
  2.25000E-004	  4.85405E-001	  5.43352E-001	  4.85387E-001	  5.93028E-001
  2.50000E-004	  5.62495E-001	  4.63083E-001	  4.38908E-001	  5.16788E-001
  2.75000E-004	  4.12075E-001	  4.92272E-001	  3.88556E-001	  5.62933E-001
  3.00000E-004	  4.77884E-001	  4.68556E-001	  5.22183E-001	  4.42553E-001
  3.25000E-004	  4.98567E-001	  5.10515E-001	  5.27993E-001	  5.30832E-001
  3.50000E-004	  5.36172E-001	  4.50313E-001	  4.98943E-001	  5.42870E-001
  3.75000E-004	  5.49334E-001	  4.66732E-001	  5.02817E-001	  4.66629E-001
  4.00000E-004	  4.79763E-001	  4.89535E-001	  4.48591E-001	  4.91708E-001
  4.50000E-004	  5.14548E-001	  4.75852E-001	  4.86355E-001	  4.79670E-001
  5.00000E-004	  5.20189E-001	  5.34230E-001	  5.00879E-001	  5.18793E-001
  5.50000E-004	  4.44038E-001	  5.80749E-001	  4.45686E-001	  4.73651E-001
  6.00000E-004	  5.32411E-001	  4.83150E-001	  4.84418E-001	  4.97727E-001
  6.50000E-004	  5.41812E-001	  5.07777E-001	  4.92165E-001	  4.88698E-001
  7.00000E-004	  4.78823E-001	  4.76765E-001	  5.27992E-001	  5.20800E-001
  7.50000E-004	  4.32757E-001	  4.73116E-001	  5.08615E-001	  4.98730E-001
  8.00000E-004	  4.71301E-001	  5.09600E-001	  4.85869E-001	  5.34843E-001
  9.00000E-004	  5.19718E-001	  5.41526E-001	  4.51979E-001	  4.73650E-001
  1.00000E-003	  4.68951E-001	  5.09600E-001	  4.60209E-001	  4.55593E-001
  1.10000E-003	  4.87753E-001	  4.95918E-001	  4.74250E-001	  4.78665E-001
  1.20000E-003	  5.14077E-001	  4.84973E-001	  4.95552E-001	  4.84183E-001
  1.30000E-003	  4.71301E-001	  4.89533E-001	  4.48590E-001	  4.82176E-001
  1.40000E-003	  4.52498E-001	  4.99111E-001	  4.87806E-001	  5.19795E-001
  1.50000E-003	  4.88223E-001	  5.33772E-001	  4.97973E-001	  4.36532E-001
  1.60000E-003	  5.01382E-001	  4.87934E-001	  4.59491E-001	  4.59613E-001
  1.80000E-003	  4.67303E-001	  4.63307E-001	  4.89509E-001	  4.94474E-001
  2.00000E-003	  4.82580E-001	  5.10738E-001	  4.53439E-001	  4.87201E-001
  2.20000E-003	  4.71768E-001	  4.97284E-001	  4.83699E-001	  4.62121E-001
  2.40000E-003	  4.81875E-001	  4.79269E-001	  4.49324E-001	  5.06261E-001
  2.60000E-003	  5.03968E-001	  4.62623E-001	  4.60943E-001	  4.78172E-001
  2.80000E-003	  5.03968E-001	  4.70376E-001	  4.94350E-001	  4.79426E-001
  3.00000E-003	  4.89396E-001	  4.64219E-001	  4.49092E-001	  4.55851E-001
  3.20000E-003	  4.84936E-001	  4.66038E-001	  4.42713E-001	  4.63883E-001
  3.60000E-003	  4.62960E-001	  4.58855E-001	  4.66922E-001	  4.72033E-001
  4.00000E-003	  4.60022E-001	  4.75159E-001	  4.60628E-001	  4.79557E-001
  4.40000E-003	  4.76602E-001	  4.86561E-001	  4.62696E-001	  4.56348E-001
  4.80000E-003	  4.83418E-001	  4.85307E-001	  4.83626E-001	  4.84311E-001
  5.20000E-003	  4.68494E-001	  4.72195E-001	  4.72127E-001	  4.48699E-001
  5.60000E-003	  4.82478E-001	  4.95455E-001	  4.52881E-001	  4.92086E-001
  6.00000E-003	  4.83536E-001	  4.77440E-001	  4.67043E-001	  4.73026E-001
  6.40000E-003	  4.62687E-001	  4.64157E-001	  4.81419E-001	  4.78607E-001
  7.20000E-003	  4.75614E-001	  4.63530E-001	  4.59339E-001	  4.81752E-001
  8.00000E-003	  4.45118E-001	  4.66893E-001	  4.87906E-001	  4.53350E-001
  8.80000E-003	  4.43473E-001	  4.73678E-001	  4.55394E-001	  4.55419E-001
  9.60000E-003	  4.55871E-001	  4.71169E-001	  4.71856E-001	  4.74981E-001
  1.04000E-002	  4.53051E-001	  4.50874E-001	  4.63746E-001	  4.51720E-001
  1.12000E-002	  4.61982E-001	  4.62846E-001	  4.74327E-001	  4.61929E-001
  1.20000E-002	  4.57634E-001	  4.50703E-001	  4.65128E-001	  4.40371E-001
  1.28000E-002	  4.65078E-001	  4.47218E-001	  4.60492E-001	  4.33988E-001
  1.44000E-002	  4.47029E-001	  4.46096E-001	  4.52432E-001	  4.41240E-001
  1.60000E-002	  4.52554E-001	  4.53992E-001	  4.44665E-001	  4.35911E-001
  1.76000E-002	  4.35660E-001	  4.51711E-001	  4.50627E-001	  4.31177E-001
  1.92000E-002	  4.37129E-001	  4.38599E-001	  4.49669E-001	  4.25147E-001
  2.08000E-002	  4.39058E-001	  4.35549E-001	  4.43374E-001	  4.39109E-001
  2.24000E-002	  4.27845E-001	  4.26855E-001	  4.35889E-001	  4.10339E-001
  2.40000E-002	  4.26934E-001	  4.15909E-001	  4.16601E-001	  4.01394E-001
  2.56000E-002	  4.15170E-001	  4.17143E-001	  4.17653E-001	  4.08900E-001
  2.88000E-002	  4.10244E-001	  4.08952E-001	  4.09804E-001	  4.04610E-001
  3.20000E-002	  3.96288E-001	  4.06376E-001	  3.98444E-001	  3.91400E-001
  3.52000E-002	  3.86024E-001	  3.93136E-001	  3.99786E-001	  3.82502E-001
  3.84000E-002	  3.79893E-001	  3.87477E-001	  3.77350E-001	  3.77176E-001
  4.16000E-002	  3.68278E-001	  3.68479E-001	  3.82646E-001	  3.72729E-001
  4.48000E-002	  3.69477E-001	  3.65096E-001	  3.68699E-001	  3.56780E-001
  4.80000E-002	  3.57642E-001	  3.66578E-001	  3.63035E-001	  3.47766E-001
  5.12000E-002	  3.47935E-001	  3.48545E-001	  3.52029E-001	  3.41482E-001
  5.76000E-002	  3.42068E-001	  3.30005E-001	  3.42773E-001	  3.27968E-001
  6.40000E-002	  3.18056E-001	  3.21307E-001	  3.25490E-001	  3.06957E-001
  7.04000E-002	  3.10314E-001	  3.08030E-001	  3.09550E-001	  3.04001E-001
  7.68000E-002	  3.03520E-001	  2.92158E-001	  3.00357E-001	  2.87980E-001
  8.32000E-002	  2.85549E-001	  2.78329E-001	  2.85855E-001	  2.73514E-001
  8.96000E-002	  2.70448E-001	  2.67616E-001	  2.78101E-001	  2.65190E-001
  9.60000E-002	  2.61966E-001	  2.59547E-001	  2.62474E-001	  2.53443E-001
  1.02400E-001	  2.52827E-001	  2.48897E-001	  2.52233E-001	  2.41481E-001
  1.15200E-001	  2.31937E-001	  2.30238E-001	  2.27053E-001	  2.23329E-001
  1.28000E-001	  2.13879E-001	  2.15839E-001	  2.07412E-001	  2.05450E-001
  1.40800E-001	  1.99734E-001	  2.05465E-001	  1.96839E-001	  1.91250E-001
  1.53600E-001	  1.87033E-001	  1.88531E-001	  1.85120E-001	  1.74620E-001
  1.66400E-001	  1.74018E-001	  1.76581E-001	  1.68390E-001	  1.64344E-001
  1.79200E-001	  1.62350E-001	  1.65335E-001	  1.63259E-001	  1.52809E-001
  1.92000E-001	  1.51894E-001	  1.54467E-001	  1.51388E-001	  1.41619E-001
  2.04800E-001	  1.39752E-001	  1.46740E-001	  1.45321E-001	  1.33416E-001
  2.30400E-001	  1.22191E-001	  1.26386E-001	  1.28717E-001	  1.22784E-001
  2.56000E-001	  1.11337E-001	  1.15055E-001	  1.18404E-001	  1.04692E-001
  2.81600E-001	  9.75763E-002	  9.69907E-002	  1.03605E-001	  8.84177E-002
  3.07200E-001	  8.53554E-002	  8.92109E-002	  9.31399E-002	  7.87093E-002
  3.32800E-001	  7.91830E-002	  7.82090E-002	  8.20293E-002	  7.29966E-002
  3.58400E-001	  7.35637E-002	  7.10793E-002	  7.65717E-002	  6.18120E-002
  3.84000E-001	  6.93597E-002	  6.61478E-002	  6.85607E-002	  5.54705E-002
  4.09600E-001	  6.32556E-002	  6.10246E-002	  6.30267E-002	  4.97165E-002
  4.60800E-001	  5.60820E-002	  5.24301E-002	  5.17666E-002	  4.00933E-002
  5.12000E-001	  4.28579E-002	  4.56856E-002	  4.30245E-002	  3.13163E-002
  5.63200E-001	  3.44383E-002	  4.04584E-002	  3.37146E-002	  2.47291E-002
  6.14400E-001	  3.04505E-002	  3.67886E-002	  3.17494E-002	  2.12314E-002
  6.65600E-001	  2.51801E-002	  3.28745E-002	  3.02874E-002	  1.63357E-002
  7.16800E-001	  2.51014E-002	  2.60880E-002	  2.93731E-002	  1.40250E-002
  7.68000E-001	  2.13387E-002	  2.26503E-002	  2.65277E-002	  1.84595E-002
  8.19200E-001	  1.65380E-002	  2.00426E-002	  2.67974E-002	  1.57478E-002
  9.21600E-001	  1.05802E-002	  1.69204E-002	  2.05761E-002	  9.50962E-003
  1.02400E+000	  7.30105E-003	  1.01114E-002	  1.61071E-002	  6.17679E-003
  1.12640E+000	  3.40496E-003	  1.12936E-002	  1.55645E-002	  4.87504E-003
  1.22880E+000	  4.48918E-003	  1.49064E-002	  1.09946E-002	  2.49155E-003
  1.33120E+000	  1.16821E-002	  1.29202E-002	  1.03154E-003	  2.29425E-003
  1.43360E+000	  1.05870E-002	  1.25059E-002	 -2.83973E-003	  4.78157E-003
  1.53600E+000	  1.09300E-002	  8.19589E-003	  1.51926E-003	  1.12591E-002
  1.63840E+000	  5.29428E-003	  3.55385E-003	  5.07101E-003	  1.40276E-002
  1.84320E+000	  2.18627E-003	 -2.03849E-003	  7.37653E-003	  1.04137E-002
  2.04800E+000	 -1.46175E-003	 -5.36718E-003	  9.23242E-004	  2.46584E-003
  2.25280E+000	 -2.62670E-004	  4.12242E-004	 -3.80070E-003	  7.79107E-003
  2.45760E+000	  8.36664E-004	 -4.60996E-003	 -3.97279E-003	  7.11630E-003
  2.66240E+000	  6.85133E-004	  9.25375E-004	 -5.68230E-003	  1.75828E-003
  2.86720E+000	  2.97119E-004	  9.94724E-003	 -9.90079E-003	  9.67734E-003
  3.07200E+000	  9.19549E-004	  7.33443E-003	 -7.38947E-003	  8.44076E-003
  3.27680E+000	  5.34232E-003	  4.04582E-003	 -8.80230E-003	  7.07009E-003
  3.68640E+000	  1.11382E-002	  4.58614E-003	 -2.72599E-003	  1.79980E-003
  4.09600E+000	  6.63455E-003	  1.15230E-003	 -1.06121E-003	  3.55113E-003
  4.50560E+000	 -1.97331E-003	  4.86228E-005	 -4.38602E-003	 -6.26902E-003
  4.91520E+000	 -2.24494E-003	  3.99753E-003	  1.66344E-003	  6.02406E-003
  5.32480E+000	 -3.30505E-003	  1.01044E-003	 -2.20092E-004	 -1.94808E-003
  5.73440E+000	  1.26224E-003	 -1.02504E-003	 -8.07549E-003	  2.72338E-003
  6.14400E+000	 -1.01301E-002	 -4.40682E-003	 -3.43720E-003	 -6.21947E-003
  6.55360E+000	 -8.40572E-003	 -4.98259E-003	 -5.34706E-003	 -2.17129E-003
  7.37280E+000	 -4.11533E-003	  7.82951E-005	 -3.53807E-003	  1.01332E-003
  8.19200E+000	 -4.40039E-003	  3.86492E-003	  1.49727E-003	 -5.74613E-004
  9.01120E+000	 -6.24465E-003	  1.30564E-002	  6.52958E-003	  5.93816E-003
  9.83040E+000	 -7.04301E-003	  6.80115E-003	 -7.88343E-003	 -4.07153E-003
  1.06496E+001	  5.30699E-003	 -1.04477E-003	  6.15112E-004	 -3.34263E-003
  1.14688E+001	  1.95325E-003	 -1.75719E-003	  3.80772E-003	 -2.77137E-003
  1.22880E+001	  1.00004E-003	  2.18918E-003	  3.01668E-003	  1.92690E-003
  1.31072E+001	  5.39483E-003	  5.43291E-003	 -3.24252E-003	  1.16242E-003
  1.47456E+001	  4.31650E-003	 -3.44261E-003	 -5.85855E-004	  7.43312E-004
  1.63840E+001	  3.71797E-003	  3.16638E-003	  3.89645E-003	 -5.66277E-003
  1.80224E+001	 -2.92454E-003	  4.38660E-003	  5.51918E-003	 -2.12033E-003
  1.96608E+001	 -4.61103E-003	  6.54952E-003	  5.59844E-004	 -6.93949E-003
  2.12992E+001	 -7.07730E-004	 -1.35601E-003	 -1.50762E-003	 -7.00231E-003
  2.29376E+001	 -5.45714E-004	  7.49843E-003	  2.89241E-003	 -5.15033E-003
  2.45760E+001	 -7.08599E-003	  9.85995E-003	 -9.75353E-004	  1.94035E-003
  2.62144E+001	 -5.97399E-003	  6.77350E-003	  1.05307E-003	  1.87307E-003
  2.94912E+001	 -2.27739E-003	  4.64300E-003	 -1.06304E-003	 -1.21191E-003
  3.27680E+001	  1.30372E-003	  2.00948E-003	  7.11197E-004	 -2.85167E-003
  3.60448E+001	  1.40605E-003	 -7.94061E-004	 -2.97350E-003	 -3.42425E-003
  3.93216E+001	 -5.27519E-003	 -2.19558E-004	  1.00917E-003	  3.50549E-003
  4.25984E+001	 -5.52689E-006	  2.98239E-003	  8.90274E-003	 -7.11444E-003
  4.58752E+001	  4.59564E-003	 -6.21709E-003	  6.76915E-003	  5.04441E-003
  4.91520E+001	 -5.38831E-003	 -5.97352E-003	  1.47099E-003	  9.60969E-004
  5.24288E+001	 -1.11069E-003	  3.28545E-004	  2.33264E-003	  3.75573E-003
  5.89824E+001	  3.16276E-003	 -1.01008E-003	  3.30540E-003	 -2.77319E-003
  6.55360E+001	  1.75559E-003	 -5.53734E-003	  1.59522E-004	  9.50511E-004
  7.20896E+001	  6.84398E-004	 -3.90220E-003	 -6.31543E-004	 -1.14533E-003
  7.86432E+001	  5.08394E-003	 -4.70330E-003	  1.39272E-003	  3.70296E-003
  8.51968E+001	 -7.38296E-004	  1.14452E-003	  2.15196E-003	 -1.20591E-003
  9.17504E+001	 -2.42281E-003	 -1.71599E-003	 -9.82388E-004	 -1.13322E-003
  9.83040E+001	 -5.83973E-003	 -5.15331E-003	  2.05786E-004	 -3.19425E-003
  1.04858E+002	 -8.21413E-004	 -2.81549E-003	  6.97132E-004	 -7.74609E-004
  1.17965E+002	  8.54230E-004	  1.67996E-003	 -2.66720E-003	 -1.13755E-004
  1.31072E+002	  1.33934E-003	  1.53029E-003	 -1.13809E-003	  2.95069E-003
  1.44179E+002	 -1.84671E-003	  2.77926E-003	  4.72703E-004	 -3.12701E-004
  1.57286E+002	 -2.11570E-003	  3.05874E-003	  7.46760E-004	  2.63814E-003
  1.70394E+002	 -1.99754E-003	  4.54612E-003	 -3.32731E-004	  7.69512E-004
  1.83501E+002	  2.59470E-003	  7.91813E-004	 -2.29001E-003	  7.64969E-005
  1.96608E+002	 -2.10376E-003	  1.96680E-003	 -2.95446E-003	 -5.12299E-005
  2.09715E+002	 -4.56721E-005	  1.66895E-003	 -2.90743E-003	 -1.24479E-003
  2.35930E+002	 -1.14792E-003	 -2.69841E-003	  3.20361E-004	 -2.47618E-003
  2.62144E+002	 -1.12544E-004	 -2.46205E-003	 -5.71637E-004	 -1.02257E-003
  2.88358E+002	 -3.14814E-004	  7.34074E-004	 -8.56307E-004	  9.71393E-004
  3.14573E+002	 -5.41812E-004	 -4.09043E-004	  5.75474E-004	 -1.17169E-003
  3.40787E+002	 -6.19483E-004	  1.05575E-004	 -9.70910E-006	  2.83904E-003
  3.67002E+002	 -1.03259E-003	  2.26769E-004	  1.37042E-003	 -2.95471E-003
  3.93216E+002	  3.24223E-004	 -7.50067E-004	  3.05940E-003	  8.70429E-004

"Count Rate"
       0.01311	     136.71875	     159.14917	     152.89307	     147.62878
       0.02621	     151.13831	     162.12463	     162.42981	     162.35352
       0.03932	     134.81140	     145.87402	     161.97205	     143.28003
       0.05243	     175.47607	     157.69958	     130.61523	     128.70789
       0.06554	     166.85486	     166.62598	     186.46240	     121.61255
       0.07864	     153.04565	     123.29102	     181.88477	     128.32642
       0.09175	     145.79773	     161.74316	     158.61511	     170.44067
       0.10486	     138.39722	     121.00220	     179.06189	     140.53345
       0.11796	     155.48706	     184.24988	     124.51172	     150.22278
       0.13107	     152.96936	     148.54431	     156.02112	     139.08386
       0.14418	     133.36182	     171.66138	     153.73230	     148.39172
       0.15729	     129.01306	     144.04297	     163.72681	     120.92590
       0.17039	     128.25012	     171.27991	     133.13293	     163.95569
       0.18350	     133.89587	     161.28540	     139.16016	     141.98303
       0.19661	     165.86304	     157.31812	     147.93396	     180.96924
       0.20972	     146.63696	     143.05115	     149.84131	     127.71606
       0.22282	     122.75696	     152.81677	     134.42993	     144.19556
       0.23593	     157.39441	     147.78137	     155.33447	     143.66150
       0.24904	     164.87122	     160.06470	     145.11108	     134.04846
       0.26214	     130.38635	     151.36719	     124.28284	     133.20923
       0.27525	     129.39453	     160.82764	     133.51440	     147.62878
       0.28836	     134.20105	     145.03479	     158.15735	     148.08655
       0.30147	     154.41895	     182.95288	     154.11377	     158.08105
       0.31457	     161.89575	     161.89575	     156.17371	     115.66162
       0.32768	     169.29626	     131.60706	     116.80603	     194.70215
       0.34079	     156.93665	     165.10010	     141.83044	     144.57703
       0.35389	     139.16016	     115.50903	     144.19556	     132.44629
       0.36700	     153.42712	     132.59888	     183.71582	     110.39734
       0.38011	     182.11365	     132.67517	     151.13831	     156.17371
       0.39322	     123.29102	     140.83862	     163.65051	     134.65881
       0.40632	     166.39709	     125.73242	     139.46533	     147.09473
       0.41943	     126.64795	     179.29077	     163.11646	     139.23645
       0.43254	     139.31274	     144.19556	     127.63977	     121.68884
       0.44564	     144.72961	     164.03198	     148.39172	     158.61511
       0.45875	     140.60974	     171.05103	     168.76221	     170.28809
       0.47186	     137.48169	     154.41895	     146.63696	     134.96399
       0.48497	     131.07300	     145.49255	     136.79504	     147.85767
       0.49807	     130.46265	     123.44360	     140.60974	     158.15735
       0.51118	     137.78687	     147.47620	     146.40808	     123.44360
       0.52429	     163.95569	     107.72705	     136.10840	     134.73511
       0.53740	     143.35632	     126.41907	     133.36182	     129.62341
       0.55050	     136.26099	     121.38367	     153.12195	     139.23645
       0.56361	     153.73230	     130.53894	     146.02661	     128.63159
       0.57672	     117.18750	     157.92847	     111.99951	     135.87952
       0.58982	     147.01843	     184.24988	     125.35095	     114.97498
       0.60293	     158.69141	     183.33435	     151.36719	     154.49524
       0.61604	     132.29370	     160.90393	     145.56885	     129.08936
       0.62915	     142.66968	     149.84131	     126.57166	     167.69409
       0.64225	     180.96924	     127.48718	     139.84680	     123.29102
       0.65536	     116.11938	     129.62341	     147.55249	     146.40808
       0.66847	     136.10840	     125.88501	     122.90955	     171.81396
       0.68157	     154.41895	     165.63416	     134.42993	     134.20105
       0.69468	     145.87402	     122.90955	     132.44629	     119.85779
       0.70779	     146.71326	     158.99658	     138.77869	     109.32922
       0.72090	     149.76501	     120.92590	     133.59070	     136.10840
       0.73400	     118.02673	     134.65881	     148.39172	     148.92578
       0.74711	     166.24451	     133.51440	     136.03210	     160.21729
