ALV-7004/USB-FAST
Date :	"3/14/2024"
Time :	"12:33:11 PM"
Samplename : 	""
SampMemo(0) : 	""
SampMemo(1) : 	""
SampMemo(2) : 	""
SampMemo(3) : 	""
SampMemo(4) : 	""
SampMemo(5) : 	""
SampMemo(6) : 	""
SampMemo(7) : 	""
SampMemo(8) : 	""
SampMemo(9) : 	""
Temperature [K] :	     298.16000
Viscosity [cp]  :	       0.89000
Refractive Index:	       1.33200
Wavelength [nm] :	       0.00000
Angle [°]       :	       0.00000
Duration [s]    :	         1
FloatDur [ms]   :	          944
Stop TP [ms]   :	      3233
Runs            :	         1
Mode            :	"A-CH0+1  A-CH2+3 "
MeanCR0 [kHz]   :	     129.45387
MeanCR1 [kHz]   :	     128.90392
MeanCR2 [kHz]   :	     121.34128
MeanCR3 [kHz]   :	     123.26770

"Correlation"
  3.12500E-006	 -1.00000E+000	 -1.00000E+000	 -1.00000E+000	 -1.00000E+000
  6.25000E-006	 -1.00000E+000	 -1.00000E+000	 -1.00000E+000	 -1.00000E+000
  9.37500E-006	 -1.00000E+000	 -1.00000E+000	 -1.00000E+000	 -1.00000E+000
  1.25000E-005	 -1.00000E+000	 -1.00000E+000	 -1.00000E+000	 -1.00000E+000
  1.56250E-005	 -1.00000E+000	 -1.00000E+000	 -1.00000E+000	 -1.00000E+000
  1.87500E-005	 -1.00000E+000	 -1.00000E+000	 -1.00000E+000	 -1.00000E+000
  2.18750E-005	 -9.19065E-001	 -5.10236E-001	 -2.86076E-001	 -9.55369E-001
  2.50000E-005	  6.38534E+000	  5.69344E+000	  6.16227E+000	  1.11843E+001
  2.81250E-005	  1.58993E+000	  1.26516E+000	  1.25692E+000	  4.22185E+000
  3.12500E-005	  1.00315E+000	  8.97834E-001	  8.42385E-001	  2.90523E+000
  3.43750E-005	  4.56834E-001	  6.12139E-001	  1.07268E+000	  2.45892E+000
  3.75000E-005	  8.81743E-001	  2.04002E-001	  3.58759E-001	  2.05724E+000
  4.06250E-005	  7.40107E-001	  3.46850E-001	  4.04818E-001	  1.90103E+000
  4.37500E-005	  6.18704E-001	  5.71325E-001	  4.96938E-001	  1.38777E+000
  4.68750E-005	  3.15197E-001	  4.69291E-001	  4.96938E-001	  1.61093E+000
  5.00000E-005	  6.08587E-001	  4.59087E-001	  7.61780E-001	  1.49935E+000
  5.62500E-005	  6.99639E-001	  6.73359E-001	  5.19967E-001	  8.18723E-001
  6.25000E-005	  5.78236E-001	  4.79494E-001	  4.96938E-001	  9.74932E-001
  6.87500E-005	  4.66950E-001	  4.79494E-001	  7.84810E-001	  8.96827E-001
  7.50000E-005	  5.58003E-001	  3.87664E-001	  5.08453E-001	  8.74512E-001
  8.12500E-005	  4.36600E-001	  3.36646E-001	  5.42997E-001	  8.18723E-001
  8.75000E-005	  5.27652E-001	  3.26443E-001	  5.77542E-001	  4.05884E-001
  9.37500E-005	  2.64612E-001	  3.26443E-001	  6.35117E-001	  8.85670E-001
  1.00000E-004	  5.58002E-001	  4.18274E-001	  5.14210E-001	  6.34619E-001
  1.12500E-004	  4.36600E-001	  5.05003E-001	  4.56635E-001	  5.84409E-001
  1.25000E-004	  4.51775E-001	  5.15206E-001	  6.06329E-001	  5.00725E-001
  1.37500E-004	  5.22593E-001	  5.25409E-001	  6.35116E-001	  5.67672E-001
  1.50000E-004	  4.61892E-001	  4.53986E-001	  4.68150E-001	  4.95146E-001
  1.62500E-004	  6.94580E-001	  5.10104E-001	  3.47244E-001	  3.27779E-001
  1.75000E-004	  5.07418E-001	  3.82562E-001	  4.79665E-001	  4.28199E-001
  1.87500E-004	  4.72009E-001	  4.94799E-001	  5.54512E-001	  4.39357E-001
  2.00000E-004	  5.83294E-001	  5.02451E-001	  4.42241E-001	  4.83988E-001
  2.25000E-004	  5.02359E-001	  4.94799E-001	  5.45875E-001	  4.75620E-001
  2.50000E-004	  4.06249E-001	  4.64189E-001	  4.27848E-001	  5.23040E-001
  2.75000E-004	  5.20064E-001	  4.76943E-001	  4.13454E-001	  3.72410E-001
  3.00000E-004	  4.26482E-001	  5.43265E-001	  5.05573E-001	  4.70041E-001
  3.25000E-004	  5.75707E-001	  6.17240E-001	  4.96937E-001	  4.86778E-001
  3.50000E-004	  4.72008E-001	  4.05519E-001	  5.25724E-001	  4.17041E-001
  3.75000E-004	  4.89713E-001	  5.40714E-001	  5.34361E-001	  5.42567E-001
  4.00000E-004	  5.63060E-001	  5.08828E-001	  5.63147E-001	  5.17461E-001
  4.50000E-004	  5.69383E-001	  5.15205E-001	  4.49438E-001	  4.64461E-001
  5.00000E-004	  4.92242E-001	  4.61637E-001	  5.02694E-001	  4.01699E-001
  5.50000E-004	  5.56737E-001	  5.19031E-001	  5.27163E-001	  4.26816E-001
  6.00000E-004	  4.84654E-001	  4.78218E-001	  4.71028E-001	  4.07290E-001
  6.50000E-004	  4.82125E-001	  4.13183E-001	  4.82543E-001	  4.26816E-001
  7.00000E-004	  5.22592E-001	  3.85123E-001	  4.69589E-001	  4.81211E-001
  7.50000E-004	  4.70743E-001	  4.55272E-001	  5.08451E-001	  4.96553E-001
  8.00000E-004	  4.86550E-001	  4.44430E-001	  5.21404E-001	  4.95854E-001
  9.00000E-004	  4.95402E-001	  4.10631E-001	  4.75345E-001	  4.21236E-001
  1.00000E-003	  5.19429E-001	  4.75040E-001	  4.73906E-001	  4.54012E-001
  1.10000E-003	  4.91608E-001	  4.83330E-001	  4.37202E-001	  4.43552E-001
  1.20000E-003	  4.41024E-001	  5.03737E-001	  4.43679E-001	  4.05894E-001
  1.30000E-003	  5.19429E-001	  4.48256E-001	  4.77504E-001	  4.42157E-001
  1.40000E-003	  5.16268E-001	  4.46980E-001	  3.96180E-001	  4.73538E-001
  1.50000E-003	  5.08680E-001	  4.49531E-001	  5.16367E-001	  4.30302E-001
  1.60000E-003	  5.14368E-001	  4.68979E-001	  4.76075E-001	  4.19490E-001
  1.80000E-003	  5.14052E-001	  4.43789E-001	  4.82192E-001	  4.26812E-001
  2.00000E-003	  4.74849E-001	  4.75038E-001	  4.78954E-001	  4.23326E-001
  2.20000E-003	  5.21324E-001	  5.03097E-001	  4.81473E-001	  4.41806E-001
  2.40000E-003	  5.13420E-001	  4.60689E-001	  5.12779E-001	  4.61681E-001
  2.60000E-003	  5.27331E-001	  4.70255E-001	  4.82192E-001	  4.34135E-001
  2.80000E-003	  5.08045E-001	  4.23383E-001	  4.99465E-001	  4.33089E-001
  3.00000E-003	  5.04568E-001	  4.62921E-001	  4.62761E-001	  4.14957E-001
  3.20000E-003	  5.13415E-001	  4.61983E-001	  4.62229E-001	  4.24192E-001
  3.60000E-003	  5.24164E-001	  4.56722E-001	  4.85259E-001	  4.39360E-001
  4.00000E-003	  4.88281E-001	  4.44446E-001	  4.88677E-001	  4.53146E-001
  4.40000E-003	  5.10728E-001	  4.42055E-001	  4.66174E-001	  4.38501E-001
  4.80000E-003	  5.03298E-001	  4.52577E-001	  4.63655E-001	  4.50182E-001
  5.20000E-003	  4.92707E-001	  4.57838E-001	  4.67614E-001	  4.46869E-001
  5.60000E-003	  4.83222E-001	  4.59126E-001	  4.60417E-001	  4.25599E-001
  6.00000E-003	  4.85764E-001	  4.54821E-001	  4.86685E-001	  4.44428E-001
  6.40000E-003	  4.93682E-001	  4.54847E-001	  4.93808E-001	  4.41891E-001
  7.20000E-003	  4.76701E-001	  4.30055E-001	  4.53865E-001	  4.35353E-001
  8.00000E-003	  4.91323E-001	  4.49574E-001	  4.68169E-001	  4.03710E-001
  8.80000E-003	  4.92509E-001	  4.40805E-001	  4.72217E-001	  4.32476E-001
  9.60000E-003	  4.70852E-001	  4.44233E-001	  4.73297E-001	  4.33174E-001
  1.04000E-002	  4.89268E-001	  4.28688E-001	  4.52606E-001	  4.33609E-001
  1.12000E-002	  4.82957E-001	  4.48139E-001	  4.72025E-001	  4.28653E-001
  1.20000E-002	  4.96552E-001	  4.26137E-001	  4.75893E-001	  4.04780E-001
  1.28000E-002	  4.76738E-001	  4.38230E-001	  4.56531E-001	  4.21629E-001
  1.44000E-002	  4.63379E-001	  4.31482E-001	  4.57115E-001	  4.15059E-001
  1.60000E-002	  4.69703E-001	  4.24228E-001	  4.53099E-001	  4.20595E-001
  1.76000E-002	  4.72773E-001	  4.41487E-001	  4.50580E-001	  4.13994E-001
  1.92000E-002	  4.70375E-001	  4.34511E-001	  4.46127E-001	  4.20445E-001
  2.08000E-002	  4.68794E-001	  4.25344E-001	  4.36231E-001	  4.25632E-001
  2.24000E-002	  4.66857E-001	  4.43400E-001	  4.29259E-001	  4.03109E-001
  2.40000E-002	  4.60613E-001	  4.33196E-001	  4.37388E-001	  3.96409E-001
  2.56000E-002	  4.60029E-001	  4.16435E-001	  4.39297E-001	  4.07987E-001
  2.88000E-002	  4.46895E-001	  4.13378E-001	  4.30569E-001	  3.98224E-001
  3.20000E-002	  4.55025E-001	  4.10488E-001	  4.26573E-001	  3.91402E-001
  3.52000E-002	  4.48017E-001	  3.99407E-001	  4.15179E-001	  3.84472E-001
  3.84000E-002	  4.39370E-001	  3.96250E-001	  4.17304E-001	  3.82859E-001
  4.16000E-002	  4.28857E-001	  3.73498E-001	  4.02401E-001	  3.83099E-001
  4.48000E-002	  4.32845E-001	  3.79318E-001	  3.98982E-001	  3.67277E-001
  4.80000E-002	  4.16206E-001	  3.79047E-001	  3.96733E-001	  3.66374E-001
  5.12000E-002	  4.09668E-001	  3.76597E-001	  3.86845E-001	  3.60312E-001
  5.76000E-002	  4.02160E-001	  3.58251E-001	  3.73141E-001	  3.45853E-001
  6.40000E-002	  3.89342E-001	  3.45745E-001	  3.60403E-001	  3.42380E-001
  7.04000E-002	  3.85913E-001	  3.40243E-001	  3.46418E-001	  3.29925E-001
  7.68000E-002	  3.75205E-001	  3.26451E-001	  3.36338E-001	  3.19551E-001
  8.32000E-002	  3.58502E-001	  3.16636E-001	  3.29272E-001	  3.07347E-001
  8.96000E-002	  3.52921E-001	  3.11096E-001	  3.24840E-001	  3.08796E-001
  9.60000E-002	  3.48748E-001	  2.99167E-001	  3.18405E-001	  2.96144E-001
  1.02400E-001	  3.35162E-001	  2.91528E-001	  3.08416E-001	  2.85107E-001
  1.15200E-001	  3.21569E-001	  2.71954E-001	  2.89780E-001	  2.65526E-001
  1.28000E-001	  3.01929E-001	  2.60749E-001	  2.78701E-001	  2.53907E-001
  1.40800E-001	  2.84248E-001	  2.48143E-001	  2.66622E-001	  2.42315E-001
  1.53600E-001	  2.76130E-001	  2.36774E-001	  2.53386E-001	  2.26940E-001
  1.66400E-001	  2.64652E-001	  2.23037E-001	  2.39819E-001	  2.12590E-001
  1.79200E-001	  2.48523E-001	  2.12588E-001	  2.25026E-001	  2.03238E-001
  1.92000E-001	  2.37499E-001	  2.01775E-001	  2.17862E-001	  1.96899E-001
  2.04800E-001	  2.31181E-001	  1.94100E-001	  2.08738E-001	  1.89156E-001
  2.30400E-001	  2.10351E-001	  1.76181E-001	  1.93081E-001	  1.69009E-001
  2.56000E-001	  1.99118E-001	  1.61741E-001	  1.77983E-001	  1.57500E-001
  2.81600E-001	  1.83066E-001	  1.46661E-001	  1.63648E-001	  1.48465E-001
  3.07200E-001	  1.65273E-001	  1.31622E-001	  1.52124E-001	  1.33600E-001
  3.32800E-001	  1.54510E-001	  1.20350E-001	  1.43018E-001	  1.27354E-001
  3.58400E-001	  1.39506E-001	  1.13805E-001	  1.29307E-001	  1.15555E-001
  3.84000E-001	  1.29380E-001	  1.04922E-001	  1.25196E-001	  1.11356E-001
  4.09600E-001	  1.21561E-001	  1.03370E-001	  1.16628E-001	  1.03677E-001
  4.60800E-001	  1.03251E-001	  9.10461E-002	  9.78610E-002	  8.45769E-002
  5.12000E-001	  8.98497E-002	  7.93367E-002	  8.37468E-002	  6.54059E-002
  5.63200E-001	  7.30943E-002	  6.71914E-002	  7.47291E-002	  5.58215E-002
  6.14400E-001	  6.55429E-002	  5.85219E-002	  6.72077E-002	  4.44415E-002
  6.65600E-001	  6.10614E-002	  5.46709E-002	  6.72775E-002	  3.76508E-002
  7.16800E-001	  5.63267E-002	  4.82291E-002	  5.67023E-002	  2.97917E-002
  7.68000E-001	  5.44062E-002	  4.45548E-002	  5.00597E-002	  2.36907E-002
  8.19200E-001	  4.91150E-002	  3.92239E-002	  4.54907E-002	  1.66529E-002
  9.21600E-001	  3.94421E-002	  3.13472E-002	  3.13532E-002	  1.19325E-002
  1.02400E+000	  3.19389E-002	  2.57369E-002	  2.36635E-002	  6.39199E-003
  1.12640E+000	  2.97852E-002	  2.36201E-002	  2.25215E-002	  9.77550E-004
  1.22880E+000	  2.72478E-002	  1.79775E-002	  2.35152E-002	  2.30622E-004
  1.33120E+000	  2.49512E-002	  1.68471E-002	  2.09403E-002	  2.04977E-003
  1.43360E+000	  2.29208E-002	  1.76571E-002	  2.43268E-002	 -5.50273E-004
  1.53600E+000	  2.23483E-002	  1.79485E-002	  2.83635E-002	  7.32636E-004
  1.63840E+000	  1.95148E-002	  1.05413E-002	  2.38157E-002	  3.37202E-003
  1.84320E+000	  9.21633E-003	  3.24082E-003	  1.56140E-002	  4.69622E-003
  2.04800E+000	  9.18462E-004	 -1.73024E-003	  1.14287E-002	 -3.36851E-003
  2.25280E+000	 -2.84061E-003	  2.44236E-003	  1.19378E-002	 -1.02171E-002
  2.45760E+000	 -5.68421E-003	  1.99430E-003	  1.76355E-002	 -9.79361E-003
  2.66240E+000	 -2.42247E-003	 -6.21474E-003	  1.54371E-002	  5.75759E-005
  2.86720E+000	 -4.69515E-004	 -4.26170E-003	  8.46952E-003	  6.93289E-003
  3.07200E+000	 -2.31077E-003	 -2.19898E-004	  2.52277E-003	  9.05459E-003
  3.27680E+000	 -7.89275E-004	 -5.59443E-004	  4.44530E-003	  1.16503E-002
  3.68640E+000	 -1.34508E-004	  9.99486E-003	  1.05791E-002	  7.62792E-003
  4.09600E+000	 -3.89724E-003	  1.20054E-002	  1.40692E-002	  5.99272E-003
  4.50560E+000	  9.51851E-004	  2.47602E-003	  7.17429E-003	  3.84671E-003
  4.91520E+000	  1.57030E-004	  1.64956E-003	  6.65018E-003	  1.58314E-003
  5.32480E+000	  3.28423E-003	 -7.33861E-003	 -1.16183E-003	 -1.89320E-003
  5.73440E+000	 -5.64555E-003	 -1.00026E-003	 -1.28990E-003	  1.04607E-002
  6.14400E+000	 -9.62886E-003	  4.45350E-003	  1.56973E-003	  8.47708E-003
  6.55360E+000	 -2.97567E-003	 -3.90640E-003	  3.75447E-003	 -3.03271E-003
  7.37280E+000	 -1.20875E-002	  2.01234E-003	  5.30357E-003	 -4.10354E-003
  8.19200E+000	  5.93023E-003	  3.64572E-003	  2.52630E-003	  2.78319E-003
  9.01120E+000	 -1.04930E-003	 -5.78237E-003	  1.45412E-002	  1.58929E-003
  9.83040E+000	 -1.54700E-003	 -6.48343E-003	  2.16704E-002	  9.96884E-003
  1.06496E+001	 -5.14872E-003	  2.85450E-003	  9.91474E-003	  4.71083E-003
  1.14688E+001	 -3.25795E-003	  5.17447E-004	  9.13889E-003	 -1.02997E-004
  1.22880E+001	 -3.58562E-003	 -1.10000E-003	  2.40161E-003	 -1.29228E-002
  1.31072E+001	 -4.13800E-003	 -5.67144E-003	  4.19745E-003	 -1.25447E-002
  1.47456E+001	 -1.78120E-003	 -4.80899E-003	  1.84935E-003	  7.39348E-003
  1.63840E+001	 -4.58815E-003	  7.06037E-003	 -5.40778E-003	  1.34085E-003
  1.80224E+001	 -7.32543E-003	 -2.82289E-003	  2.27414E-004	 -1.02084E-002
  1.96608E+001	  5.70743E-003	 -2.40841E-003	 -4.79890E-003	 -3.00644E-003
  2.12992E+001	 -3.26384E-003	 -2.78087E-003	  4.88047E-003	 -1.25608E-002
  2.29376E+001	 -7.85256E-003	  1.04525E-002	 -7.98762E-004	 -7.71786E-003
  2.45760E+001	 -6.35262E-003	  1.25045E-003	  3.61716E-003	  3.42304E-003
  2.62144E+001	 -2.87851E-003	  3.40621E-003	 -3.03104E-003	 -3.16285E-003
  2.94912E+001	 -7.29676E-003	 -2.26368E-003	  4.56163E-003	  5.65452E-004
  3.27680E+001	  3.69807E-003	 -1.70746E-003	  2.98101E-003	  7.32680E-003
  3.60448E+001	  5.43521E-003	 -4.21293E-003	 -5.42539E-003	  5.54197E-003
  3.93216E+001	  1.02499E-003	 -1.98029E-003	 -1.07864E-003	  9.90468E-004
  4.25984E+001	 -2.91712E-003	  8.91327E-003	  1.07468E-003	  1.82688E-003
  4.58752E+001	 -5.04715E-003	  4.90631E-003	 -5.62405E-003	 -6.03605E-003
  4.91520E+001	  5.33571E-004	 -1.65730E-003	 -3.22284E-003	  3.01773E-003
  5.24288E+001	 -6.80713E-003	  3.87783E-004	 -2.24362E-003	  2.62947E-004
  5.89824E+001	 -8.74539E-004	 -9.29850E-003	 -2.50060E-003	 -3.49081E-003
  6.55360E+001	  6.74275E-003	 -1.85886E-004	  1.77905E-003	  1.44168E-003
  7.20896E+001	 -8.58744E-004	  1.80868E-003	 -8.19166E-003	  3.72990E-004
  7.86432E+001	 -1.88203E-003	 -3.05472E-003	 -2.21680E-003	  5.52440E-003
  8.51968E+001	 -4.55456E-003	 -1.51178E-003	 -1.07317E-003	  1.07420E-003
  9.17504E+001	 -1.03945E-002	  2.28891E-003	 -2.70928E-003	 -1.46565E-003
  9.83040E+001	 -7.11241E-004	  2.19133E-003	 -1.07021E-002	 -7.17749E-003
  1.04858E+002	  4.75568E-003	  1.45115E-003	 -8.89443E-003	 -1.52118E-003
  1.17965E+002	  1.80413E-003	  2.85147E-004	 -2.38650E-003	  3.26889E-003
  1.31072E+002	  6.27685E-004	  2.70798E-003	  8.18269E-003	 -1.54586E-003
  1.44179E+002	  1.80500E-003	  3.74983E-003	  6.63930E-003	  1.27765E-003
  1.57286E+002	 -2.48394E-003	  1.94099E-003	  1.35356E-003	  1.14833E-003
  1.70394E+002	 -1.75433E-003	 -1.94317E-003	 -4.11677E-003	 -1.76465E-003
  1.83501E+002	 -1.00948E-003	 -4.64347E-003	 -8.22317E-003	  9.85215E-004
  1.96608E+002	 -6.22715E-004	 -3.68288E-003	 -2.71902E-003	  1.92029E-003
  2.09715E+002	 -8.66055E-004	 -6.54589E-004	 -3.27337E-003	  8.33848E-004
  2.35930E+002	  3.95609E-004	  2.33404E-003	 -2.74173E-003	  1.10947E-004
  2.62144E+002	  3.94561E-003	  2.60027E-003	  3.40424E-004	 -1.86723E-003
  2.88358E+002	 -2.20166E-003	  9.53905E-005	  1.08225E-002	  3.08940E-003
  3.14573E+002	  3.68460E-003	 -5.33640E-003	  1.22723E-003	 -3.57739E-003
  3.40787E+002	 -2.69164E-003	 -4.55716E-003	 -1.72050E-003	  1.04098E-004
  3.67002E+002	  4.41407E-003	 -1.71091E-003	 -2.51433E-003	  3.45312E-003
  3.93216E+002	 -3.01886E-003	 -2.26677E-003	 -4.49654E-003	 -3.34668E-003

"Count Rate"
       0.01311	      96.81702	     151.59607	     116.72974	     147.85767
       0.02621	     153.42712	     137.55798	     117.41638	     168.22815
       0.03932	     101.47095	     122.83325	     110.62622	     144.88220
       0.05243	     147.01843	     113.22021	     148.84949	      93.38379
       0.06554	     123.67249	     108.56628	     105.05676	     119.17114
       0.07864	     129.92859	     125.04578	      94.52820	     126.49536
       0.09175	     130.53894	     121.84143	     102.53906	     115.66162
       0.10486	     142.74597	     170.66956	     121.00220	     125.80872
       0.11796	     107.87964	     105.51453	     147.93396	     130.69153
       0.13107	     119.01855	     106.65894	     100.09766	     125.27466
       0.14418	     129.47083	     136.71875	     112.38098	     166.47339
       0.15729	     144.65332	     115.43274	     117.26379	     135.42175
       0.17039	     140.07568	     133.51440	     136.33728	     126.57166
       0.18350	     127.48718	     118.10303	     149.68872	     123.13843
       0.19661	     101.39465	     132.67517	      96.96960	     114.59351
       0.20972	     152.74048	     153.12195	     126.19019	     128.40271
       0.22282	     126.11389	     117.95044	      97.50366	     129.77600
       0.23593	     139.31274	     108.48999	     117.64526	     131.68335
       0.24904	     141.98303	     115.28015	     135.26917	     106.04858
       0.26214	     128.25012	     136.94763	     119.17114	      97.65625
       0.27525	     107.11670	     101.77612	      89.11133	     100.70801
       0.28836	     137.55798	     114.36462	     101.54724	     157.62329
       0.30147	     111.31287	     143.66150	     107.87964	     127.86865
       0.31457	     135.72693	     125.50354	     123.59619	     123.82507
       0.32768	     143.58521	     119.24744	     104.44641	     102.31018
       0.34079	     130.15747	     126.26648	     120.39185	     122.68066
       0.35389	     166.70227	     193.93921	      85.52551	     115.50903
       0.36700	     129.62341	     141.52527	      93.07861	     137.71057
       0.38011	     109.48181	     115.05127	     126.72424	     109.10034
       0.39322	     114.89868	     147.01843	     123.82507	     109.40552
       0.40632	     116.11938	     121.61255	     118.17932	     142.44080
       0.41943	     112.45728	     118.94226	     124.51172	     126.03760
       0.43254	      99.79248	     153.27454	     120.01038	     109.10034
       0.44564	     109.48181	     136.94763	     149.07837	     129.77600
       0.45875	     148.39172	     137.10022	     193.63403	      98.87695
       0.47186	     153.04565	     157.47070	     149.84131	     120.39185
       0.48497	     148.69690	     119.17114	     117.79785	     113.83057
       0.49807	     111.23657	     155.18188	     108.48999	     114.21204
       0.51118	     127.63977	     121.53625	     125.50354	     102.53906
       0.52429	     152.81677	     122.75696	      75.30212	     158.38623
       0.53740	     129.01306	     106.96411	     112.53357	     102.92053
       0.55050	     105.97229	      86.59363	     132.21741	     102.76794
       0.56361	     108.79517	     141.60156	     108.26111	     137.63428
       0.57672	     144.57703	     125.42725	     127.41089	     110.47363
       0.58982	     171.43250	     155.71594	     133.89587	     121.53625
       0.60293	     109.32922	     152.13013	     145.26367	     121.53625
       0.61604	     150.90942	     114.97498	     122.14661	     105.20935
       0.62915	     123.21472	     150.90942	     104.21753	     112.30469
       0.64225	     113.75427	     117.79785	     126.95313	     141.90674
       0.65536	     136.26099	     121.61255	      86.28845	     119.24744
       0.66847	     112.30469	     107.49817	     101.77612	     135.26917
       0.68157	     129.16565	     121.68884	     107.49817	      91.85791
       0.69468	     125.12207	     120.77332	     130.15747	     126.26648
       0.70779	      96.13037	     124.20654	     139.31274	     111.46545
       0.72090	     144.88220	     138.39722	     116.80603	     122.68066
       0.73400	     131.75964	     119.09485	     137.63428	     100.17395
       0.74711	      83.84705	     119.01855	     112.30469	     126.19019
