ALV-7004/USB-FAST
Date :	"3/14/2024"
Time :	"12:37:19 PM"
Samplename : 	""
SampMemo(0) : 	""
SampMemo(1) : 	""
SampMemo(2) : 	""
SampMemo(3) : 	""
SampMemo(4) : 	""
SampMemo(5) : 	""
SampMemo(6) : 	""
SampMemo(7) : 	""
SampMemo(8) : 	""
SampMemo(9) : 	""
Temperature [K] :	     298.16000
Viscosity [cp]  :	       0.89000
Refractive Index:	       1.33200
Wavelength [nm] :	       0.00000
Angle [°]       :	       0.00000
Duration [s]    :	         1
FloatDur [ms]   :	          944
Stop TP [ms]   :	      4071
Runs            :	         1
Mode            :	"A-CH0+1  A-CH2+3 "
MeanCR0 [kHz]   :	     141.09188
MeanCR1 [kHz]   :	     143.05963
MeanCR2 [kHz]   :	     138.52225
MeanCR3 [kHz]   :	     130.74663

"Correlation"
  3.12500E-006	 -1.00000E+000	 -1.00000E+000	 -1.00000E+000	 -1.00000E+000
  6.25000E-006	 -1.00000E+000	 -1.00000E+000	 -1.00000E+000	 -1.00000E+000
  9.37500E-006	 -1.00000E+000	 -1.00000E+000	 -1.00000E+000	 -1.00000E+000
  1.25000E-005	 -1.00000E+000	 -1.00000E+000	 -1.00000E+000	 -1.00000E+000
  1.56250E-005	 -1.00000E+000	 -1.00000E+000	 -1.00000E+000	 -1.00000E+000
  1.87500E-005	 -1.00000E+000	 -1.00000E+000	 -1.00000E+000	 -1.00000E+000
  2.18750E-005	 -9.65933E-001	 -5.19524E-001	 -2.04792E-001	 -9.80164E-001
  2.50000E-005	  4.91062E+000	  5.13021E+000	  5.67975E+000	  1.04848E+001
  2.81250E-005	  1.57206E+000	  1.10415E+000	  1.29727E+000	  4.23661E+000
  3.12500E-005	  9.24784E-001	  7.06517E-001	  9.61514E-001	  2.88779E+000
  3.43750E-005	  6.01148E-001	  8.88766E-001	  5.90417E-001	  1.87617E+000
  3.75000E-005	  1.04402E+000	  5.73972E-001	  5.72745E-001	  1.49929E+000
  4.06250E-005	  4.98947E-001	  7.39653E-001	  7.84801E-001	  1.83650E+000
  4.37500E-005	  4.47846E-001	  5.40836E-001	  4.49046E-001	  1.26126E+000
  4.68750E-005	  3.45645E-001	  6.89949E-001	  1.06754E+000	  1.04307E+000
  5.00000E-005	  3.88229E-001	  7.06517E-001	  6.78773E-001	  1.16209E+000
  5.62500E-005	  7.71482E-001	  4.24859E-001	  5.81581E-001	  1.11250E+000
  6.25000E-005	  5.92631E-001	  5.73972E-001	  9.88021E-001	  9.14141E-001
  6.87500E-005	  8.14066E-001	  5.90540E-001	  5.99252E-001	  8.14962E-001
  7.50000E-005	  5.41530E-001	  6.40244E-001	  4.57882E-001	  6.56277E-001
  8.12500E-005	  4.22296E-001	  5.57404E-001	  4.84389E-001	  6.66195E-001
  8.75000E-005	  5.58564E-001	  5.32552E-001	  4.66718E-001	  1.04307E+000
  9.37500E-005	  5.92631E-001	  5.65688E-001	  7.31787E-001	  7.35620E-001
  1.00000E-004	  5.96889E-001	  5.40835E-001	  5.94834E-001	  6.41400E-001
  1.12500E-004	  5.07463E-001	  4.53853E-001	  5.94834E-001	  6.90989E-001
  1.25000E-004	  4.43588E-001	  6.27818E-001	  5.15314E-001	  6.31482E-001
  1.37500E-004	  5.54305E-001	  5.03557E-001	  4.75553E-001	  4.72797E-001
  1.50000E-004	  5.58564E-001	  6.11250E-001	  5.19731E-001	  5.52140E-001
  1.62500E-004	  4.73396E-001	  5.32551E-001	  5.32985E-001	  4.13290E-001
  1.75000E-004	  3.92487E-001	  4.08290E-001	  4.88807E-001	  5.07509E-001
  1.87500E-004	  4.22296E-001	  5.40835E-001	  6.52266E-001	  4.67838E-001
  2.00000E-004	  4.96817E-001	  4.64208E-001	  5.52865E-001	  4.57920E-001
  2.25000E-004	  5.01075E-001	  4.64208E-001	  4.79971E-001	  4.60400E-001
  2.50000E-004	  4.26554E-001	  4.72492E-001	  4.04868E-001	  4.05851E-001
  2.75000E-004	  4.45717E-001	  5.11841E-001	  4.84388E-001	  5.17427E-001
  3.00000E-004	  4.92559E-001	  4.41426E-001	  4.11494E-001	  4.95112E-001
  3.25000E-004	  4.45717E-001	  6.48528E-001	  5.46238E-001	  5.27345E-001
  3.50000E-004	  4.73396E-001	  4.93202E-001	  4.86597E-001	  4.13290E-001
  3.75000E-004	  4.92559E-001	  5.32551E-001	  4.82180E-001	  5.34783E-001
  4.00000E-004	  4.95752E-001	  5.32550E-001	  6.00356E-001	  5.06269E-001
  4.50000E-004	  4.57426E-001	  4.16574E-001	  5.07581E-001	  5.32303E-001
  5.00000E-004	  4.49974E-001	  5.08734E-001	  5.37402E-001	  5.16187E-001
  5.50000E-004	  5.19173E-001	  5.05627E-001	  4.64508E-001	  5.09988E-001
  6.00000E-004	  4.55297E-001	  4.86988E-001	  4.82179E-001	  4.70317E-001
  6.50000E-004	  4.60620E-001	  5.07698E-001	  4.88806E-001	  4.81474E-001
  7.00000E-004	  4.46780E-001	  5.44976E-001	  4.40210E-001	  4.26926E-001
  7.50000E-004	  4.54233E-001	  4.71455E-001	  4.99850E-001	  4.49241E-001
  8.00000E-004	  4.74991E-001	  4.08817E-001	  5.16416E-001	  4.71555E-001
  9.00000E-004	  3.95147E-001	  4.70947E-001	  4.45731E-001	  4.90771E-001
  1.00000E-003	  4.61151E-001	  5.18063E-001	  4.97088E-001	  4.78374E-001
  1.10000E-003	  4.54764E-001	  4.62663E-001	  5.13655E-001	  5.09987E-001
  1.20000E-003	  4.41989E-001	  4.98906E-001	  4.74999E-001	  4.52959E-001
  1.30000E-003	  4.68071E-001	  4.60592E-001	  5.04267E-001	  4.52339E-001
  1.40000E-003	  5.03735E-001	  4.58521E-001	  4.57327E-001	  4.84572E-001
  1.50000E-003	  4.86701E-001	  5.32043E-001	  5.28012E-001	  4.74654E-001
  1.60000E-003	  4.82718E-001	  4.82605E-001	  5.10339E-001	  4.77763E-001
  1.80000E-003	  4.63289E-001	  4.91925E-001	  4.92944E-001	  4.52969E-001
  2.00000E-003	  4.65950E-001	  4.81052E-001	  4.63676E-001	  4.21975E-001
  2.20000E-003	  4.61692E-001	  4.46103E-001	  4.86593E-001	  5.04418E-001
  2.40000E-003	  4.46788E-001	  4.52565E-001	  4.98466E-001	  4.43361E-001
  2.60000E-003	  4.63023E-001	  4.64732E-001	  5.02331E-001	  4.80243E-001
  2.80000E-003	  4.53974E-001	  4.85183E-001	  4.75007E-001	  4.99149E-001
  3.00000E-003	  4.50248E-001	  4.47128E-001	  5.10626E-001	  4.88301E-001
  3.20000E-003	  4.76736E-001	  4.80659E-001	  4.91581E-001	  4.90633E-001
  3.60000E-003	  4.52250E-001	  4.50370E-001	  4.58723E-001	  4.56683E-001
  4.00000E-003	  4.67154E-001	  4.92567E-001	  5.00140E-001	  4.55133E-001
  4.40000E-003	  4.56641E-001	  4.82083E-001	  4.78189E-001	  4.61952E-001
  4.80000E-003	  4.71668E-001	  4.70951E-001	  4.86335E-001	  4.50639E-001
  5.20000E-003	  4.59159E-001	  4.61761E-001	  4.93652E-001	  4.55443E-001
  5.60000E-003	  4.55033E-001	  4.48288E-001	  4.72805E-001	  4.49399E-001
  6.00000E-003	  4.56763E-001	  4.70810E-001	  4.96965E-001	  4.26929E-001
  6.40000E-003	  4.64261E-001	  4.64954E-001	  4.91375E-001	  4.60791E-001
  7.20000E-003	  4.46239E-001	  4.68255E-001	  4.52799E-001	  4.61799E-001
  8.00000E-003	  4.45175E-001	  4.71103E-001	  4.70401E-001	  4.49169E-001
  8.80000E-003	  4.44642E-001	  4.49810E-001	  4.65569E-001	  4.80329E-001
  9.60000E-003	  4.59148E-001	  4.45344E-001	  4.57079E-001	  4.75990E-001
  1.04000E-002	  4.38121E-001	  4.65742E-001	  4.66121E-001	  4.48859E-001
  1.12000E-002	  4.37179E-001	  4.73379E-001	  4.44239E-001	  4.58467E-001
  1.20000E-002	  4.39841E-001	  4.59000E-001	  4.61704E-001	  4.67300E-001
  1.28000E-002	  4.34696E-001	  4.48646E-001	  4.60958E-001	  4.58804E-001
  1.44000E-002	  4.41406E-001	  4.47924E-001	  4.49982E-001	  4.37031E-001
  1.60000E-002	  4.33321E-001	  4.47557E-001	  4.55815E-001	  4.35404E-001
  1.76000E-002	  4.38612E-001	  4.59628E-001	  4.43907E-001	  4.44547E-001
  1.92000E-002	  4.32191E-001	  4.42412E-001	  4.45046E-001	  4.19946E-001
  2.08000E-002	  4.35385E-001	  4.36101E-001	  4.50453E-001	  4.31375E-001
  2.24000E-002	  4.30372E-001	  4.40761E-001	  4.33495E-001	  4.23095E-001
  2.40000E-002	  4.30394E-001	  4.27299E-001	  4.38189E-001	  4.24723E-001
  2.56000E-002	  4.22139E-001	  4.27631E-001	  4.37303E-001	  4.17256E-001
  2.88000E-002	  4.17425E-001	  4.26936E-001	  4.29910E-001	  4.19872E-001
  3.20000E-002	  4.00440E-001	  4.18738E-001	  4.10944E-001	  4.13975E-001
  3.52000E-002	  3.95289E-001	  4.11424E-001	  4.27149E-001	  3.98513E-001
  3.84000E-002	  3.91130E-001	  4.11101E-001	  4.07948E-001	  3.94201E-001
  4.16000E-002	  3.89489E-001	  4.00126E-001	  4.11140E-001	  3.92128E-001
  4.48000E-002	  3.85782E-001	  3.88929E-001	  3.97248E-001	  3.83616E-001
  4.80000E-002	  3.69845E-001	  3.83379E-001	  3.94515E-001	  3.91810E-001
  5.12000E-002	  3.73173E-001	  3.83731E-001	  3.89895E-001	  3.75785E-001
  5.76000E-002	  3.60604E-001	  3.66743E-001	  3.78241E-001	  3.55368E-001
  6.40000E-002	  3.47523E-001	  3.57768E-001	  3.68846E-001	  3.45711E-001
  7.04000E-002	  3.41975E-001	  3.48765E-001	  3.56058E-001	  3.36413E-001
  7.68000E-002	  3.28213E-001	  3.44431E-001	  3.47738E-001	  3.29932E-001
  8.32000E-002	  3.17411E-001	  3.31220E-001	  3.36565E-001	  3.10852E-001
  8.96000E-002	  3.12934E-001	  3.22979E-001	  3.31849E-001	  3.04517E-001
  9.60000E-002	  2.95162E-001	  3.14934E-001	  3.14616E-001	  2.95976E-001
  1.02400E-001	  2.90066E-001	  3.02719E-001	  3.08552E-001	  2.89084E-001
  1.15200E-001	  2.75712E-001	  2.84365E-001	  2.97807E-001	  2.72570E-001
  1.28000E-001	  2.61266E-001	  2.68801E-001	  2.74419E-001	  2.56683E-001
  1.40800E-001	  2.49784E-001	  2.55339E-001	  2.65049E-001	  2.39646E-001
  1.53600E-001	  2.33153E-001	  2.43287E-001	  2.51466E-001	  2.25402E-001
  1.66400E-001	  2.23538E-001	  2.32135E-001	  2.35567E-001	  2.13706E-001
  1.79200E-001	  2.09464E-001	  2.17511E-001	  2.27641E-001	  2.01223E-001
  1.92000E-001	  2.01776E-001	  2.08253E-001	  2.14540E-001	  1.90794E-001
  2.04800E-001	  1.92461E-001	  1.97376E-001	  2.06905E-001	  1.84234E-001
  2.30400E-001	  1.77605E-001	  1.82624E-001	  1.87802E-001	  1.63306E-001
  2.56000E-001	  1.63541E-001	  1.65827E-001	  1.69432E-001	  1.46202E-001
  2.81600E-001	  1.48782E-001	  1.53832E-001	  1.58934E-001	  1.33435E-001
  3.07200E-001	  1.36423E-001	  1.43702E-001	  1.46594E-001	  1.21174E-001
  3.32800E-001	  1.24102E-001	  1.35123E-001	  1.32410E-001	  1.10335E-001
  3.58400E-001	  1.12914E-001	  1.26942E-001	  1.27984E-001	  9.74010E-002
  3.84000E-001	  1.00458E-001	  1.13604E-001	  1.15613E-001	  9.19451E-002
  4.09600E-001	  9.14659E-002	  1.07675E-001	  1.04767E-001	  8.53286E-002
  4.60800E-001	  8.11802E-002	  9.19969E-002	  9.11494E-002	  7.50158E-002
  5.12000E-001	  6.86921E-002	  8.27773E-002	  8.03381E-002	  6.39938E-002
  5.63200E-001	  5.98096E-002	  7.41732E-002	  7.38517E-002	  5.40805E-002
  6.14400E-001	  5.44706E-002	  6.22113E-002	  6.94439E-002	  4.34733E-002
  6.65600E-001	  5.08169E-002	  5.40797E-002	  5.98727E-002	  3.77493E-002
  7.16800E-001	  4.74652E-002	  4.87646E-002	  5.06484E-002	  3.74632E-002
  7.68000E-001	  4.27779E-002	  4.29402E-002	  4.73960E-002	  3.64414E-002
  8.19200E-001	  3.95197E-002	  3.56986E-002	  4.03547E-002	  3.18918E-002
  9.21600E-001	  3.33157E-002	  2.21670E-002	  3.03723E-002	  2.74345E-002
  1.02400E+000	  2.41701E-002	  1.62970E-002	  2.24642E-002	  1.96959E-002
  1.12640E+000	  1.03760E-002	  1.22134E-002	  1.74388E-002	  1.37673E-002
  1.22880E+000	  9.28746E-003	  7.91798E-003	  1.65264E-002	  1.95740E-002
  1.33120E+000	  8.80856E-003	  2.65749E-003	  1.97678E-002	  1.95988E-002
  1.43360E+000	  6.17497E-003	 -4.16454E-005	  1.98307E-002	  1.83410E-002
  1.53600E+000	  3.30342E-003	 -3.34663E-004	  1.88627E-002	  1.35963E-002
  1.63840E+000	  1.14920E-003	 -8.28992E-004	  1.62484E-002	  1.29344E-002
  1.84320E+000	 -2.31543E-003	 -5.90504E-004	  1.41608E-002	  7.68231E-003
  2.04800E+000	  4.39282E-003	  7.26451E-003	  1.65842E-002	  1.35409E-002
  2.25280E+000	  9.40497E-004	  9.40084E-003	  1.32287E-002	  1.35537E-002
  2.45760E+000	  1.98641E-003	  8.26183E-003	  4.75245E-003	  5.72491E-003
  2.66240E+000	  3.80844E-003	  1.08816E-002	  4.90901E-003	  5.73066E-003
  2.86720E+000	 -2.74963E-003	  1.19170E-002	  7.02807E-003	  1.01183E-002
  3.07200E+000	 -2.14315E-003	  8.14661E-003	  4.57744E-003	  4.09840E-003
  3.27680E+000	 -2.57124E-003	  5.34168E-003	  4.54196E-004	  4.10306E-003
  3.68640E+000	  5.65871E-003	  1.18026E-002	 -2.99344E-003	  6.93670E-003
  4.09600E+000	  6.50774E-003	  9.00040E-003	  3.98213E-004	  3.18947E-003
  4.50560E+000	  6.36277E-003	 -1.72663E-004	  1.41996E-003	  9.23625E-003
  4.91520E+000	  2.26105E-003	 -4.52074E-003	 -1.98753E-003	  6.49073E-003
  5.32480E+000	  8.34294E-003	 -6.27381E-003	  8.19356E-003	 -6.88180E-004
  5.73440E+000	  1.17669E-002	 -1.42328E-002	  1.15982E-002	  2.92446E-003
  6.14400E+000	  7.55715E-003	 -1.50108E-002	  1.33545E-002	  3.47936E-003
  6.55360E+000	  1.20706E-002	 -5.61991E-003	  8.46278E-003	 -2.91233E-003
  7.37280E+000	  1.34666E-002	  4.91681E-003	  3.95166E-003	  3.20616E-003
  8.19200E+000	  6.38399E-004	  1.06382E-002	 -3.11915E-004	  5.89462E-003
  9.01120E+000	 -6.08576E-003	 -8.33488E-003	 -3.84581E-003	 -2.51505E-003
  9.83040E+000	 -2.19436E-003	  1.11602E-003	 -1.34419E-003	 -6.05858E-003
  1.06496E+001	 -6.13525E-003	  1.25061E-002	  1.33750E-003	  6.61362E-003
  1.14688E+001	 -9.45123E-003	  7.08074E-003	 -1.24834E-003	  2.56676E-003
  1.22880E+001	 -3.43655E-003	 -5.13998E-004	 -6.24766E-003	  4.99672E-003
  1.31072E+001	 -4.86955E-003	 -2.54509E-003	  1.09696E-003	  7.88701E-003
  1.47456E+001	  2.73103E-003	  8.75884E-003	 -1.61280E-003	 -4.24450E-003
  1.63840E+001	 -4.87006E-003	 -1.17179E-002	 -6.71455E-004	  1.89771E-003
  1.80224E+001	 -3.66735E-003	 -1.25172E-002	 -3.50472E-003	 -1.66680E-003
  1.96608E+001	 -7.57428E-003	  1.21575E-003	 -4.19186E-003	  2.94037E-003
  2.12992E+001	 -6.49559E-004	 -3.40602E-003	 -4.99714E-003	  6.41256E-003
  2.29376E+001	  6.81798E-003	  7.78971E-003	  2.81009E-005	 -4.53516E-003
  2.45760E+001	 -1.01049E-006	  4.34297E-003	 -4.32996E-003	 -2.00792E-003
  2.62144E+001	  1.66444E-003	  8.10486E-004	 -2.15994E-003	 -1.09720E-003
  2.94912E+001	 -7.81325E-003	  1.57511E-003	  5.07407E-003	 -6.23337E-003
  3.27680E+001	 -7.92937E-003	  1.53748E-003	  7.16966E-003	 -5.37549E-003
  3.60448E+001	 -3.27529E-003	 -1.84517E-003	  6.28550E-003	  3.00600E-004
  3.93216E+001	  4.10690E-004	 -3.24292E-003	  9.25773E-003	  2.30631E-003
  4.25984E+001	 -3.54574E-003	 -4.47463E-003	 -4.88401E-004	  2.67622E-003
  4.58752E+001	 -9.02626E-004	  4.70970E-003	  8.92333E-003	  4.10671E-003
  4.91520E+001	 -1.40459E-004	 -1.55080E-003	 -4.81629E-003	 -6.88699E-003
  5.24288E+001	 -7.73277E-004	 -2.31761E-003	 -1.37506E-003	 -5.94964E-003
  5.89824E+001	 -1.42780E-003	  5.72068E-004	  1.40253E-003	  5.00075E-003
  6.55360E+001	  6.97795E-003	 -4.28710E-003	 -1.35282E-004	  1.22345E-003
  7.20896E+001	  1.32474E-003	 -2.46788E-003	  3.93179E-003	 -7.13533E-003
  7.86432E+001	  1.32977E-003	 -4.98433E-003	  1.16297E-003	 -1.47047E-003
  8.51968E+001	 -1.89138E-003	 -1.76254E-003	  6.01384E-003	 -2.00396E-003
  9.17504E+001	 -5.32485E-003	 -8.37034E-004	 -1.24152E-003	  1.89063E-003
  9.83040E+001	 -4.41724E-003	 -3.48280E-003	  6.64308E-005	  4.32980E-003
  1.04858E+002	  1.26581E-003	  2.90225E-003	 -1.42710E-003	  1.63935E-003
  1.17965E+002	  5.81179E-003	  2.47038E-003	 -3.93468E-003	  2.04784E-003
  1.31072E+002	  2.51680E-003	  2.29211E-003	 -4.45010E-003	 -2.39931E-004
  1.44179E+002	  5.99088E-005	  9.29743E-004	  1.28091E-003	  1.54823E-003
  1.57286E+002	 -6.32002E-004	  5.24349E-003	 -7.51020E-004	  6.62415E-003
  1.70394E+002	 -2.79892E-003	 -2.47959E-003	 -2.84825E-003	  5.52337E-005
  1.83501E+002	  9.03835E-004	  1.35458E-003	 -6.79317E-004	  3.36510E-004
  1.96608E+002	 -5.12473E-003	 -3.57700E-003	 -5.13847E-003	  1.23220E-003
  2.09715E+002	 -1.56190E-003	 -5.67246E-004	 -1.78248E-003	 -3.12858E-003
  2.35930E+002	  6.65075E-005	 -6.33140E-004	  1.59366E-003	  6.36581E-005
  2.62144E+002	 -1.05482E-004	 -4.84548E-004	  5.86980E-004	  3.38821E-003
  2.88358E+002	 -6.87119E-004	 -2.05417E-003	 -5.86163E-004	  1.36261E-003
  3.14573E+002	 -1.96113E-003	 -2.64574E-003	  4.28318E-004	 -1.18476E-004
  3.40787E+002	  8.28885E-004	  1.79105E-004	  1.97551E-003	 -2.40837E-004
  3.67002E+002	  1.26014E-003	  2.45052E-003	 -2.67318E-003	 -1.55150E-003
  3.93216E+002	  5.09316E-004	  2.74854E-003	  2.82859E-003	 -6.77553E-004

"Count Rate"
       0.01311	     141.98303	     124.74060	     117.03491	     175.39978
       0.02621	     157.77588	     157.69958	     175.47607	     154.95300
       0.03932	     126.49536	     129.62341	     140.38086	     111.84692
       0.05243	     103.53088	     148.92578	     122.75696	     134.88770
       0.06554	     184.47876	     132.44629	     247.95532	     124.89319
       0.07864	     123.44360	     130.31006	     137.93945	     135.26917
       0.09175	     110.32104	     134.58252	     140.22827	     143.05115
       0.10486	     109.71069	     113.98315	     179.29077	     113.37280
       0.11796	     158.69141	     182.03735	     107.80334	     129.54712
       0.13107	     140.68604	     129.39453	     137.32910	     123.06213
       0.14418	     176.54419	     124.35913	     173.33984	     147.17102
       0.15729	      97.65625	     122.29919	     160.21729	     147.78137
       0.17039	     102.92053	     165.63416	     106.88782	     119.93408
       0.18350	     138.32092	     149.45984	     179.21448	     171.50879
       0.19661	     155.33447	     147.47620	     144.27185	     153.42712
       0.20972	     163.72681	     146.78955	     122.83325	     128.09753
       0.22282	     128.70789	     126.11389	     133.20923	     141.06750
       0.23593	     120.77332	     139.77051	     122.37549	     150.37537
       0.24904	     154.49524	     111.46545	     144.80591	     142.05933
       0.26214	     139.16016	     138.85498	     110.39734	     110.77881
       0.27525	     146.94214	     155.33447	     111.69434	     113.29651
       0.28836	     114.89868	     121.53625	     130.92041	     124.66431
       0.30147	     128.78418	     181.04553	     122.29919	     153.65601
       0.31457	     147.93396	     136.48987	     137.32910	     125.73242
       0.32768	     137.32910	     146.94214	     114.74609	     116.57715
       0.34079	     140.15198	     147.78137	     114.59351	     158.69141
       0.35389	     138.32092	     137.55798	     127.41089	     142.89856
       0.36700	     139.69421	     147.17102	     142.36450	     109.02405
       0.38011	     112.91504	     127.48718	     144.27185	     134.88770
       0.39322	     117.03491	     118.25562	     186.15723	     114.28833
       0.40632	     142.44080	     117.79785	     113.52539	     123.29102
       0.41943	     115.96680	     167.61780	     136.94763	     144.42444
       0.43254	     149.61243	     139.31274	     143.43262	     145.33997
       0.44564	     128.93677	     112.07581	     128.25012	     133.28552
       0.45875	     148.23914	     128.09753	     140.30457	     103.75977
       0.47186	     127.56348	     156.70776	     114.82239	     122.83325
       0.48497	     145.03479	     141.44897	     178.90930	     129.92859
       0.49807	     148.39172	     136.79504	     114.59351	     169.90662
       0.51118	     124.81689	     112.76245	     132.44629	     124.05396
       0.52429	     131.75964	     165.48157	     113.83057	     100.86060
       0.53740	     126.72424	     128.17383	     142.51709	     130.08118
       0.55050	     145.49255	     135.26917	     123.74878	     119.55261
       0.56361	     155.10559	     130.99670	     142.21191	     110.85510
       0.57672	     198.82202	     149.99390	     142.36450	      99.71619
       0.58982	     171.96655	     134.96399	     121.45996	     154.80042
       0.60293	     143.28003	     142.44080	     113.44910	     147.24731
       0.61604	     104.75159	     102.61536	     128.86047	     120.69702
       0.62915	     136.48987	     144.42444	     147.47620	     126.87683
       0.64225	     153.35083	     120.54443	     158.76770	     101.77612
       0.65536	     133.66699	     121.45996	     125.42725	     126.64795
       0.66847	     162.50610	     151.44348	     108.79517	     103.83606
       0.68157	     129.77600	     169.83032	     133.51440	     129.77600
       0.69468	     150.83313	     138.09204	     169.90662	     111.61804
       0.70779	     187.83569	     179.44336	     108.56628	      99.48730
       0.72090	     127.94495	     167.84668	     143.96667	     135.49805
       0.73400	     123.51990	     144.11926	     131.60706	     125.50354
       0.74711	     169.52515	     144.95850	     130.99670	     134.42993
