ALV-7004/USB-FAST
Date :	"3/14/2024"
Time :	"12:32:48 PM"
Samplename : 	""
SampMemo(0) : 	""
SampMemo(1) : 	""
SampMemo(2) : 	""
SampMemo(3) : 	""
SampMemo(4) : 	""
SampMemo(5) : 	""
SampMemo(6) : 	""
SampMemo(7) : 	""
SampMemo(8) : 	""
SampMemo(9) : 	""
Temperature [K] :	     298.16000
Viscosity [cp]  :	       0.89000
Refractive Index:	       1.33200
Wavelength [nm] :	       0.00000
Angle [°]       :	       0.00000
Duration [s]    :	         1
FloatDur [ms]   :	          944
Stop TP [ms]   :	      3214
Runs            :	         1
Mode            :	"A-CH0+1  A-CH2+3 "
MeanCR0 [kHz]   :	     146.16861
MeanCR1 [kHz]   :	     142.75127
MeanCR2 [kHz]   :	     137.13306
MeanCR3 [kHz]   :	     136.04588

"Correlation"
  3.12500E-006	 -1.00000E+000	 -1.00000E+000	 -1.00000E+000	 -1.00000E+000
  6.25000E-006	 -1.00000E+000	 -1.00000E+000	 -1.00000E+000	 -1.00000E+000
  9.37500E-006	 -1.00000E+000	 -1.00000E+000	 -1.00000E+000	 -1.00000E+000
  1.25000E-005	 -1.00000E+000	 -1.00000E+000	 -1.00000E+000	 -1.00000E+000
  1.56250E-005	 -1.00000E+000	 -1.00000E+000	 -1.00000E+000	 -1.00000E+000
  1.87500E-005	 -1.00000E+000	 -1.00000E+000	 -1.00000E+000	 -1.00000E+000
  2.18750E-005	 -8.41292E-001	 -3.34409E-001	 -3.68910E-001	 -9.63359E-001
  2.50000E-005	  5.26897E+000	  5.53943E+000	  5.85183E+000	  9.71748E+000
  2.81250E-005	  1.58694E+000	  1.06333E+000	  1.30799E+000	  4.05645E+000
  3.12500E-005	  1.01559E+000	  5.80779E-001	  8.03114E-001	  2.02288E+000
  3.43750E-005	  5.87082E-001	  9.13575E-001	  1.09161E+000	  1.83967E+000
  3.75000E-005	  4.44245E-001	  6.80618E-001	  5.14616E-001	  1.93128E+000
  4.06250E-005	  7.61661E-001	  8.63655E-001	  6.76896E-001	  1.49158E+000
  4.37500E-005	  6.18824E-001	  3.47822E-001	  5.50678E-001	  1.14350E+000
  4.68750E-005	  4.28374E-001	  4.47661E-001	  4.96584E-001	  1.50991E+000
  5.00000E-005	  6.90242E-001	  5.72459E-001	  6.13787E-001	  1.04273E+000
  5.62500E-005	  6.42630E-001	  6.39018E-001	  5.23631E-001	  9.87772E-001
  6.25000E-005	  3.88697E-001	  4.31021E-001	  3.61351E-001	  8.50368E-001
  6.87500E-005	  5.55340E-001	  6.14059E-001	  5.50678E-001	  6.30522E-001
  7.50000E-005	  4.99792E-001	  4.55981E-001	  5.50678E-001	  6.12202E-001
  8.12500E-005	  5.23599E-001	  6.55658E-001	  6.94927E-001	  6.58003E-001
  8.75000E-005	  3.01407E-001	  6.97257E-001	  6.85911E-001	  7.67926E-001
  9.37500E-005	  4.68051E-001	  6.22378E-001	  4.42491E-001	  5.48080E-001
  1.00000E-004	  3.92664E-001	  4.80940E-001	  5.59693E-001	  5.89301E-001
  1.12500E-004	  4.16470E-001	  4.93420E-001	  5.50678E-001	  4.97699E-001
  1.25000E-004	  4.16470E-001	  6.05738E-001	  6.04771E-001	  6.94644E-001
  1.37500E-004	  6.02952E-001	  4.97580E-001	  6.81403E-001	  6.85484E-001
  1.50000E-004	  4.08535E-001	  4.76780E-001	  6.58864E-001	  5.98461E-001
  1.62500E-004	  4.87889E-001	  5.35019E-001	  6.76896E-001	  4.79378E-001
  1.75000E-004	  4.64083E-001	  4.26861E-001	  4.83061E-001	  4.61058E-001
  1.87500E-004	  5.27566E-001	  4.22701E-001	  6.04771E-001	  6.67163E-001
  2.00000E-004	  4.81937E-001	  5.51659E-001	  6.00263E-001	  4.99988E-001
  2.25000E-004	  5.85097E-001	  5.01740E-001	  5.14615E-001	  4.99988E-001
  2.50000E-004	  5.27566E-001	  5.66219E-001	  5.21377E-001	  5.27469E-001
  2.75000E-004	  4.56147E-001	  4.24781E-001	  4.98838E-001	  4.24416E-001
  3.00000E-004	  4.54163E-001	  5.10059E-001	  5.77724E-001	  5.06859E-001
  3.25000E-004	  4.72018E-001	  3.83181E-001	  5.37154E-001	  4.45027E-001
  3.50000E-004	  5.93033E-001	  4.87180E-001	  5.10107E-001	  5.06859E-001
  3.75000E-004	  4.70034E-001	  4.01901E-001	  4.01920E-001	  4.83958E-001
  4.00000E-004	  5.04751E-001	  3.76941E-001	  5.19122E-001	  4.31286E-001
  4.50000E-004	  4.57138E-001	  5.14219E-001	  4.81933E-001	  5.13728E-001
  5.00000E-004	  4.83920E-001	  5.03819E-001	  4.94329E-001	  4.85102E-001
  5.50000E-004	  4.28373E-001	  5.13179E-001	  4.99964E-001	  4.49606E-001
  6.00000E-004	  4.41268E-001	  4.28940E-001	  4.84187E-001	  4.72507E-001
  6.50000E-004	  4.77969E-001	  4.91339E-001	  4.97710E-001	  5.01133E-001
  7.00000E-004	  5.09710E-001	  4.97579E-001	  4.66156E-001	  4.72507E-001
  7.50000E-004	  5.14670E-001	  5.58938E-001	  5.13487E-001	  5.01133E-001
  8.00000E-004	  5.04750E-001	  5.19937E-001	  4.90947E-001	  4.69071E-001
  9.00000E-004	  5.32523E-001	  4.87698E-001	  4.92074E-001	  4.50178E-001
  1.00000E-003	  4.84415E-001	  4.87178E-001	  4.98836E-001	  4.89109E-001
  1.10000E-003	  4.64577E-001	  4.71578E-001	  4.84186E-001	  4.61056E-001
  1.20000E-003	  4.63089E-001	  5.35017E-001	  4.46433E-001	  4.54758E-001
  1.30000E-003	  4.45234E-001	  4.95498E-001	  5.45053E-001	  4.53613E-001
  1.40000E-003	  4.37299E-001	  4.64298E-001	  4.41936E-001	  5.09719E-001
  1.50000E-003	  4.93342E-001	  4.72618E-001	  5.33783E-001	  4.71361E-001
  1.60000E-003	  4.81437E-001	  4.98095E-001	  5.04480E-001	  4.99411E-001
  1.80000E-003	  4.77221E-001	  4.68456E-001	  5.19412E-001	  4.71645E-001
  2.00000E-003	  4.88380E-001	  5.11615E-001	  4.72925E-001	  4.91969E-001
  2.20000E-003	  4.93836E-001	  4.88995E-001	  4.82504E-001	  4.89392E-001
  2.40000E-003	  4.25641E-001	  4.92895E-001	  5.05607E-001	  4.68782E-001
  2.60000E-003	  4.26633E-001	  4.80415E-001	  5.00817E-001	  4.67064E-001
  2.80000E-003	  4.38536E-001	  4.94195E-001	  5.08142E-001	  4.44736E-001
  3.00000E-003	  4.60110E-001	  4.55716E-001	  4.87294E-001	  4.50175E-001
  3.20000E-003	  4.44359E-001	  4.52851E-001	  5.13913E-001	  4.92393E-001
  3.60000E-003	  4.61965E-001	  4.93280E-001	  4.94484E-001	  4.77222E-001
  4.00000E-003	  4.85523E-001	  4.71441E-001	  5.10262E-001	  4.55752E-001
  4.40000E-003	  4.52666E-001	  4.66891E-001	  4.77580E-001	  4.84950E-001
  4.80000E-003	  4.50682E-001	  4.83270E-001	  4.98992E-001	  4.48882E-001
  5.20000E-003	  4.70893E-001	  4.63381E-001	  5.04768E-001	  4.75933E-001
  5.60000E-003	  4.70645E-001	  4.53501E-001	  4.72509E-001	  4.43014E-001
  6.00000E-003	  4.46467E-001	  4.76251E-001	  4.95752E-001	  4.70065E-001
  6.40000E-003	  4.51044E-001	  4.65971E-001	  4.85388E-001	  4.60394E-001
  7.20000E-003	  4.46581E-001	  4.67921E-001	  4.87713E-001	  4.52665E-001
  8.00000E-003	  4.68341E-001	  4.73446E-001	  4.88065E-001	  4.51520E-001
  8.80000E-003	  4.48503E-001	  4.71236E-001	  4.79120E-001	  4.42861E-001
  9.60000E-003	  4.32446E-001	  4.52451E-001	  4.83768E-001	  4.78929E-001
  1.04000E-002	  4.59238E-001	  4.72406E-001	  4.74964E-001	  4.53095E-001
  1.12000E-002	  4.39214E-001	  4.45366E-001	  4.72358E-001	  4.57257E-001
  1.20000E-002	  4.38346E-001	  4.60706E-001	  4.81444E-001	  4.41441E-001
  1.28000E-002	  4.41685E-001	  4.58422E-001	  4.74486E-001	  4.32977E-001
  1.44000E-002	  4.36694E-001	  4.58130E-001	  4.65189E-001	  4.30866E-001
  1.60000E-002	  4.40889E-001	  4.45422E-001	  4.55575E-001	  4.39167E-001
  1.76000E-002	  4.28490E-001	  4.39053E-001	  4.56596E-001	  4.39632E-001
  1.92000E-002	  4.22477E-001	  4.34405E-001	  4.56596E-001	  4.33943E-001
  2.08000E-002	  4.08838E-001	  4.24926E-001	  4.44763E-001	  4.22565E-001
  2.24000E-002	  4.24037E-001	  4.34849E-001	  4.45961E-001	  4.19881E-001
  2.40000E-002	  4.10842E-001	  4.33679E-001	  4.46007E-001	  4.28290E-001
  2.56000E-002	  4.12142E-001	  4.21377E-001	  4.31886E-001	  4.15850E-001
  2.88000E-002	  3.92582E-001	  4.06200E-001	  4.27484E-001	  4.03810E-001
  3.20000E-002	  3.91792E-001	  4.02820E-001	  4.09981E-001	  3.87279E-001
  3.52000E-002	  3.80323E-001	  3.95128E-001	  4.05157E-001	  3.76920E-001
  3.84000E-002	  3.73162E-001	  3.83282E-001	  3.90648E-001	  3.61677E-001
  4.16000E-002	  3.67592E-001	  3.75872E-001	  3.85911E-001	  3.58296E-001
  4.48000E-002	  3.49056E-001	  3.73614E-001	  3.80040E-001	  3.53627E-001
  4.80000E-002	  3.49877E-001	  3.66139E-001	  3.78297E-001	  3.53805E-001
  5.12000E-002	  3.40316E-001	  3.59262E-001	  3.67917E-001	  3.42034E-001
  5.76000E-002	  3.30109E-001	  3.42460E-001	  3.50231E-001	  3.31353E-001
  6.40000E-002	  3.07484E-001	  3.23854E-001	  3.35899E-001	  3.15553E-001
  7.04000E-002	  2.98550E-001	  3.10936E-001	  3.22243E-001	  2.99927E-001
  7.68000E-002	  2.89545E-001	  3.02973E-001	  3.08104E-001	  2.85873E-001
  8.32000E-002	  2.74131E-001	  2.86731E-001	  3.05378E-001	  2.82349E-001
  8.96000E-002	  2.57647E-001	  2.78609E-001	  2.85881E-001	  2.73907E-001
  9.60000E-002	  2.45627E-001	  2.65877E-001	  2.79771E-001	  2.58315E-001
  1.02400E-001	  2.42828E-001	  2.54823E-001	  2.72130E-001	  2.48812E-001
  1.15200E-001	  2.21445E-001	  2.44139E-001	  2.52882E-001	  2.31649E-001
  1.28000E-001	  2.05700E-001	  2.25560E-001	  2.34768E-001	  2.15604E-001
  1.40800E-001	  1.86626E-001	  2.15776E-001	  2.16556E-001	  2.03903E-001
  1.53600E-001	  1.73839E-001	  2.01169E-001	  2.06483E-001	  1.91574E-001
  1.66400E-001	  1.62725E-001	  1.92451E-001	  1.93429E-001	  1.78203E-001
  1.79200E-001	  1.54046E-001	  1.81847E-001	  1.85583E-001	  1.63737E-001
  1.92000E-001	  1.44079E-001	  1.70694E-001	  1.76113E-001	  1.52067E-001
  2.04800E-001	  1.34499E-001	  1.64257E-001	  1.66047E-001	  1.43940E-001
  2.30400E-001	  1.20796E-001	  1.47740E-001	  1.48267E-001	  1.29518E-001
  2.56000E-001	  1.07249E-001	  1.25880E-001	  1.35499E-001	  1.20410E-001
  2.81600E-001	  9.52367E-002	  1.17885E-001	  1.19984E-001	  1.07528E-001
  3.07200E-001	  8.78255E-002	  1.06503E-001	  1.12428E-001	  9.78891E-002
  3.32800E-001	  7.94285E-002	  9.54939E-002	  1.05561E-001	  9.42254E-002
  3.58400E-001	  7.02626E-002	  9.32490E-002	  9.60344E-002	  8.65973E-002
  3.84000E-001	  6.67125E-002	  8.17383E-002	  9.02537E-002	  8.62591E-002
  4.09600E-001	  5.79364E-002	  7.26423E-002	  8.73514E-002	  8.19287E-002
  4.60800E-001	  4.75146E-002	  6.01181E-002	  8.14257E-002	  6.87053E-002
  5.12000E-001	  4.05018E-002	  5.06294E-002	  7.16237E-002	  5.90422E-002
  5.63200E-001	  3.72414E-002	  4.32881E-002	  6.30979E-002	  5.33430E-002
  6.14400E-001	  3.65369E-002	  3.65656E-002	  5.56019E-002	  4.23878E-002
  6.65600E-001	  3.32211E-002	  3.26555E-002	  4.81805E-002	  3.88037E-002
  7.16800E-001	  3.14996E-002	  3.00645E-002	  4.29770E-002	  3.76529E-002
  7.68000E-001	  2.89554E-002	  2.77952E-002	  3.61428E-002	  3.03360E-002
  8.19200E-001	  2.89827E-002	  2.46048E-002	  3.07516E-002	  2.48800E-002
  9.21600E-001	  2.24315E-002	  2.24775E-002	  2.43486E-002	  1.46599E-002
  1.02400E+000	  1.21633E-002	  1.67753E-002	  1.65885E-002	  5.21603E-003
  1.12640E+000	  6.56051E-003	  8.35847E-003	  1.77968E-002	  5.65066E-003
  1.22880E+000	  5.58654E-003	  3.37377E-003	  1.89504E-002	  9.03102E-003
  1.33120E+000	  3.66431E-003	 -8.15938E-004	  2.62011E-002	  7.30875E-003
  1.43360E+000	  3.53214E-003	 -1.46348E-003	  2.29207E-002	  4.98173E-003
  1.53600E+000	  4.61772E-003	 -5.61936E-004	  1.62357E-002	  6.27899E-003
  1.63840E+000	  3.89858E-003	 -1.13005E-003	  1.27549E-002	  3.58451E-003
  1.84320E+000	  4.64909E-004	 -2.72117E-003	  3.46250E-003	 -3.11535E-004
  2.04800E+000	 -4.27365E-003	 -3.35147E-003	 -6.50332E-004	  1.12166E-003
  2.25280E+000	  1.26501E-003	 -8.38764E-003	  5.75528E-004	 -7.30351E-003
  2.45760E+000	  1.00771E-003	 -9.82641E-003	 -3.70327E-003	 -1.16011E-002
  2.66240E+000	  5.94222E-004	 -1.02186E-002	 -2.49958E-003	 -9.21587E-003
  2.86720E+000	  2.49238E-003	 -2.84419E-003	  3.99186E-004	 -9.11848E-003
  3.07200E+000	  4.93657E-004	 -1.91136E-003	  1.01830E-003	 -4.20927E-003
  3.27680E+000	 -2.49920E-003	 -4.91848E-004	 -9.02533E-003	 -2.96040E-003
  3.68640E+000	  3.11287E-004	 -3.61530E-003	 -4.00329E-003	  1.04971E-003
  4.09600E+000	  4.90109E-004	 -1.38780E-002	 -7.94478E-004	  3.05250E-003
  4.50560E+000	 -1.75677E-003	 -1.22238E-002	  4.39545E-003	  4.90146E-003
  4.91520E+000	  1.21282E-003	 -1.60869E-003	  6.61294E-003	  1.79623E-003
  5.32480E+000	  9.50924E-003	  1.19895E-003	 -2.50224E-003	  4.60534E-003
  5.73440E+000	  1.00932E-002	  4.03950E-003	  1.09300E-003	  3.03391E-003
  6.14400E+000	  5.34591E-003	  6.45229E-003	  1.21645E-004	 -2.14890E-003
  6.55360E+000	  1.02336E-002	 -5.47148E-003	 -2.10388E-003	 -1.96676E-003
  7.37280E+000	 -2.30809E-003	 -1.99624E-003	 -6.74680E-003	 -6.17508E-003
  8.19200E+000	 -7.70111E-003	  2.09387E-004	 -6.10562E-003	 -1.48836E-003
  9.01120E+000	  8.90688E-004	 -7.29630E-004	 -1.51342E-002	 -5.37767E-003
  9.83040E+000	  5.21435E-003	  7.60590E-003	 -3.89148E-003	 -2.46083E-004
  1.06496E+001	  4.41240E-004	  2.48016E-003	  1.43872E-004	  6.38031E-004
  1.14688E+001	 -1.39519E-003	 -7.23780E-003	  8.15615E-003	 -2.53222E-004
  1.22880E+001	 -2.69114E-003	 -4.74311E-003	  7.06715E-003	  1.09845E-003
  1.31072E+001	 -3.38792E-003	 -4.05310E-003	  3.66743E-003	 -3.53196E-003
  1.47456E+001	  2.72027E-003	  8.99787E-003	  1.43849E-002	  7.23247E-004
  1.63840E+001	  3.91530E-003	  3.54517E-003	 -6.63690E-004	  8.10889E-003
  1.80224E+001	  2.70320E-003	 -3.76374E-003	  2.64616E-003	 -6.17718E-003
  1.96608E+001	 -1.21344E-003	 -1.59515E-003	 -1.35107E-002	  1.00475E-004
  2.12992E+001	  4.42887E-003	  1.69730E-003	 -2.36792E-003	  6.53506E-004
  2.29376E+001	  1.38446E-003	 -4.80609E-003	  5.60177E-003	 -8.38580E-003
  2.45760E+001	  1.10868E-002	 -7.16353E-004	 -8.00816E-003	  4.82119E-005
  2.62144E+001	  3.30569E-003	  1.09101E-003	  1.84172E-003	  5.16813E-003
  2.94912E+001	  3.53080E-004	  6.25597E-003	  6.17452E-003	  3.81448E-003
  3.27680E+001	 -1.58318E-003	 -6.54495E-003	 -1.83595E-003	  6.65486E-003
  3.60448E+001	  8.35180E-004	 -2.87758E-003	  1.52012E-003	  3.06436E-004
  3.93216E+001	 -1.29252E-004	 -1.42208E-003	  1.71871E-003	 -1.07913E-002
  4.25984E+001	  1.12279E-003	 -1.70642E-003	  8.24451E-003	 -5.71603E-003
  4.58752E+001	  2.99341E-003	  3.88574E-003	 -3.91215E-003	 -9.41608E-004
  4.91520E+001	 -7.03945E-004	 -7.92764E-004	 -2.04333E-003	  2.04977E-003
  5.24288E+001	 -4.96987E-004	  2.23303E-003	 -3.05244E-003	  1.05352E-003
  5.89824E+001	  4.11985E-003	 -1.81250E-003	  2.74661E-004	  3.15605E-003
  6.55360E+001	 -1.83520E-003	 -2.34430E-003	  1.29054E-003	 -1.08660E-004
  7.20896E+001	 -5.27290E-004	  3.18720E-003	  4.24087E-003	 -1.58728E-003
  7.86432E+001	  1.95639E-003	 -2.05658E-004	  4.43700E-003	  3.27512E-004
  8.51968E+001	  2.79551E-004	 -3.77271E-003	  9.00425E-004	 -1.06446E-003
  9.17504E+001	 -6.27242E-004	 -3.29863E-003	 -3.01888E-003	  1.00511E-003
  9.83040E+001	  3.16586E-004	  1.85078E-003	  1.49784E-004	 -2.65658E-003
  1.04858E+002	  1.87633E-003	  5.21685E-004	  2.30119E-004	 -1.24728E-003
  1.17965E+002	  1.45320E-003	 -2.87728E-004	  1.05207E-003	  5.80182E-004
  1.31072E+002	  4.22092E-003	 -1.41565E-003	 -1.74273E-003	  2.92747E-003
  1.44179E+002	  1.72018E-003	  1.50773E-003	 -2.14687E-004	 -3.62558E-003
  1.57286E+002	  5.77201E-004	  6.00784E-004	  1.34460E-003	  9.22187E-004
  1.70394E+002	 -1.42351E-004	 -7.86273E-004	  1.92207E-003	 -1.06960E-003
  1.83501E+002	 -6.61933E-004	  9.65381E-004	  2.00982E-003	  4.69902E-003
  1.96608E+002	 -2.64406E-003	  8.80705E-004	  2.06713E-003	 -2.88443E-003
  2.09715E+002	 -2.34984E-003	 -3.86452E-004	 -1.77392E-003	 -1.69010E-003
  2.35930E+002	 -6.71626E-004	  7.36800E-004	 -2.70017E-003	  3.56631E-003
  2.62144E+002	 -2.01870E-003	 -2.34908E-003	 -7.20921E-004	  1.44799E-005
  2.88358E+002	 -1.38492E-003	  1.61269E-003	 -4.04588E-003	 -1.69285E-004
  3.14573E+002	 -9.34074E-004	 -1.17878E-003	 -4.47133E-003	 -3.70876E-003
  3.40787E+002	 -2.48163E-003	  1.44875E-004	  2.03901E-003	 -1.04387E-003
  3.67002E+002	  4.00807E-004	 -2.49988E-003	  3.60679E-003	  9.89242E-004
  3.93216E+002	  2.09182E-003	  2.52732E-003	 -3.84900E-004	 -4.12656E-003

"Count Rate"
       0.01311	     118.71338	     116.72974	      96.43555	     131.07300
       0.02621	     153.80859	     133.13293	     141.29639	     138.62610
       0.03932	     125.27466	     155.41077	     127.33459	     136.64246
       0.05243	     145.33997	     138.70239	     140.76233	     141.37268
       0.06554	     131.07300	     125.50354	     120.54443	     135.11658
       0.07864	     117.18750	     133.81958	     155.33447	     129.08936
       0.09175	     149.23096	     142.13562	     148.01025	     132.14111
       0.10486	     167.46521	     118.40820	     150.07019	     118.10303
       0.11796	     186.84387	     127.02942	     182.34253	     157.62329
       0.13107	     120.92590	     108.94775	     146.86584	     139.92310
       0.14418	     161.59058	     177.84119	     119.32373	     165.55786
       0.15729	     145.11108	     159.30176	     142.36450	     123.13843
       0.17039	     183.02917	     154.19006	     120.01038	     160.90393
       0.18350	     125.27466	     169.21997	     140.30457	     111.54175
       0.19661	     129.69971	     165.32898	     126.41907	     162.42981
       0.20972	     165.55786	     123.21472	     120.23926	     141.75415
       0.22282	     133.51440	     155.33447	     117.87415	     103.68347
       0.23593	     178.22266	     109.63440	     138.01575	     124.28284
       0.24904	     177.84119	     132.75146	     152.96936	     141.75415
       0.26214	     148.31543	     136.10840	     127.94495	     139.99939
       0.27525	     169.90662	     145.18738	     147.55249	     159.53064
       0.28836	     146.71326	     137.32910	     156.55518	     138.47351
       0.30147	     171.66138	     141.75415	     139.08386	     164.64233
       0.31457	     136.64246	     124.20654	     152.74048	     129.62341
       0.32768	     125.42725	     144.04297	     136.26099	     160.06470
       0.34079	     167.38892	     170.97473	     150.75684	     117.56897
       0.35389	     133.05664	     127.10571	     163.95569	     139.69421
       0.36700	     138.09204	     141.22009	     131.45447	     124.66431
       0.38011	     152.96936	     166.09192	     150.52795	     159.07288
       0.39322	     156.63147	     154.80042	     179.29077	     136.56616
       0.40632	     136.71875	     149.68872	     129.39453	      99.41101
       0.41943	     153.19824	     127.79236	     112.91504	     138.93127
       0.43254	     100.25024	     158.84399	     133.28552	     121.91772
       0.44564	     118.63708	     134.12476	     122.07031	     125.96130
       0.45875	     151.29089	     139.54163	     177.84119	     119.32373
       0.47186	     139.16016	     141.37268	     147.09473	     122.60437
       0.48497	     105.43823	     169.14368	     151.06201	     153.65601
       0.49807	     145.03479	     147.78137	     120.46814	     121.91772
       0.51118	     132.29370	     133.13293	     145.11108	     123.82507
       0.52429	     147.55249	     122.68066	     141.37268	     130.31006
       0.53740	     140.91492	     147.93396	     151.29089	     137.78687
       0.55050	     124.96948	     164.56604	     144.80591	     164.48975
       0.56361	     140.60974	     145.33997	     119.32373	     141.06750
       0.57672	     125.19836	     152.05383	     117.79785	     113.75427
       0.58982	     138.85498	     132.37000	     104.06494	     123.51990
       0.60293	     145.26367	     141.14380	     127.56348	     101.31836
       0.61604	     152.96936	     131.91223	     117.95044	     135.04028
       0.62915	     133.43811	     177.30713	     125.42725	     168.68591
       0.64225	     158.76770	     129.31824	     139.16016	     124.66431
       0.65536	     129.24194	     149.45984	     141.44897	     103.75977
       0.66847	     142.21191	     137.71057	     121.53625	     127.02942
       0.68157	     121.53625	     139.54163	     105.43823	     140.53345
       0.69468	     147.47620	     139.16016	     136.33728	     106.65894
       0.70779	     134.42993	     136.64246	     130.76782	     118.02673
       0.72090	     131.37817	     142.51709	     135.11658	     125.27466
       0.73400	     126.95313	     143.58521	     139.69421	     126.72424
       0.74711	     128.70789	     121.45996	     125.73242	     159.07288
