ALV-7004/USB-FAST
Date :	"3/14/2024"
Time :	"12:33:16 PM"
Samplename : 	""
SampMemo(0) : 	""
SampMemo(1) : 	""
SampMemo(2) : 	""
SampMemo(3) : 	""
SampMemo(4) : 	""
SampMemo(5) : 	""
SampMemo(6) : 	""
SampMemo(7) : 	""
SampMemo(8) : 	""
SampMemo(9) : 	""
Temperature [K] :	     298.16000
Viscosity [cp]  :	       0.89000
Refractive Index:	       1.33200
Wavelength [nm] :	       0.00000
Angle [°]       :	       0.00000
Duration [s]    :	         1
FloatDur [ms]   :	          944
Stop TP [ms]   :	      3241
Runs            :	         1
Mode            :	"A-CH0+1  A-CH2+3 "
MeanCR0 [kHz]   :	     130.57709
MeanCR1 [kHz]   :	     126.23999
MeanCR2 [kHz]   :	     116.91835
MeanCR3 [kHz]   :	     122.87564

"Correlation"
  3.12500E-006	 -1.00000E+000	 -1.00000E+000	 -1.00000E+000	 -1.00000E+000
  6.25000E-006	 -1.00000E+000	 -1.00000E+000	 -1.00000E+000	 -1.00000E+000
  9.37500E-006	 -1.00000E+000	 -1.00000E+000	 -1.00000E+000	 -1.00000E+000
  1.25000E-005	 -1.00000E+000	 -1.00000E+000	 -1.00000E+000	 -1.00000E+000
  1.56250E-005	 -1.00000E+000	 -1.00000E+000	 -1.00000E+000	 -1.00000E+000
  1.87500E-005	 -1.00000E+000	 -1.00000E+000	 -1.00000E+000	 -1.00000E+000
  2.18750E-005	 -9.60226E-001	 -2.55299E-001	 -3.30260E-001	 -9.55083E-001
  2.50000E-005	  5.56278E+000	  6.00019E+000	  5.64778E+000	  1.12847E+001
  2.81250E-005	  1.78421E+000	  1.46815E+000	  1.38130E+000	  3.91836E+000
  3.12500E-005	  1.10804E+000	  1.00005E+000	  4.88310E-001	  2.72807E+000
  3.43750E-005	  1.00861E+000	  4.89401E-001	  2.89869E-001	  2.16661E+000
  3.75000E-005	  7.30186E-001	  9.14944E-001	  2.65064E-001	  1.58270E+000
  4.06250E-005	  7.10299E-001	  4.68124E-001	  6.12336E-001	  1.42549E+000
  4.37500E-005	  4.11991E-001	  5.31955E-001	  5.37920E-001	  1.69499E+000
  4.68750E-005	  5.31314E-001	  7.44727E-001	  8.35582E-001	  1.38057E+000
  5.00000E-005	  4.11991E-001	  8.61751E-001	  6.24738E-001	  1.65007E+000
  5.62500E-005	  4.31878E-001	  7.44727E-001	  6.12336E-001	  8.97722E-001
  6.25000E-005	  9.48945E-001	  4.57485E-001	  5.25518E-001	  8.07889E-001
  6.87500E-005	  6.90412E-001	  5.42594E-001	  6.12336E-001	  7.51744E-001
  7.50000E-005	  9.68832E-001	  5.00040E-001	  3.89089E-001	  6.95598E-001
  8.12500E-005	  6.90412E-001	  5.85148E-001	  5.62725E-001	  5.94536E-001
  8.75000E-005	  4.02047E-001	  5.63871E-001	  4.88310E-001	  8.41577E-001
  9.37500E-005	  6.00919E-001	  2.87268E-001	  5.87531E-001	  5.15932E-001
  1.00000E-004	  7.79904E-001	  3.51099E-001	  6.30939E-001	  4.93474E-001
  1.12500E-004	  3.42386E-001	  4.09612E-001	  3.14674E-001	  6.78754E-001
  1.25000E-004	  5.61145E-001	  4.73443E-001	  5.50323E-001	  6.67525E-001
  1.37500E-004	  5.31314E-001	  5.31955E-001	  2.71265E-001	  4.14870E-001
  1.50000E-004	  5.90976E-001	  6.59618E-001	  5.06914E-001	  6.16994E-001
  1.62500E-004	  5.31314E-001	  4.62804E-001	  4.63505E-001	  4.42943E-001
  1.75000E-004	  5.31314E-001	  5.42594E-001	  3.70485E-001	  4.99088E-001
  1.87500E-004	  4.41822E-001	  5.00039E-001	  6.99154E-001	  5.83307E-001
  2.00000E-004	  4.51765E-001	  3.80355E-001	  7.05355E-001	  4.62593E-001
  2.25000E-004	  4.86567E-001	  5.61211E-001	  5.16215E-001	  5.10317E-001
  2.50000E-004	  5.13912E-001	  4.86741E-001	  6.37140E-001	  4.62593E-001
  2.75000E-004	  5.01483E-001	  5.63871E-001	  5.53423E-001	  5.88921E-001
  3.00000E-004	  5.81032E-001	  6.17063E-001	  4.57303E-001	  5.52426E-001
  3.25000E-004	  5.03969E-001	  6.06425E-001	  4.85209E-001	  5.52426E-001
  3.50000E-004	  5.33800E-001	  4.62804E-001	  4.97611E-001	  4.59786E-001
  3.75000E-004	  5.28828E-001	  4.38867E-001	  5.13115E-001	  5.52426E-001
  4.00000E-004	  4.96510E-001	  4.80091E-001	  5.39469E-001	  5.29967E-001
  4.50000E-004	  3.84645E-001	  4.48175E-001	  4.68155E-001	  5.07509E-001
  5.00000E-004	  5.22612E-001	  4.69453E-001	  5.34819E-001	  5.14527E-001
  5.50000E-004	  5.03968E-001	  4.49505E-001	  4.32497E-001	  4.41538E-001
  6.00000E-004	  5.00239E-001	  4.60144E-001	  5.19315E-001	  5.13124E-001
  6.50000E-004	  4.20691E-001	  4.18919E-001	  5.82878E-001	  4.79436E-001
  7.00000E-004	  5.41257E-001	  4.18919E-001	  4.88309E-001	  5.31371E-001
  7.50000E-004	  5.18883E-001	  4.16260E-001	  4.91410E-001	  4.49960E-001
  8.00000E-004	  4.76000E-001	  4.66792E-001	  4.96834E-001	  5.18737E-001
  9.00000E-004	  5.03345E-001	  5.12671E-001	  5.27066E-001	  4.18377E-001
  1.00000E-003	  4.85944E-001	  5.06021E-001	  4.92183E-001	  4.63293E-001
  1.10000E-003	  4.81594E-001	  4.26897E-001	  4.86757E-001	  4.59095E-001
  1.20000E-003	  4.98995E-001	  4.72776E-001	  4.59627E-001	  4.99099E-001
  1.30000E-003	  4.71029E-001	  5.24639E-001	  4.75130E-001	  4.67517E-001
  1.40000E-003	  4.91537E-001	  4.90728E-001	  4.71254E-001	  4.83659E-001
  1.50000E-003	  5.15153E-001	  4.47509E-001	  4.60402E-001	  5.01204E-001
  1.60000E-003	  4.71038E-001	  4.74103E-001	  4.34819E-001	  4.91740E-001
  1.80000E-003	  4.99937E-001	  4.67787E-001	  5.30551E-001	  4.62614E-001
  2.00000E-003	  4.85021E-001	  4.62135E-001	  4.55748E-001	  4.38050E-001
  2.20000E-003	  4.74767E-001	  4.58145E-001	  4.86367E-001	  4.66474E-001
  2.40000E-003	  4.86886E-001	  4.77095E-001	  4.78228E-001	  4.50332E-001
  2.60000E-003	  4.66999E-001	  5.05022E-001	  4.91018E-001	  4.67878E-001
  2.80000E-003	  4.47111E-001	  4.43517E-001	  5.11172E-001	  4.96302E-001
  3.00000E-003	  4.84711E-001	  4.78425E-001	  4.60012E-001	  4.61561E-001
  3.20000E-003	  4.64986E-001	  4.84072E-001	  5.09035E-001	  4.73513E-001
  3.60000E-003	  4.66384E-001	  4.44011E-001	  4.67371E-001	  4.66670E-001
  4.00000E-003	  4.33446E-001	  4.59470E-001	  4.71828E-001	  4.81584E-001
  4.40000E-003	  4.73220E-001	  4.64623E-001	  5.05935E-001	  4.55954E-001
  4.80000E-003	  4.67472E-001	  4.73932E-001	  4.92757E-001	  4.87186E-001
  5.20000E-003	  4.70579E-001	  4.58639E-001	  4.93726E-001	  4.84554E-001
  5.60000E-003	  4.54122E-001	  4.54484E-001	  4.90044E-001	  4.67184E-001
  6.00000E-003	  4.32370E-001	  4.79251E-001	  5.15818E-001	  4.82273E-001
  6.40000E-003	  4.57153E-001	  4.68437E-001	  4.78891E-001	  4.60657E-001
  7.20000E-003	  4.39674E-001	  4.62619E-001	  4.60869E-001	  4.66272E-001
  8.00000E-003	  4.46899E-001	  4.51315E-001	  4.82767E-001	  4.63552E-001
  8.80000E-003	  4.42004E-001	  4.83563E-001	  4.88484E-001	  4.50831E-001
  9.60000E-003	  4.59173E-001	  4.56635E-001	  4.57575E-001	  4.40027E-001
  1.04000E-002	  4.51315E-001	  4.65943E-001	  4.70752E-001	  4.88631E-001
  1.12000E-002	  4.38186E-001	  4.41924E-001	  4.87515E-001	  4.54403E-001
  1.20000E-002	  4.59239E-001	  4.57881E-001	  4.84511E-001	  4.62913E-001
  1.28000E-002	  4.51331E-001	  4.48328E-001	  4.76643E-001	  4.70896E-001
  1.44000E-002	  4.69043E-001	  4.73179E-001	  4.63853E-001	  4.45660E-001
  1.60000E-002	  4.56652E-001	  4.59922E-001	  4.78241E-001	  4.55223E-001
  1.76000E-002	  4.55343E-001	  4.50584E-001	  4.70345E-001	  4.41549E-001
  1.92000E-002	  4.57480E-001	  4.59864E-001	  4.65500E-001	  4.49871E-001
  2.08000E-002	  4.39495E-001	  4.50721E-001	  4.48641E-001	  4.47327E-001
  2.24000E-002	  4.59111E-001	  4.53547E-001	  4.45201E-001	  4.40296E-001
  2.40000E-002	  4.56419E-001	  4.57578E-001	  4.57458E-001	  4.28528E-001
  2.56000E-002	  4.47100E-001	  4.48398E-001	  4.54371E-001	  4.31830E-001
  2.88000E-002	  4.42606E-001	  4.32261E-001	  4.41290E-001	  4.44301E-001
  3.20000E-002	  4.23068E-001	  4.31958E-001	  4.45602E-001	  4.29812E-001
  3.52000E-002	  4.31835E-001	  4.38358E-001	  4.31794E-001	  4.17440E-001
  3.84000E-002	  4.22804E-001	  4.23169E-001	  4.29905E-001	  4.14284E-001
  4.16000E-002	  4.19495E-001	  4.10161E-001	  4.31228E-001	  4.30231E-001
  4.48000E-002	  4.09279E-001	  4.18693E-001	  4.22822E-001	  4.16729E-001
  4.80000E-002	  4.23826E-001	  4.12438E-001	  4.22738E-001	  4.10762E-001
  5.12000E-002	  4.10210E-001	  4.09307E-001	  4.16419E-001	  4.10845E-001
  5.76000E-002	  4.08753E-001	  4.00443E-001	  4.10289E-001	  4.06444E-001
  6.40000E-002	  3.94760E-001	  3.91593E-001	  3.99654E-001	  3.98632E-001
  7.04000E-002	  3.83661E-001	  3.83072E-001	  3.91223E-001	  3.82737E-001
  7.68000E-002	  3.84546E-001	  3.76763E-001	  3.85313E-001	  3.77331E-001
  8.32000E-002	  3.62747E-001	  3.68596E-001	  3.73734E-001	  3.78165E-001
  8.96000E-002	  3.63494E-001	  3.60796E-001	  3.67048E-001	  3.66429E-001
  9.60000E-002	  3.61950E-001	  3.61398E-001	  3.63002E-001	  3.56150E-001
  1.02400E-001	  3.48182E-001	  3.50289E-001	  3.49649E-001	  3.50947E-001
  1.15200E-001	  3.34524E-001	  3.34483E-001	  3.32206E-001	  3.35830E-001
  1.28000E-001	  3.26956E-001	  3.30767E-001	  3.17101E-001	  3.31506E-001
  1.40800E-001	  3.13589E-001	  3.12273E-001	  3.03031E-001	  3.15040E-001
  1.53600E-001	  2.93311E-001	  3.05722E-001	  3.05387E-001	  3.07106E-001
  1.66400E-001	  2.85203E-001	  2.88562E-001	  2.83674E-001	  2.92682E-001
  1.79200E-001	  2.77616E-001	  2.84493E-001	  2.77661E-001	  2.81945E-001
  1.92000E-001	  2.63405E-001	  2.70581E-001	  2.70876E-001	  2.76256E-001
  2.04800E-001	  2.57741E-001	  2.63953E-001	  2.58454E-001	  2.65752E-001
  2.30400E-001	  2.39864E-001	  2.45969E-001	  2.37119E-001	  2.46268E-001
  2.56000E-001	  2.19603E-001	  2.26825E-001	  2.22444E-001	  2.28121E-001
  2.81600E-001	  2.07965E-001	  2.11219E-001	  2.07341E-001	  2.16154E-001
  3.07200E-001	  1.90605E-001	  2.00400E-001	  1.91022E-001	  1.98376E-001
  3.32800E-001	  1.78069E-001	  1.87729E-001	  1.77160E-001	  1.84567E-001
  3.58400E-001	  1.65299E-001	  1.77313E-001	  1.65109E-001	  1.69213E-001
  3.84000E-001	  1.54059E-001	  1.69205E-001	  1.51295E-001	  1.62245E-001
  4.09600E-001	  1.44966E-001	  1.59205E-001	  1.42416E-001	  1.52568E-001
  4.60800E-001	  1.26094E-001	  1.44555E-001	  1.24341E-001	  1.32085E-001
  5.12000E-001	  1.06466E-001	  1.30023E-001	  1.10400E-001	  1.16814E-001
  5.63200E-001	  8.89613E-002	  1.14425E-001	  9.85182E-002	  1.02845E-001
  6.14400E-001	  7.57651E-002	  1.04871E-001	  8.86697E-002	  8.84658E-002
  6.65600E-001	  6.42783E-002	  9.24306E-002	  8.18903E-002	  7.98645E-002
  7.16800E-001	  5.69776E-002	  8.52996E-002	  6.90894E-002	  7.19900E-002
  7.68000E-001	  5.07838E-002	  7.34062E-002	  5.90357E-002	  6.53533E-002
  8.19200E-001	  4.09809E-002	  6.71602E-002	  5.38631E-002	  5.87888E-002
  9.21600E-001	  3.18637E-002	  5.37517E-002	  4.16410E-002	  5.03384E-002
  1.02400E+000	  2.36922E-002	  4.58162E-002	  2.77133E-002	  3.97682E-002
  1.12640E+000	  2.29235E-002	  3.86084E-002	  1.72623E-002	  3.04264E-002
  1.22880E+000	  2.00080E-002	  3.19852E-002	  1.40209E-002	  2.87371E-002
  1.33120E+000	  1.76724E-002	  3.14855E-002	  5.43340E-003	  2.05030E-002
  1.43360E+000	  1.75414E-002	  2.55951E-002	  6.27134E-003	  1.56624E-002
  1.53600E+000	  8.63599E-003	  1.88071E-002	  6.80022E-003	  1.31390E-002
  1.63840E+000	  5.15060E-003	  1.87250E-002	  4.48848E-003	  1.44395E-002
  1.84320E+000	  2.67071E-004	  1.93840E-002	 -3.72021E-003	  1.58175E-002
  2.04800E+000	  4.76013E-003	  1.38241E-002	 -7.66073E-003	  1.20773E-002
  2.25280E+000	  8.42723E-003	  1.31395E-002	 -1.12051E-002	  5.97104E-003
  2.45760E+000	  1.03125E-002	  1.57520E-002	 -1.05639E-002	 -1.23817E-003
  2.66240E+000	  3.93460E-003	  8.53918E-003	 -9.83376E-003	 -2.48963E-003
  2.86720E+000	  3.27877E-003	  4.67936E-003	 -1.11022E-002	 -5.26875E-003
  3.07200E+000	  4.12463E-003	 -2.74049E-003	 -9.30307E-003	 -5.52984E-003
  3.27680E+000	  5.42335E-003	 -6.73639E-003	 -1.02389E-002	 -3.22023E-003
  3.68640E+000	  4.21572E-003	 -4.47360E-003	 -1.43204E-002	  1.58625E-003
  4.09600E+000	 -4.07270E-003	  3.46579E-004	 -8.00324E-003	  1.19513E-002
  4.50560E+000	 -8.39366E-003	  8.80433E-003	 -8.73513E-003	  1.57936E-002
  4.91520E+000	  5.43185E-003	  2.27125E-003	  1.49884E-003	  9.01606E-003
  5.32480E+000	  1.38435E-002	  2.77081E-003	  7.51657E-003	  1.24712E-002
  5.73440E+000	  5.98439E-003	  6.30079E-003	  9.65730E-003	  1.84901E-003
  6.14400E+000	  2.09040E-003	  1.50869E-002	  9.30800E-003	 -1.55421E-002
  6.55360E+000	  6.12558E-003	  1.20790E-002	  6.13820E-003	 -1.57257E-002
  7.37280E+000	  1.55465E-002	  9.02715E-003	  6.66704E-003	 -1.22518E-002
  8.19200E+000	  1.40204E-002	 -1.69074E-003	  5.37943E-003	 -1.32508E-002
  9.01120E+000	  1.08603E-002	 -1.27006E-002	  2.55984E-003	 -6.55607E-003
  9.83040E+000	  3.09490E-003	 -7.56834E-003	  2.03166E-003	 -2.25655E-003
  1.06496E+001	 -1.05765E-002	  3.05794E-003	  1.34780E-002	  1.30683E-003
  1.14688E+001	  9.88331E-003	  3.51670E-003	  1.38906E-002	 -7.28957E-003
  1.22880E+001	  1.02279E-002	 -1.97034E-005	 -1.55155E-003	  2.55929E-004
  1.31072E+001	 -6.87998E-003	  2.85831E-003	 -1.19964E-002	  1.04419E-002
  1.47456E+001	  1.93387E-003	  3.49456E-003	 -4.97110E-003	  1.28452E-002
  1.63840E+001	 -1.15070E-003	 -4.91969E-003	 -6.24471E-003	  4.06333E-003
  1.80224E+001	  6.01375E-004	 -1.06366E-002	  1.00456E-003	  5.69678E-003
  1.96608E+001	  1.58742E-002	 -3.28452E-003	 -1.74570E-003	 -2.55068E-003
  2.12992E+001	  1.65759E-003	  5.55471E-003	  5.15363E-003	  6.95408E-003
  2.29376E+001	  2.93526E-004	  1.42918E-003	 -1.26950E-002	  7.80793E-003
  2.45760E+001	 -1.92058E-003	  1.30400E-002	 -1.23280E-002	  5.25709E-003
  2.62144E+001	 -4.56577E-003	  1.78082E-002	 -7.81710E-003	 -3.14280E-003
  2.94912E+001	  3.00005E-003	  1.94375E-002	 -1.11347E-002	 -5.19425E-003
  3.27680E+001	 -1.46053E-003	  1.50090E-002	 -3.36229E-003	 -1.86544E-003
  3.60448E+001	 -4.22695E-003	 -3.54500E-003	  2.89702E-003	  2.24473E-003
  3.93216E+001	 -7.21408E-003	  1.14316E-003	  2.68702E-005	  9.01596E-003
  4.25984E+001	  1.79838E-003	  1.54817E-003	 -4.14925E-003	  1.11322E-002
  4.58752E+001	  5.34051E-003	  1.50946E-003	  4.88404E-003	  2.15569E-003
  4.91520E+001	 -4.62006E-003	  3.67015E-004	 -3.40442E-003	 -1.08080E-002
  5.24288E+001	  4.63858E-003	  6.51625E-003	 -2.48068E-003	  3.36533E-003
  5.89824E+001	 -5.52864E-003	  1.78498E-002	 -1.95082E-003	  8.10367E-003
  6.55360E+001	 -3.68241E-003	 -2.67267E-003	  7.46602E-004	  3.99302E-003
  7.20896E+001	 -4.92984E-003	 -5.01556E-004	  2.77193E-003	 -2.64129E-003
  7.86432E+001	 -3.07191E-003	 -5.56802E-003	 -1.66746E-003	  2.21991E-003
  8.51968E+001	 -3.77664E-003	  3.41487E-003	  4.51780E-005	  2.41716E-004
  9.17504E+001	 -1.11489E-002	  1.02452E-002	 -2.83831E-003	  8.88809E-004
  9.83040E+001	 -4.01894E-003	 -4.16471E-003	  9.96074E-004	  6.87417E-003
  1.04858E+002	 -1.72573E-004	 -9.60050E-003	  2.66541E-003	  8.14174E-004
  1.17965E+002	  1.34717E-003	  5.76070E-003	  4.15595E-004	 -2.15059E-003
  1.31072E+002	 -1.24612E-003	 -9.33037E-003	  2.52852E-003	  1.21283E-003
  1.44179E+002	 -2.94640E-003	  6.21318E-004	  3.05780E-003	 -5.11613E-003
  1.57286E+002	  4.18568E-003	 -8.54005E-003	  1.05490E-003	 -3.16908E-003
  1.70394E+002	 -3.29466E-004	 -1.74144E-003	 -1.63546E-003	 -3.27367E-003
  1.83501E+002	 -1.55794E-003	  5.00252E-004	 -8.96210E-003	  6.38077E-003
  1.96608E+002	  6.13948E-003	 -2.45690E-003	 -1.55004E-003	 -6.50531E-003
  2.09715E+002	 -1.12050E-005	 -2.81465E-003	  9.97959E-004	 -4.68081E-003
  2.35930E+002	 -2.31255E-003	 -1.68035E-004	 -1.47352E-003	 -3.98417E-003
  2.62144E+002	 -2.16654E-003	 -1.40127E-003	  1.26579E-003	 -6.92459E-003
  2.88358E+002	  1.79093E-003	  4.65307E-003	  1.17807E-003	 -6.41333E-004
  3.14573E+002	  7.20981E-003	 -8.46750E-004	 -4.28732E-003	 -6.97189E-003
  3.40787E+002	 -3.15296E-003	 -3.24741E-003	  2.09857E-003	 -3.60369E-003
  3.67002E+002	  2.43480E-003	 -1.95745E-003	  1.82310E-003	 -4.33261E-004
  3.93216E+002	 -3.79588E-003	 -4.56796E-003	 -9.86318E-004	 -7.66349E-004

"Count Rate"
       0.01311	     137.48169	     103.30200	      92.54456	     124.96948
       0.02621	     176.08643	     147.01843	      98.11401	      97.42737
       0.03932	      98.34290	      73.47107	     109.71069	      90.94238
       0.05243	     141.52527	     135.80322	     112.07581	     136.41357
       0.06554	     129.54712	     140.76233	     145.79773	     113.14392
       0.07864	     110.24475	     124.89319	      94.37561	      88.72986
       0.09175	     119.09485	     132.06482	     130.23376	     118.94226
       0.10486	     138.85498	     116.34827	     110.85510	     123.97766
       0.11796	     109.48181	     138.77869	     104.52271	     128.25012
       0.13107	      94.68079	     147.93396	     104.37012	     113.52539
       0.14418	     152.74048	     108.41370	     117.49268	     138.09204
       0.15729	     151.97754	     154.03748	     133.20923	     126.34277
       0.17039	     156.93665	     110.47363	     138.39722	     125.96130
       0.18350	     147.55249	     141.37268	      99.41101	     166.01563
       0.19661	     176.16272	     148.23914	      90.25574	     113.14392
       0.20972	     161.43799	     158.92029	     124.05396	     133.97217
       0.22282	     162.12463	     137.93945	     125.96130	     165.10010
       0.23593	     109.86328	     124.13025	     100.63171	     158.61511
       0.24904	      94.22302	     209.73206	     115.43274	      94.45190
       0.26214	     119.62891	     106.27747	     151.90125	      99.41101
       0.27525	     144.57703	     172.50061	     116.72974	     135.26917
       0.28836	      87.73804	     108.64258	     110.39734	     106.65894
       0.30147	     162.12463	     206.68030	     107.57446	     162.27722
       0.31457	     151.51978	      94.14673	     104.44641	     117.41638
       0.32768	     128.47900	     106.88782	     101.47095	     138.54980
       0.34079	     110.62622	     120.39185	     145.11108	     109.48181
       0.35389	     110.01587	     103.45459	     107.11670	      94.75708
       0.36700	     110.09216	     123.82507	     120.62073	     118.63708
       0.38011	     118.10303	      98.72437	     158.76770	     128.40271
       0.39322	     125.04578	     120.46814	      85.90698	     101.16577
       0.40632	     134.65881	      99.86877	     137.02393	     142.44080
       0.41943	     144.19556	     127.33459	     151.82495	     109.93958
       0.43254	     117.64526	     110.70251	     134.04846	      98.03772
       0.44564	     112.76245	      99.94507	      95.13855	      95.13855
       0.45875	     148.16284	      89.03503	      85.98328	     142.44080
       0.47186	     153.88489	     101.54724	     111.99951	      96.66443
       0.48497	     146.25549	     126.19019	     149.30725	     113.83057
       0.49807	     146.17920	     136.10840	     118.86597	     117.72156
       0.51118	     118.40820	     126.95313	     108.26111	     144.19556
       0.52429	     146.94214	     117.49268	     125.35095	     106.65894
       0.53740	     131.37817	     118.71338	     118.63708	      85.29663
       0.55050	     110.09216	     120.31555	     111.46545	     126.95313
       0.56361	      89.79797	     122.14661	     116.42456	     127.02942
       0.57672	     129.47083	     114.36462	      82.93152	      92.77344
       0.58982	     116.19568	     148.16284	      95.44373	     110.93140
       0.60293	     106.04858	     128.25012	      93.76526	      86.59363
       0.61604	     121.30737	     126.41907	     102.69165	     113.29651
       0.62915	     104.06494	     132.59888	     155.71594	     119.24744
       0.64225	     148.01025	     103.60718	     100.70801	     114.05945
       0.65536	     102.61536	     116.95862	     109.10034	     103.22571
       0.66847	     143.43262	     103.98865	     116.04309	     121.84143
       0.68157	     131.53076	     121.61255	     107.42188	     170.66956
       0.69468	     169.83032	     100.63171	     136.26099	     154.03748
       0.70779	     128.78418	      96.66443	     102.53906	     141.06750
       0.72090	     132.14111	     113.52539	      91.24756	     113.22021
       0.73400	     106.58264	     111.00769	     109.02405	     114.59351
       0.74711	      79.34570	     127.94495	     112.15210	     154.57153
