ALV-7004/USB-FAST
Date :	"3/14/2024"
Time :	"12:35:55 PM"
Samplename : 	""
SampMemo(0) : 	""
SampMemo(1) : 	""
SampMemo(2) : 	""
SampMemo(3) : 	""
SampMemo(4) : 	""
SampMemo(5) : 	""
SampMemo(6) : 	""
SampMemo(7) : 	""
SampMemo(8) : 	""
SampMemo(9) : 	""
Temperature [K] :	     298.16000
Viscosity [cp]  :	       0.89000
Refractive Index:	       1.33200
Wavelength [nm] :	       0.00000
Angle [°]       :	       0.00000
Duration [s]    :	         1
FloatDur [ms]   :	          944
Stop TP [ms]   :	      3928
Runs            :	         1
Mode            :	"A-CH0+1  A-CH2+3 "
MeanCR0 [kHz]   :	     127.45963
MeanCR1 [kHz]   :	     124.27013
MeanCR2 [kHz]   :	     118.01720
MeanCR3 [kHz]   :	     120.74788

"Correlation"
  3.12500E-006	 -1.00000E+000	 -1.00000E+000	 -1.00000E+000	 -1.00000E+000
  6.25000E-006	 -1.00000E+000	 -1.00000E+000	 -1.00000E+000	 -1.00000E+000
  9.37500E-006	 -1.00000E+000	 -1.00000E+000	 -1.00000E+000	 -1.00000E+000
  1.25000E-005	 -1.00000E+000	 -1.00000E+000	 -1.00000E+000	 -1.00000E+000
  1.56250E-005	 -1.00000E+000	 -1.00000E+000	 -1.00000E+000	 -1.00000E+000
  1.87500E-005	 -1.00000E+000	 -1.00000E+000	 -1.00000E+000	 -1.00000E+000
  2.18750E-005	 -8.95640E-001	 -5.60859E-001	 -2.20947E-001	 -9.76743E-001
  2.50000E-005	  5.47029E+000	  5.45537E+000	  5.45153E+000	  1.19306E+001
  2.81250E-005	  1.48376E+000	  1.08592E+000	  1.41019E+000	  5.18623E+000
  3.12500E-005	  7.11497E-001	  9.32221E-001	  8.98941E-001	  2.81407E+000
  3.43750E-005	  1.12893E+000	  1.08592E+000	  4.85070E-001	  1.67450E+000
  3.75000E-005	  7.53241E-001	  2.73509E-001	  6.31142E-001	  1.23263E+000
  4.06250E-005	  4.81906E-001	  4.71123E-001	  9.71978E-001	  1.37216E+000
  4.37500E-005	  6.90625E-001	  7.78521E-001	  8.98941E-001	  1.41868E+000
  4.68750E-005	  3.14930E-001	  6.02865E-001	  7.28523E-001	  1.00006E+000
  5.00000E-005	  6.17573E-001	  6.13843E-001	  5.09415E-001	  1.22100E+000
  5.62500E-005	  4.71470E-001	  4.60144E-001	  2.65961E-001	  1.03495E+000
  6.25000E-005	  6.80189E-001	  6.13843E-001	  4.12033E-001	  1.09309E+000
  6.87500E-005	  5.23649E-001	  5.15037E-001	  6.79833E-001	  6.86097E-001
  7.50000E-005	  7.21933E-001	  6.02865E-001	  7.28523E-001	  8.25636E-001
  8.12500E-005	  4.61034E-001	  5.36994E-001	  6.06796E-001	  7.90752E-001
  8.75000E-005	  4.19290E-001	  4.05251E-001	  5.09415E-001	  8.25636E-001
  9.37500E-005	  5.13213E-001	  3.17423E-001	  4.36379E-001	  5.93071E-001
  1.00000E-004	  5.86265E-001	  4.38187E-001	  5.70278E-001	  6.10514E-001
  1.12500E-004	  5.60175E-001	  4.71122E-001	  6.37228E-001	  6.27956E-001
  1.25000E-004	  4.03636E-001	  5.26015E-001	  7.28523E-001	  6.51212E-001
  1.37500E-004	  4.81905E-001	  5.80908E-001	  5.33760E-001	  6.74469E-001
  1.50000E-004	  5.18431E-001	  4.82101E-001	  4.05947E-001	  4.88417E-001
  1.62500E-004	  5.81047E-001	  3.00955E-001	  5.03328E-001	  5.05859E-001
  1.75000E-004	  4.76687E-001	  4.49165E-001	  5.45933E-001	  4.82603E-001
  1.87500E-004	  4.76687E-001	  5.42483E-001	  4.30292E-001	  5.58186E-001
  2.00000E-004	  5.15822E-001	  4.90335E-001	  5.82451E-001	  5.02952E-001
  2.25000E-004	  4.47988E-001	  4.68378E-001	  4.88112E-001	  4.56439E-001
  2.50000E-004	  4.42770E-001	  4.84845E-001	  5.21587E-001	  5.81443E-001
  2.75000E-004	  5.02777E-001	  5.39738E-001	  5.45932E-001	  4.88416E-001
  3.00000E-004	  5.34085E-001	  5.12292E-001	  4.54637E-001	  5.58186E-001
  3.25000E-004	  5.75829E-001	  4.93079E-001	  5.79407E-001	  4.53532E-001
  3.50000E-004	  5.47130E-001	  4.73867E-001	  4.85069E-001	  5.14580E-001
  3.75000E-004	  5.34085E-001	  5.56206E-001	  6.43314E-001	  4.68067E-001
  4.00000E-004	  4.67555E-001	  5.49343E-001	  5.00284E-001	  5.21847E-001
  4.50000E-004	  5.15821E-001	  4.53281E-001	  4.45507E-001	  5.26208E-001
  5.00000E-004	  4.25811E-001	  4.23090E-001	  5.10935E-001	  5.26208E-001
  5.50000E-004	  4.62337E-001	  4.61515E-001	  5.12457E-001	  5.42197E-001
  6.00000E-004	  4.49292E-001	  5.64439E-001	  4.91155E-001	  4.50624E-001
  6.50000E-004	  4.17984E-001	  4.98568E-001	  4.36378E-001	  5.26208E-001
  7.00000E-004	  4.27116E-001	  4.99940E-001	  4.34856E-001	  4.76788E-001
  7.50000E-004	  4.63642E-001	  4.62888E-001	  4.59201E-001	  4.65159E-001
  8.00000E-004	  4.89078E-001	  4.81413E-001	  4.85067E-001	  4.10676E-001
  9.00000E-004	  4.74729E-001	  5.26699E-001	  5.47466E-001	  4.38280E-001
  1.00000E-003	  4.52552E-001	  4.71120E-001	  5.10187E-001	  4.78253E-001
  1.10000E-003	  4.94296E-001	  4.37499E-001	  5.16273E-001	  4.91335E-001
  1.20000E-003	  4.97557E-001	  5.02683E-001	  4.90406E-001	  4.60810E-001
  1.30000E-003	  4.64945E-001	  4.67003E-001	  4.47801E-001	  4.62991E-001
  1.40000E-003	  4.82555E-001	  5.53459E-001	  4.68343E-001	  4.73892E-001
  1.50000E-003	  4.06895E-001	  4.77982E-001	  4.96492E-001	  4.20111E-001
  1.60000E-003	  4.45049E-001	  4.76264E-001	  5.00674E-001	  4.69918E-001
  1.80000E-003	  4.40809E-001	  4.59453E-001	  5.12086E-001	  4.81183E-001
  2.00000E-003	  4.79618E-001	  4.61855E-001	  5.17412E-001	  4.84078E-001
  2.20000E-003	  4.69834E-001	  4.59110E-001	  4.83937E-001	  4.79717E-001
  2.40000E-003	  4.38200E-001	  4.83812E-001	  5.36812E-001	  4.76083E-001
  2.60000E-003	  4.59398E-001	  4.60482E-001	  5.28063E-001	  4.99690E-001
  2.80000E-003	  4.45049E-001	  5.01995E-001	  4.76709E-001	  4.93513E-001
  3.00000E-003	  4.38526E-001	  4.85870E-001	  5.45561E-001	  4.84791E-001
  3.20000E-003	  4.53384E-001	  4.72828E-001	  4.94243E-001	  4.57558E-001
  3.60000E-003	  4.66442E-001	  4.86723E-001	  5.06225E-001	  4.79193E-001
  4.00000E-003	  4.77204E-001	  4.35261E-001	  5.06035E-001	  4.75195E-001
  4.40000E-003	  4.54538E-001	  4.49156E-001	  4.93672E-001	  4.52133E-001
  4.80000E-003	  4.42471E-001	  4.64594E-001	  4.75793E-001	  4.45228E-001
  5.20000E-003	  4.50298E-001	  4.61335E-001	  4.93862E-001	  4.72652E-001
  5.60000E-003	  4.82259E-001	  4.36805E-001	  5.10030E-001	  4.53210E-001
  6.00000E-003	  4.66278E-001	  4.85878E-001	  4.44980E-001	  4.70277E-001
  6.40000E-003	  4.65025E-001	  4.58888E-001	  4.80007E-001	  4.62765E-001
  7.20000E-003	  4.38677E-001	  4.55199E-001	  4.77413E-001	  4.47866E-001
  8.00000E-003	  4.62962E-001	  4.69438E-001	  4.81692E-001	  4.61311E-001
  8.80000E-003	  4.45351E-001	  4.60088E-001	  5.01474E-001	  4.78209E-001
  9.60000E-003	  4.63533E-001	  4.51181E-001	  4.58392E-001	  4.68579E-001
  1.04000E-002	  4.57907E-001	  4.64218E-001	  4.90727E-001	  4.59676E-001
  1.12000E-002	  4.39480E-001	  4.42432E-001	  4.75429E-001	  4.65958E-001
  1.20000E-002	  4.39807E-001	  4.61731E-001	  4.91705E-001	  4.62038E-001
  1.28000E-002	  4.37868E-001	  4.52363E-001	  4.81792E-001	  4.58643E-001
  1.44000E-002	  4.41281E-001	  4.51180E-001	  4.68810E-001	  4.65729E-001
  1.60000E-002	  4.45439E-001	  4.40973E-001	  4.64435E-001	  4.59311E-001
  1.76000E-002	  4.56692E-001	  4.48895E-001	  4.66683E-001	  4.46956E-001
  1.92000E-002	  4.62620E-001	  4.46836E-001	  4.53415E-001	  4.61369E-001
  2.08000E-002	  4.46015E-001	  4.49666E-001	  4.57989E-001	  4.45469E-001
  2.24000E-002	  4.40226E-001	  4.50824E-001	  4.46399E-001	  4.49525E-001
  2.40000E-002	  4.34233E-001	  4.33596E-001	  4.46399E-001	  4.48571E-001
  2.56000E-002	  4.36330E-001	  4.29004E-001	  4.57644E-001	  4.40678E-001
  2.88000E-002	  4.34504E-001	  4.33251E-001	  4.49831E-001	  4.33725E-001
  3.20000E-002	  4.19855E-001	  4.28566E-001	  4.38383E-001	  4.41867E-001
  3.52000E-002	  4.14560E-001	  4.20267E-001	  4.38513E-001	  4.15768E-001
  3.84000E-002	  4.06997E-001	  4.05406E-001	  4.35932E-001	  4.24218E-001
  4.16000E-002	  4.07474E-001	  4.06766E-001	  4.20964E-001	  4.12394E-001
  4.48000E-002	  4.01335E-001	  3.96568E-001	  4.21939E-001	  4.14188E-001
  4.80000E-002	  3.94545E-001	  3.96739E-001	  4.14648E-001	  4.15937E-001
  5.12000E-002	  3.85758E-001	  3.90480E-001	  4.08498E-001	  4.02017E-001
  5.76000E-002	  3.85411E-001	  3.80474E-001	  4.02518E-001	  4.00719E-001
  6.40000E-002	  3.70087E-001	  3.77715E-001	  3.87583E-001	  3.84317E-001
  7.04000E-002	  3.61329E-001	  3.73707E-001	  3.82388E-001	  3.74368E-001
  7.68000E-002	  3.56762E-001	  3.62855E-001	  3.66287E-001	  3.64826E-001
  8.32000E-002	  3.39074E-001	  3.56144E-001	  3.61507E-001	  3.55907E-001
  8.96000E-002	  3.29460E-001	  3.43058E-001	  3.47132E-001	  3.44174E-001
  9.60000E-002	  3.25941E-001	  3.33343E-001	  3.42876E-001	  3.32906E-001
  1.02400E-001	  3.17782E-001	  3.29574E-001	  3.36366E-001	  3.28330E-001
  1.15200E-001	  3.03518E-001	  3.14582E-001	  3.17929E-001	  3.05605E-001
  1.28000E-001	  2.80348E-001	  2.98096E-001	  3.03225E-001	  2.94465E-001
  1.40800E-001	  2.68363E-001	  2.86475E-001	  2.89175E-001	  2.81325E-001
  1.53600E-001	  2.55141E-001	  2.69913E-001	  2.75096E-001	  2.63312E-001
  1.66400E-001	  2.46684E-001	  2.59080E-001	  2.63471E-001	  2.51185E-001
  1.79200E-001	  2.31224E-001	  2.47892E-001	  2.48025E-001	  2.39394E-001
  1.92000E-001	  2.16346E-001	  2.38609E-001	  2.37074E-001	  2.34430E-001
  2.04800E-001	  2.09688E-001	  2.26927E-001	  2.24776E-001	  2.18485E-001
  2.30400E-001	  1.86542E-001	  2.13841E-001	  2.07918E-001	  1.97228E-001
  2.56000E-001	  1.70415E-001	  1.94984E-001	  1.85661E-001	  1.78308E-001
  2.81600E-001	  1.51606E-001	  1.76287E-001	  1.68245E-001	  1.60910E-001
  3.07200E-001	  1.34251E-001	  1.65161E-001	  1.59860E-001	  1.52349E-001
  3.32800E-001	  1.23241E-001	  1.51004E-001	  1.41303E-001	  1.39732E-001
  3.58400E-001	  1.12339E-001	  1.39155E-001	  1.29785E-001	  1.28450E-001
  3.84000E-001	  1.00375E-001	  1.28268E-001	  1.19667E-001	  1.19282E-001
  4.09600E-001	  9.63947E-002	  1.17337E-001	  1.08632E-001	  1.12922E-001
  4.60800E-001	  8.60416E-002	  1.02427E-001	  8.78494E-002	  9.51821E-002
  5.12000E-001	  7.61279E-002	  8.35522E-002	  7.55880E-002	  8.29165E-002
  5.63200E-001	  6.61435E-002	  7.13088E-002	  6.37337E-002	  7.31703E-002
  6.14400E-001	  5.79987E-002	  6.10264E-002	  5.51553E-002	  6.45832E-002
  6.65600E-001	  5.22264E-002	  5.50705E-002	  4.94085E-002	  5.83119E-002
  7.16800E-001	  4.64127E-002	  4.63692E-002	  3.95278E-002	  5.20119E-002
  7.68000E-001	  4.10749E-002	  4.43216E-002	  3.35417E-002	  4.76971E-002
  8.19200E-001	  3.78201E-002	  4.15008E-002	  2.74767E-002	  4.27344E-002
  9.21600E-001	  3.45840E-002	  3.49648E-002	  1.61106E-002	  3.56064E-002
  1.02400E+000	  2.62785E-002	  2.74470E-002	  1.10879E-002	  2.79840E-002
  1.12640E+000	  2.30045E-002	  2.56812E-002	  8.27259E-003	  2.47490E-002
  1.22880E+000	  2.39907E-002	  2.21071E-002	  6.46905E-003	  2.35971E-002
  1.33120E+000	  1.89954E-002	  1.76506E-002	  5.10251E-003	  2.72789E-002
  1.43360E+000	  1.57238E-002	  1.12684E-002	  7.12231E-003	  2.78344E-002
  1.53600E+000	  9.66476E-003	  1.11636E-002	  3.75416E-003	  2.49544E-002
  1.63840E+000	  5.88748E-003	  1.34849E-002	  2.72374E-003	  2.33946E-002
  1.84320E+000	  2.32759E-003	  1.28669E-002	 -7.74644E-003	  1.46614E-002
  2.04800E+000	 -2.74896E-003	  5.14674E-003	 -1.06161E-002	  7.54987E-003
  2.25280E+000	 -1.55200E-002	  6.61707E-003	 -6.96626E-003	  7.70522E-003
  2.45760E+000	 -2.29877E-002	  1.79135E-002	  1.72215E-003	  1.41447E-002
  2.66240E+000	 -1.82481E-002	  2.29855E-002	  4.99805E-003	  5.98459E-003
  2.86720E+000	 -1.47719E-002	  1.83866E-002	  3.40253E-003	 -9.47063E-004
  3.07200E+000	 -3.60021E-003	  1.17854E-002	  7.15474E-003	 -4.97764E-003
  3.27680E+000	  5.79553E-004	  1.15172E-002	  2.47246E-003	 -6.47178E-003
  3.68640E+000	 -4.78085E-003	  1.22853E-002	  3.56936E-003	 -9.52149E-005
  4.09600E+000	  7.26307E-004	  8.04099E-003	  7.85565E-003	  7.00003E-003
  4.50560E+000	 -3.34319E-003	 -6.69025E-004	  2.41572E-003	  7.09786E-003
  4.91520E+000	 -1.01525E-002	 -4.23020E-003	  1.02426E-003	  8.83891E-003
  5.32480E+000	 -2.16380E-002	 -6.95944E-003	  4.00391E-003	  6.46053E-003
  5.73440E+000	 -2.44485E-002	  3.59417E-003	  5.31479E-003	  2.60744E-003
  6.14400E+000	 -2.26793E-002	  6.65644E-003	  4.71557E-003	  1.99625E-003
  6.55360E+000	 -1.87214E-002	  6.99141E-003	  5.19836E-003	  1.29609E-002
  7.37280E+000	 -7.56114E-003	  5.46101E-003	  2.82300E-003	  8.85597E-003
  8.19200E+000	  3.33500E-003	 -2.90709E-004	  1.79945E-003	  1.03429E-002
  9.01120E+000	 -5.96323E-004	 -3.33157E-004	 -9.86427E-003	  8.12601E-003
  9.83040E+000	  6.18174E-003	 -1.01183E-002	 -5.86821E-003	  5.16005E-003
  1.06496E+001	  1.06344E-002	 -5.13379E-003	 -6.09752E-003	  2.31389E-003
  1.14688E+001	  8.22678E-003	 -2.54734E-004	 -2.70036E-003	 -4.49300E-003
  1.22880E+001	  8.26627E-003	 -1.58289E-003	 -2.00371E-003	 -4.87635E-003
  1.31072E+001	  4.92526E-003	  2.12015E-003	  3.70717E-003	 -5.52814E-003
  1.47456E+001	 -6.87313E-003	  7.13130E-004	 -6.51903E-003	  9.11692E-004
  1.63840E+001	 -3.88060E-003	 -5.83383E-003	 -8.39181E-003	 -1.51974E-003
  1.80224E+001	 -4.14789E-003	 -1.11719E-002	 -7.72316E-003	  1.13751E-002
  1.96608E+001	  9.67000E-003	  2.81417E-003	 -7.22409E-003	  9.64675E-004
  2.12992E+001	  9.67158E-003	  3.50969E-003	  5.93218E-003	  7.76146E-004
  2.29376E+001	  1.19135E-002	  1.41813E-002	  1.36174E-003	 -5.73605E-003
  2.45760E+001	  7.47256E-003	 -2.08568E-003	  3.61987E-003	 -1.35527E-003
  2.62144E+001	 -3.45751E-003	 -3.69406E-005	  2.55118E-003	  2.55861E-003
  2.94912E+001	 -3.95508E-003	 -3.23961E-003	 -5.10796E-003	  3.89473E-003
  3.27680E+001	  1.17719E-002	 -4.90395E-003	  2.25614E-003	  5.79324E-003
  3.60448E+001	 -4.11204E-003	 -5.15944E-003	 -1.69308E-003	 -4.32902E-003
  3.93216E+001	  8.89204E-004	 -1.73828E-003	  1.25873E-003	  2.73744E-003
  4.25984E+001	  4.68928E-003	  1.07722E-002	 -3.55363E-004	 -9.95303E-003
  4.58752E+001	 -4.26471E-003	  6.68864E-003	  8.30343E-003	 -2.20979E-003
  4.91520E+001	  4.05126E-003	  6.02822E-003	 -4.00466E-003	 -1.93626E-003
  5.24288E+001	  2.86641E-003	 -2.40875E-003	  3.30928E-003	  8.30233E-003
  5.89824E+001	 -1.71464E-003	 -5.07190E-003	  1.43049E-003	 -4.74504E-003
  6.55360E+001	  1.74821E-003	  7.44374E-003	 -7.94415E-003	 -3.71786E-003
  7.20896E+001	 -2.40532E-003	 -2.43066E-003	 -1.43540E-003	  6.17795E-004
  7.86432E+001	  3.43288E-003	 -6.63318E-003	  6.56663E-003	  1.70509E-004
  8.51968E+001	 -5.96025E-003	  1.77871E-003	 -6.06132E-003	 -3.96191E-003
  9.17504E+001	  4.32348E-003	  1.35262E-003	 -3.80826E-003	 -4.92159E-003
  9.83040E+001	  3.27827E-003	 -2.12362E-003	  6.05958E-003	 -1.35213E-003
  1.04858E+002	  1.77127E-003	 -1.18454E-004	  3.31069E-003	 -1.98276E-003
  1.17965E+002	  4.21437E-004	 -1.49144E-004	  3.88798E-003	 -4.23134E-003
  1.31072E+002	 -3.64881E-003	 -4.58538E-003	 -2.37041E-003	  4.09818E-003
  1.44179E+002	 -1.23936E-003	 -7.55766E-003	 -1.44227E-004	 -3.95098E-003
  1.57286E+002	 -1.30397E-003	 -1.64028E-003	  2.21364E-003	 -3.94132E-003
  1.70394E+002	 -9.15402E-004	 -5.44298E-003	 -1.75716E-003	  4.39734E-003
  1.83501E+002	 -3.43771E-003	 -2.32569E-003	  2.63304E-003	  9.08757E-003
  1.96608E+002	 -4.64166E-003	  1.06177E-003	  2.07042E-003	 -6.01592E-003
  2.09715E+002	 -3.19168E-003	 -1.10837E-004	 -2.69123E-004	 -4.65318E-004
  2.35930E+002	 -4.44049E-003	 -5.20381E-004	  1.94913E-003	  3.62872E-003
  2.62144E+002	  2.25998E-004	  7.47222E-004	 -3.21020E-003	  1.25421E-003
  2.88358E+002	 -2.61106E-003	  8.86778E-004	 -6.84866E-004	  1.06020E-003
  3.14573E+002	 -2.62666E-004	  1.33171E-003	 -3.28209E-004	  4.85337E-003
  3.40787E+002	 -2.25414E-003	  6.01697E-004	  7.38585E-004	 -7.05970E-003
  3.67002E+002	  1.58554E-003	  2.38164E-004	 -4.36457E-003	 -1.64230E-003
  3.93216E+002	 -1.49292E-004	  2.67028E-003	  7.75970E-004	 -1.56271E-003

"Count Rate"
       0.01311	     142.21191	     108.79517	      88.11951	     141.75415
       0.02621	     117.03491	     137.40540	     122.60437	     118.63708
       0.03932	     132.52258	     123.97766	      89.64539	     116.88232
       0.05243	     114.97498	     148.69690	     132.98035	     112.07581
       0.06554	     123.44360	      94.75708	      99.56360	     124.05396
       0.07864	     129.01306	     102.53906	     117.41638	     118.78967
       0.09175	     114.44092	      80.10864	     131.30188	     120.16296
       0.10486	     112.76245	     129.77600	      87.12769	     107.42188
       0.11796	     135.19287	     157.47070	     110.62622	     115.20386
       0.13107	     131.91223	     111.16028	     120.23926	      83.46558
       0.14418	     136.33728	     139.46533	     133.89587	      95.74890
       0.15729	     126.11389	     174.94202	      88.65356	      82.01599
       0.17039	     134.42993	     127.10571	     143.89038	     107.72705
       0.18350	     119.40002	      92.23938	     125.04578	     156.55518
       0.19661	     121.61255	     127.41089	     116.80603	     110.62622
       0.20972	     141.44897	     121.53625	     104.37012	     102.99683
       0.22282	     142.13562	     137.55798	     113.22021	     118.25562
       0.23593	     159.14917	     107.57446	      98.72437	     110.77881
       0.24904	     120.84961	     102.76794	      90.94238	     113.37280
       0.26214	     111.16028	     124.89319	     108.18481	     143.58521
       0.27525	     116.88232	     109.55811	     113.90686	     112.45728
       0.28836	     133.66699	      87.05139	     136.03210	     108.87146
       0.30147	      92.01050	      71.02966	      98.26660	      91.70532
       0.31457	     110.16846	     115.81421	     111.16028	     146.17920
       0.32768	     117.03491	     100.78430	      89.64539	      93.68896
       0.34079	     100.47913	     108.71887	     107.26929	     112.15210
       0.35389	      97.27478	     150.22278	      95.67261	     149.84131
       0.36700	     129.31824	      89.87427	     118.10303	     133.51440
       0.38011	     107.57446	     129.24194	     131.37817	      90.33203
       0.39322	     110.93140	     122.52808	     137.71057	      89.03503
       0.40632	     124.05396	      96.20667	     112.22839	     137.10022
       0.41943	     111.00769	     153.88489	     116.11938	     117.03491
       0.43254	     130.38635	     107.42188	     107.26929	     116.57715
       0.44564	     105.74341	     165.48157	     170.05920	      84.83887
       0.45875	      96.28296	     112.38098	      94.07043	     115.50903
       0.47186	     128.32642	     128.63159	     108.18481	     123.06213
       0.48497	     116.11938	     132.06482	     111.84692	     142.13562
       0.49807	     151.97754	     113.22021	     107.04041	     148.46802
       0.51118	     129.24194	     129.47083	     117.26379	     108.10852
       0.52429	     131.45447	     126.87683	     136.10840	     122.52808
       0.53740	     154.03748	     128.86047	      90.71350	     172.11914
       0.55050	     144.04297	     110.01587	     125.96130	      88.95874
       0.56361	     112.76245	     131.22559	     139.54163	     135.65063
       0.57672	     121.38367	     118.40820	     125.57983	      97.42737
       0.58982	     134.20105	     129.62341	     134.50623	     137.48169
       0.60293	     118.94226	     118.56079	     130.76782	     115.66162
       0.61604	     145.18738	     108.41370	     119.85779	     134.58252
       0.62915	     111.92322	     131.45447	     157.62329	      87.81433
       0.64225	     145.56885	     128.17383	     126.19019	     103.22571
       0.65536	     128.55530	     124.58801	      86.51733	     104.06494
       0.66847	     117.03491	     106.50635	     123.06213	     149.15466
       0.68157	     131.91223	     117.18750	     113.60168	     110.32104
       0.69468	     136.79504	     137.93945	     104.52271	     102.84424
       0.70779	     144.19556	     125.96130	     126.34277	     134.88770
       0.72090	     127.71606	     109.02405	     122.60437	     132.06482
       0.73400	     111.08398	     102.76794	     130.23376	     119.40002
       0.74711	     116.42456	     128.70789	     130.46265	     144.95850
