ALV-7004/USB-FAST
Date :	"3/14/2024"
Time :	"12:35:42 PM"
Samplename : 	""
SampMemo(0) : 	""
SampMemo(1) : 	""
SampMemo(2) : 	""
SampMemo(3) : 	""
SampMemo(4) : 	""
SampMemo(5) : 	""
SampMemo(6) : 	""
SampMemo(7) : 	""
SampMemo(8) : 	""
SampMemo(9) : 	""
Temperature [K] :	     298.16000
Viscosity [cp]  :	       0.89000
Refractive Index:	       1.33200
Wavelength [nm] :	       0.00000
Angle [°]       :	       0.00000
Duration [s]    :	         1
FloatDur [ms]   :	          944
Stop TP [ms]   :	      3921
Runs            :	         1
Mode            :	"A-CH0+1  A-CH2+3 "
MeanCR0 [kHz]   :	     119.01538
MeanCR1 [kHz]   :	     120.29859
MeanCR2 [kHz]   :	     115.60546
MeanCR3 [kHz]   :	     116.56549

"Correlation"
  3.12500E-006	 -1.00000E+000	 -1.00000E+000	 -1.00000E+000	 -1.00000E+000
  6.25000E-006	 -1.00000E+000	 -1.00000E+000	 -1.00000E+000	 -1.00000E+000
  9.37500E-006	 -1.00000E+000	 -1.00000E+000	 -1.00000E+000	 -1.00000E+000
  1.25000E-005	 -1.00000E+000	 -1.00000E+000	 -1.00000E+000	 -1.00000E+000
  1.56250E-005	 -1.00000E+000	 -1.00000E+000	 -1.00000E+000	 -1.00000E+000
  1.87500E-005	 -1.00000E+000	 -1.00000E+000	 -1.00000E+000	 -1.00000E+000
  2.18750E-005	 -8.56368E-001	 -4.14231E-001	 -3.58726E-002	 -9.25133E-001
  2.50000E-005	  6.08587E+000	  6.33383E+000	  5.90112E+000	  1.18272E+001
  2.81250E-005	  2.18385E+000	  1.08534E+000	  1.35958E+000	  4.26563E+000
  3.12500E-005	  9.39038E-001	  5.69861E-001	  7.76024E-001	  2.59360E+000
  3.43750E-005	  7.23590E-001	  8.51030E-001	  1.18197E+000	  1.94476E+000
  3.75000E-005	  4.84202E-001	  6.87015E-001	  8.01396E-001	  2.34405E+000
  4.06250E-005	  3.16631E-001	  5.46430E-001	  5.22306E-001	  1.42069E+000
  4.37500E-005	  5.56018E-001	  6.40153E-001	  6.23794E-001	  1.69520E+000
  4.68750E-005	  8.67222E-001	  6.40153E-001	  8.01396E-001	  1.64529E+000
  5.00000E-005	  4.24355E-001	  6.16722E-001	  7.63338E-001	  1.48308E+000
  5.62500E-005	  3.76478E-001	  4.52707E-001	  7.12595E-001	  1.14618E+000
  6.25000E-005	  7.95406E-001	  7.33876E-001	  6.49165E-001	  1.04636E+000
  6.87500E-005	  7.11620E-001	  3.58984E-001	  2.05159E-001	  1.07131E+000
  7.50000E-005	  5.91927E-001	  4.05846E-001	  4.71563E-001	  6.84501E-001
  8.12500E-005	  5.32080E-001	  3.12123E-001	  7.37966E-001	  6.96979E-001
  8.75000E-005	  6.51773E-001	  3.12123E-001	  6.74537E-001	  4.97334E-001
  9.37500E-005	  5.67988E-001	  6.05007E-001	  4.20819E-001	  7.59368E-001
  1.00000E-004	  4.36325E-001	  5.87434E-001	  4.33505E-001	  6.34590E-001
  1.12500E-004	  5.62003E-001	  6.34295E-001	  5.03277E-001	  6.59545E-001
  1.25000E-004	  4.18370E-001	  4.76138E-001	  5.28649E-001	  4.84856E-001
  1.37500E-004	  4.84202E-001	  3.76557E-001	  4.20819E-001	  5.22290E-001
  1.50000E-004	  5.44049E-001	  4.87853E-001	  5.22306E-001	  3.47601E-001
  1.62500E-004	  5.20110E-001	  4.64422E-001	  6.80880E-001	  5.47245E-001
  1.75000E-004	  4.12386E-001	  4.23419E-001	  5.73050E-001	  4.78617E-001
  1.87500E-004	  4.84202E-001	  5.22999E-001	  5.22306E-001	  6.09634E-001
  2.00000E-004	  5.32079E-001	  4.84924E-001	  4.84248E-001	  4.94214E-001
  2.25000E-004	  5.14125E-001	  3.97059E-001	  5.09620E-001	  4.81737E-001
  2.50000E-004	  6.21849E-001	  4.08774E-001	  2.97131E-001	  4.31825E-001
  2.75000E-004	  6.18857E-001	  5.90362E-001	  5.28649E-001	  5.28528E-001
  3.00000E-004	  6.45788E-001	  4.87853E-001	  3.57389E-001	  5.53484E-001
  3.25000E-004	  4.99163E-001	  3.56055E-001	  5.92078E-001	  3.60078E-001
  3.50000E-004	  5.32079E-001	  4.84924E-001	  5.76221E-001	  5.69081E-001
  3.75000E-004	  5.59010E-001	  4.93710E-001	  5.31820E-001	  4.41184E-001
  4.00000E-004	  5.15621E-001	  4.79066E-001	  5.34991E-001	  5.09811E-001
  4.50000E-004	  5.90429E-001	  4.43920E-001	  5.06448E-001	  5.08251E-001
  5.00000E-004	  5.81452E-001	  4.79066E-001	  5.12791E-001	  4.87975E-001
  5.50000E-004	  5.32079E-001	  4.84923E-001	  4.55704E-001	  4.69258E-001
  6.00000E-004	  4.51285E-001	  5.30320E-001	  5.17548E-001	  4.50541E-001
  6.50000E-004	  4.37820E-001	  4.07309E-001	  4.27161E-001	  5.33207E-001
  7.00000E-004	  4.04904E-001	  4.40991E-001	  4.43005E-001	  5.34766E-001
  7.50000E-004	  5.97910E-001	  4.79066E-001	  4.50934E-001	  4.72378E-001
  8.00000E-004	  5.56764E-001	  4.65885E-001	  4.65218E-001	  4.83294E-001
  9.00000E-004	  5.17864E-001	  5.07621E-001	  4.68389E-001	  4.63798E-001
  1.00000E-003	  5.20856E-001	  4.57830E-001	  4.45396E-001	  4.80955E-001
  1.10000E-003	  4.77467E-001	  4.79797E-001	  4.61253E-001	  4.15447E-001
  1.20000E-003	  5.02902E-001	  4.59295E-001	  4.49360E-001	  4.58339E-001
  1.30000E-003	  4.78963E-001	  4.38793E-001	  4.16060E-001	  4.62238E-001
  1.40000E-003	  5.11879E-001	  4.46115E-001	  5.27061E-001	  4.34943E-001
  1.50000E-003	  4.49788E-001	  4.35132E-001	  4.62033E-001	  4.82515E-001
  1.60000E-003	  4.86455E-001	  4.54167E-001	  4.57683E-001	  4.48978E-001
  1.80000E-003	  5.05157E-001	  4.56730E-001	  4.94961E-001	  5.12537E-001
  2.00000E-003	  5.11516E-001	  4.34397E-001	  4.77914E-001	  4.68475E-001
  2.20000E-003	  5.01042E-001	  4.76499E-001	  4.91790E-001	  4.81732E-001
  2.40000E-003	  4.87951E-001	  4.64052E-001	  5.05269E-001	  4.75883E-001
  2.60000E-003	  5.10768E-001	  4.67713E-001	  5.06854E-001	  5.00059E-001
  2.80000E-003	  5.00294E-001	  4.58926E-001	  4.29946E-001	  4.61066E-001
  3.00000E-003	  5.02913E-001	  4.32201E-001	  4.98926E-001	  4.72764E-001
  3.20000E-003	  5.33406E-001	  4.68296E-001	  4.99713E-001	  4.58930E-001
  3.60000E-003	  4.61963E-001	  4.54200E-001	  4.64827E-001	  4.63804E-001
  4.00000E-003	  4.87759E-001	  4.32966E-001	  4.65818E-001	  4.91684E-001
  4.40000E-003	  4.94866E-001	  4.49075E-001	  4.85243E-001	  4.45867E-001
  4.80000E-003	  5.08518E-001	  4.36993E-001	  4.72968E-001	  4.61074E-001
  5.20000E-003	  4.68683E-001	  4.69943E-001	  4.87239E-001	  4.50936E-001
  5.60000E-003	  4.75976E-001	  4.61339E-001	  4.92591E-001	  4.43332E-001
  6.00000E-003	  5.04030E-001	  4.56580E-001	  5.03890E-001	  4.72967E-001
  6.40000E-003	  5.06571E-001	  4.67880E-001	  4.75206E-001	  4.69656E-001
  7.20000E-003	  4.99184E-001	  4.23292E-001	  4.50328E-001	  4.44993E-001
  8.00000E-003	  5.03205E-001	  4.68220E-001	  4.69853E-001	  4.59615E-001
  8.80000E-003	  5.02270E-001	  4.54935E-001	  4.64105E-001	  4.49964E-001
  9.60000E-003	  4.54953E-001	  4.57864E-001	  4.60537E-001	  4.48782E-001
  1.04000E-002	  4.68966E-001	  4.40749E-001	  4.69768E-001	  4.50146E-001
  1.12000E-002	  4.78037E-001	  4.58871E-001	  4.59658E-001	  4.69740E-001
  1.20000E-002	  4.86640E-001	  4.56962E-001	  4.64812E-001	  4.38546E-001
  1.28000E-002	  4.75157E-001	  4.39091E-001	  4.60069E-001	  4.49714E-001
  1.44000E-002	  4.90667E-001	  4.44080E-001	  4.52113E-001	  4.30900E-001
  1.60000E-002	  4.63141E-001	  4.31357E-001	  4.48000E-001	  4.40795E-001
  1.76000E-002	  4.60757E-001	  4.25028E-001	  4.35943E-001	  4.25977E-001
  1.92000E-002	  4.54257E-001	  4.35293E-001	  4.45184E-001	  4.29633E-001
  2.08000E-002	  4.53509E-001	  4.31024E-001	  4.50834E-001	  4.23930E-001
  2.24000E-002	  4.59214E-001	  4.26813E-001	  4.33637E-001	  4.29035E-001
  2.40000E-002	  4.59247E-001	  4.13907E-001	  4.21842E-001	  4.14559E-001
  2.56000E-002	  4.57634E-001	  4.13453E-001	  4.19387E-001	  4.18681E-001
  2.88000E-002	  4.37448E-001	  4.17183E-001	  4.18866E-001	  4.00353E-001
  3.20000E-002	  4.25245E-001	  4.04266E-001	  4.09597E-001	  3.93628E-001
  3.52000E-002	  4.32001E-001	  3.89220E-001	  4.03661E-001	  3.94725E-001
  3.84000E-002	  4.24998E-001	  3.98156E-001	  4.08865E-001	  3.79614E-001
  4.16000E-002	  4.06319E-001	  3.78498E-001	  3.81976E-001	  3.87926E-001
  4.48000E-002	  4.00615E-001	  3.73520E-001	  3.88058E-001	  3.62871E-001
  4.80000E-002	  4.01877E-001	  3.66092E-001	  3.72942E-001	  3.66527E-001
  5.12000E-002	  3.90594E-001	  3.65982E-001	  3.66033E-001	  3.58863E-001
  5.76000E-002	  3.74207E-001	  3.42365E-001	  3.51780E-001	  3.33673E-001
  6.40000E-002	  3.73798E-001	  3.40626E-001	  3.37317E-001	  3.26252E-001
  7.04000E-002	  3.54605E-001	  3.22719E-001	  3.28345E-001	  3.13456E-001
  7.68000E-002	  3.38487E-001	  3.12534E-001	  3.19508E-001	  3.01002E-001
  8.32000E-002	  3.29872E-001	  3.09273E-001	  3.10486E-001	  2.87110E-001
  8.96000E-002	  3.20556E-001	  2.92531E-001	  2.90286E-001	  2.85573E-001
  9.60000E-002	  3.00686E-001	  2.80527E-001	  2.76905E-001	  2.71168E-001
  1.02400E-001	  2.98562E-001	  2.71167E-001	  2.69925E-001	  2.54914E-001
  1.15200E-001	  2.74693E-001	  2.51764E-001	  2.54000E-001	  2.41593E-001
  1.28000E-001	  2.57025E-001	  2.30845E-001	  2.32384E-001	  2.20863E-001
  1.40800E-001	  2.31477E-001	  2.20127E-001	  2.16336E-001	  2.06861E-001
  1.53600E-001	  2.18181E-001	  2.10720E-001	  2.01353E-001	  1.92394E-001
  1.66400E-001	  2.08333E-001	  1.96710E-001	  1.88726E-001	  1.82859E-001
  1.79200E-001	  1.95434E-001	  1.81614E-001	  1.73201E-001	  1.66945E-001
  1.92000E-001	  1.76608E-001	  1.70447E-001	  1.64268E-001	  1.59453E-001
  2.04800E-001	  1.69429E-001	  1.59829E-001	  1.54393E-001	  1.45610E-001
  2.30400E-001	  1.46818E-001	  1.38180E-001	  1.37651E-001	  1.32830E-001
  2.56000E-001	  1.28867E-001	  1.19785E-001	  1.20560E-001	  1.15222E-001
  2.81600E-001	  1.13357E-001	  1.10765E-001	  1.06816E-001	  1.05111E-001
  3.07200E-001	  1.00857E-001	  9.82961E-002	  9.35168E-002	  8.46284E-002
  3.32800E-001	  9.14220E-002	  8.57229E-002	  8.22116E-002	  7.62079E-002
  3.58400E-001	  8.20402E-002	  7.82546E-002	  7.38825E-002	  6.41089E-002
  3.84000E-001	  7.10908E-002	  7.25086E-002	  6.67251E-002	  5.47306E-002
  4.09600E-001	  6.56392E-002	  6.33551E-002	  5.74194E-002	  5.14905E-002
  4.60800E-001	  5.94467E-002	  5.52873E-002	  4.78626E-002	  4.12588E-002
  5.12000E-001	  4.80889E-002	  4.77195E-002	  3.71661E-002	  3.63232E-002
  5.63200E-001	  3.90841E-002	  4.24852E-002	  3.43646E-002	  2.64513E-002
  6.14400E-001	  3.47006E-002	  3.74490E-002	  2.73233E-002	  2.29683E-002
  6.65600E-001	  2.66960E-002	  3.39009E-002	  1.69946E-002	  2.17360E-002
  7.16800E-001	  2.40086E-002	  3.13384E-002	  9.94756E-003	  1.75762E-002
  7.68000E-001	  2.46975E-002	  2.71558E-002	  1.41303E-003	  9.77463E-003
  8.19200E-001	  2.12684E-002	  2.46288E-002	 -6.12149E-004	  4.89689E-003
  9.21600E-001	  1.62901E-002	  2.08145E-002	 -3.31200E-003	  3.96341E-003
  1.02400E+000	  5.27507E-003	  1.74324E-002	  6.63168E-003	  7.76626E-003
  1.12640E+000	  4.78106E-004	  1.37214E-002	  1.26771E-002	  2.49504E-003
  1.22880E+000	 -8.47058E-003	  4.52718E-003	  1.54865E-002	  5.09969E-003
  1.33120E+000	 -5.63754E-003	  5.56819E-003	  9.20911E-003	  6.44621E-003
  1.43360E+000	 -1.98642E-003	  7.51758E-003	  6.40993E-003	  1.01707E-002
  1.53600E+000	 -3.13122E-003	  9.24912E-003	  2.81353E-003	  1.08059E-002
  1.63840E+000	 -3.12982E-003	  8.52284E-003	  2.64711E-003	  1.05971E-002
  1.84320E+000	 -5.94935E-003	  7.26012E-003	 -2.03492E-003	  3.78633E-003
  2.04800E+000	 -9.36221E-004	  6.37382E-003	  2.27654E-003	 -4.87401E-004
  2.25280E+000	  7.54873E-003	  7.14702E-003	  3.79672E-003	 -2.69549E-003
  2.45760E+000	  7.08164E-003	  6.58632E-003	 -2.86053E-003	 -4.80550E-004
  2.66240E+000	  5.06201E-003	  5.93400E-003	  1.85973E-003	 -4.08267E-003
  2.86720E+000	 -1.11690E-003	 -4.51132E-003	  8.42744E-003	  3.24111E-004
  3.07200E+000	  8.65319E-004	 -7.99604E-003	  1.12953E-002	 -3.74694E-004
  3.27680E+000	  8.06202E-004	  1.11494E-003	  1.13324E-002	 -2.79299E-003
  3.68640E+000	  1.65390E-003	  1.53794E-002	  6.12476E-003	  3.22803E-003
  4.09600E+000	  3.50779E-003	  1.10732E-002	  2.73464E-003	  1.50128E-003
  4.50560E+000	  7.84135E-003	  5.72965E-003	 -3.13934E-003	  4.88190E-004
  4.91520E+000	  1.22711E-002	  7.52217E-003	  6.70116E-003	  1.72542E-003
  5.32480E+000	 -7.75216E-004	  3.19070E-003	  1.44166E-002	  4.75344E-003
  5.73440E+000	  4.59566E-003	  2.22530E-003	  8.72948E-003	  6.73422E-003
  6.14400E+000	  8.73169E-004	  1.15241E-003	  5.91458E-003	 -3.44698E-003
  6.55360E+000	 -3.34397E-003	  7.15059E-004	  3.42412E-003	 -7.40161E-003
  7.37280E+000	 -1.05912E-002	  7.91466E-003	 -6.46271E-003	  1.21680E-002
  8.19200E+000	 -6.45362E-003	 -2.52430E-003	  7.13409E-003	  4.08413E-003
  9.01120E+000	 -5.02171E-003	 -3.22743E-003	  8.72446E-003	  2.28750E-003
  9.83040E+000	 -3.86308E-004	 -7.12340E-004	 -1.36709E-004	  1.33927E-002
  1.06496E+001	  1.08251E-002	  1.33133E-003	 -6.40924E-003	  8.16104E-003
  1.14688E+001	  2.46198E-003	  1.74202E-003	 -4.86741E-003	 -1.07059E-003
  1.22880E+001	 -1.68871E-003	 -5.97764E-003	  5.37063E-003	 -4.85333E-003
  1.31072E+001	  3.05078E-003	 -1.52828E-003	  1.46544E-003	 -3.81798E-003
  1.47456E+001	  8.56615E-004	  7.32968E-003	  1.16048E-003	 -9.79309E-003
  1.63840E+001	  7.30612E-003	  8.34357E-003	  3.18122E-003	 -4.17684E-003
  1.80224E+001	 -1.99001E-003	  4.18734E-003	 -2.12446E-003	  3.14962E-003
  1.96608E+001	 -3.37775E-003	  2.43240E-003	 -2.25318E-004	  2.02484E-003
  2.12992E+001	  1.43266E-003	  1.04261E-004	  2.99722E-003	  7.55765E-003
  2.29376E+001	  3.22935E-005	  4.91848E-004	  1.23473E-003	  8.43579E-003
  2.45760E+001	 -5.63860E-003	  5.66018E-003	 -1.91807E-003	  2.80041E-003
  2.62144E+001	 -5.55229E-003	 -2.60539E-003	  4.39668E-003	  1.57646E-003
  2.94912E+001	 -4.61725E-003	  3.61497E-004	  5.13469E-003	 -1.99794E-004
  3.27680E+001	  2.71407E-003	 -3.72543E-003	  3.60358E-003	  2.34773E-003
  3.60448E+001	  3.55919E-003	 -2.75446E-003	 -3.97071E-003	 -1.55835E-003
  3.93216E+001	  2.33816E-003	  1.67686E-003	  3.41066E-003	 -2.89518E-004
  4.25984E+001	 -3.24214E-003	 -1.96721E-003	 -1.40435E-003	  2.77718E-003
  4.58752E+001	  3.69468E-005	 -5.27765E-003	  3.96689E-004	 -2.85124E-003
  4.91520E+001	  4.73307E-003	  6.80688E-003	  7.95199E-003	  7.67464E-004
  5.24288E+001	  8.09413E-005	  1.09468E-003	  1.80858E-003	 -5.73332E-003
  5.89824E+001	  9.13024E-003	 -2.25240E-003	  1.22339E-003	 -3.73346E-003
  6.55360E+001	 -9.47667E-004	 -2.47979E-003	  2.51753E-003	  1.09829E-003
  7.20896E+001	  6.55730E-003	 -5.00930E-004	 -2.45935E-003	 -3.34853E-003
  7.86432E+001	  1.16014E-003	 -2.83785E-003	 -2.34411E-003	 -5.53487E-003
  8.51968E+001	 -9.35192E-004	 -3.82313E-003	 -3.25687E-003	 -1.39365E-003
  9.17504E+001	 -4.99962E-003	 -2.25871E-003	  2.42474E-003	  1.00508E-004
  9.83040E+001	 -9.36943E-005	 -3.70423E-003	 -5.71669E-004	  7.52776E-004
  1.04858E+002	 -1.88368E-003	 -8.37841E-004	 -2.15654E-003	  1.77270E-003
  1.17965E+002	 -1.52822E-003	 -2.21851E-003	 -6.38334E-004	 -2.17052E-003
  1.31072E+002	  4.43613E-003	 -2.00609E-003	 -3.05325E-003	  2.13645E-003
  1.44179E+002	  3.09826E-004	 -8.50710E-004	 -2.22591E-003	 -7.87278E-004
  1.57286E+002	 -2.82443E-003	 -2.26551E-004	  3.27909E-004	 -2.62513E-003
  1.70394E+002	 -2.31457E-003	 -7.88207E-004	 -2.89696E-003	  1.06186E-003
  1.83501E+002	 -1.60801E-003	  4.21829E-003	 -2.70113E-003	 -2.90663E-003
  1.96608E+002	  1.18802E-003	 -6.52037E-005	 -3.91873E-003	 -9.87866E-004
  2.09715E+002	  2.03211E-003	 -3.99318E-003	  7.43400E-005	 -1.29160E-003
  2.35930E+002	 -3.89162E-003	 -1.70990E-003	  3.76301E-003	 -1.01499E-003
  2.62144E+002	 -7.96477E-004	 -4.48909E-004	  2.91168E-003	 -1.14706E-003
  2.88358E+002	  6.20942E-004	  1.07502E-003	  1.82329E-003	 -1.81584E-003
  3.14573E+002	 -2.50816E-003	 -1.41406E-003	  3.71061E-004	 -1.29618E-003
  3.40787E+002	  2.95972E-003	  4.97681E-003	 -5.34693E-004	  1.28852E-003
  3.67002E+002	 -2.77309E-003	 -2.05152E-003	  5.27282E-004	  2.43315E-003
  3.93216E+002	 -9.90287E-004	 -1.59892E-004	 -1.21279E-005	  5.45044E-004

"Count Rate"
       0.01311	      90.25574	     123.59619	      95.97778	     119.47632
       0.02621	     123.97766	     108.79517	     105.74341	     105.13306
       0.03932	     127.25830	     131.14929	      83.69446	      91.01868
       0.05243	      97.96143	     114.82239	     127.48718	     105.59082
       0.06554	     107.26929	     142.51709	      92.92603	     119.24744
       0.07864	     110.16846	      96.35925	     115.73792	     116.57715
       0.09175	     135.26917	     118.63708	     117.79785	     128.55530
       0.10486	      99.63989	      95.36743	     102.84424	     104.52271
       0.11796	     124.74060	      97.88513	     123.97766	     116.11938
       0.13107	     101.08948	      86.74622	      91.09497	     116.57715
       0.14418	     105.28564	     123.44360	     118.40820	     114.05945
       0.15729	     123.21472	     140.22827	     130.38635	     122.29919
       0.17039	     109.40552	     121.30737	     117.41638	     122.75696
       0.18350	      97.27478	      90.78979	     128.78418	     113.22021
       0.19661	      94.98596	     140.30457	      99.18213	     117.18750
       0.20972	     111.99951	     118.56079	     129.16565	     110.62622
       0.22282	     130.31006	     123.59619	      98.64807	     132.06482
       0.23593	     132.90405	      96.51184	     105.81970	     115.73792
       0.24904	     128.32642	     141.98303	     116.57715	      95.13855
       0.26214	     128.09753	     126.11389	     139.38904	     123.82507
       0.27525	     137.48169	     119.24744	     110.62622	     101.24207
       0.28836	     154.41895	     123.51990	     101.62354	      87.58545
       0.30147	     114.97498	     119.70520	     120.54443	      92.54456
       0.31457	     114.66980	     122.83325	     127.71606	     101.08948
       0.32768	     123.13843	     123.90137	     120.54443	     126.19019
       0.34079	     131.75964	     125.96130	     102.23389	      91.40015
       0.35389	     143.81409	     125.35095	     107.26929	      95.90149
       0.36700	     116.88232	     111.23657	     119.70520	     126.49536
       0.38011	      98.19031	     136.48987	     132.14111	     109.71069
       0.39322	     131.91223	     128.78418	     136.10840	     130.46265
       0.40632	     124.51172	     127.63977	     130.23376	     121.68884
       0.41943	     136.79504	     110.62622	     137.63428	     131.07300
       0.43254	     116.19568	     105.89600	     124.13025	     133.89587
       0.44564	     129.08936	     110.77881	      98.49548	     113.29651
       0.45875	     105.28564	     109.93958	     111.61804	     113.14392
       0.47186	     128.17383	     116.72974	     109.78699	     113.29651
       0.48497	     119.40002	     130.15747	     115.58533	     121.00220
       0.49807	     107.04041	     117.79785	      95.59631	     118.63708
       0.51118	      89.72168	      82.32117	      88.65356	     123.82507
       0.52429	     118.25562	     128.70789	     120.31555	     112.99133
       0.53740	     106.43005	     110.09216	     102.69165	     115.81421
       0.55050	     125.12207	     101.69983	     129.47083	     114.05945
       0.56361	     140.53345	     119.24744	     115.05127	     123.36731
       0.57672	     109.10034	     112.22839	     114.36462	     101.31836
       0.58982	      95.06226	     110.62622	     103.53088	     100.78430
       0.60293	     112.91504	     109.25293	     116.11938	     166.85486
       0.61604	     110.09216	     104.06494	     133.66699	     105.51453
       0.62915	     151.90125	     101.08948	     126.41907	     130.15747
       0.64225	     101.31836	     119.09485	     148.08655	     122.14661
       0.65536	      92.54456	     115.50903	     123.13843	      98.57178
       0.66847	      91.24756	     185.77576	     105.74341	      96.35925
       0.68157	     113.60168	     143.89038	     139.46533	     107.95593
       0.69468	     120.08667	     100.86060	     123.59619	      92.69714
       0.70779	     118.10303	     117.03491	     112.91504	     109.93958
       0.72090	      91.09497	     147.55249	      88.95874	     107.49817
       0.73400	     140.53345	     124.28284	     122.60437	     143.43262
       0.74711	     114.13574	     118.17932	     127.63977	     125.27466
