ALV-7004/USB-FAST
Date :	"3/14/2024"
Time :	"12:36:00 PM"
Samplename : 	""
SampMemo(0) : 	""
SampMemo(1) : 	""
SampMemo(2) : 	""
SampMemo(3) : 	""
SampMemo(4) : 	""
SampMemo(5) : 	""
SampMemo(6) : 	""
SampMemo(7) : 	""
SampMemo(8) : 	""
SampMemo(9) : 	""
Temperature [K] :	     298.16000
Viscosity [cp]  :	       0.89000
Refractive Index:	       1.33200
Wavelength [nm] :	       0.00000
Angle [°]       :	       0.00000
Duration [s]    :	         1
FloatDur [ms]   :	          944
Stop TP [ms]   :	      3935
Runs            :	         1
Mode            :	"A-CH0+1  A-CH2+3 "
MeanCR0 [kHz]   :	     128.12614
MeanCR1 [kHz]   :	     126.04184
MeanCR2 [kHz]   :	     124.65477
MeanCR3 [kHz]   :	     118.65616

"Correlation"
  3.12500E-006	 -1.00000E+000	 -1.00000E+000	 -1.00000E+000	 -1.00000E+000
  6.25000E-006	 -1.00000E+000	 -1.00000E+000	 -1.00000E+000	 -1.00000E+000
  9.37500E-006	 -1.00000E+000	 -1.00000E+000	 -1.00000E+000	 -1.00000E+000
  1.25000E-005	 -1.00000E+000	 -1.00000E+000	 -1.00000E+000	 -1.00000E+000
  1.56250E-005	 -1.00000E+000	 -1.00000E+000	 -1.00000E+000	 -1.00000E+000
  1.87500E-005	 -1.00000E+000	 -1.00000E+000	 -1.00000E+000	 -1.00000E+000
  2.18750E-005	 -9.38034E-001	 -5.51774E-001	 -3.01704E-001	 -9.27748E-001
  2.50000E-005	  5.15529E+000	  5.65936E+000	  5.32831E+000	  1.12105E+001
  2.81250E-005	  2.47009E+000	  1.19844E+000	  1.66225E+000	  4.94873E+000
  3.12500E-005	  7.14392E-001	  1.11307E+000	  1.29128E+000	  3.04610E+000
  3.43750E-005	  7.55703E-001	  8.99626E-001	  7.67562E-001	  2.37175E+000
  3.75000E-005	  9.00290E-001	  8.35594E-001	  6.14810E-001	  1.45656E+000
  4.06250E-005	  6.73081E-001	  7.07529E-001	  8.54849E-001	  1.64923E+000
  4.37500E-005	  5.28494E-001	  5.15432E-001	  5.71167E-001	  1.43247E+000
  4.68750E-005	  5.90460E-001	  4.94088E-001	  4.83880E-001	  1.14347E+000
  5.00000E-005	  6.11115E-001	  5.15432E-001	  6.69364E-001	  1.09530E+000
  5.62500E-005	  5.38822E-001	  3.01991E-001	  5.49345E-001	  1.56494E+000
  6.25000E-005	  4.25217E-001	  4.62072E-001	  4.72969E-001	  9.86922E-001
  6.87500E-005	  6.93736E-001	  4.94088E-001	  4.72969E-001	  9.74880E-001
  7.50000E-005	  5.80132E-001	  4.83416E-001	  8.43938E-001	  7.94251E-001
  8.12500E-005	  5.80132E-001	  5.36776E-001	  6.47543E-001	  9.02629E-001
  8.75000E-005	  6.52426E-001	  4.30055E-001	  5.82077E-001	  6.25664E-001
  9.37500E-005	  6.62754E-001	  4.83416E-001	  5.92988E-001	  4.81160E-001
  1.00000E-004	  3.89070E-001	  3.98039E-001	  4.23869E-001	  6.67810E-001
  1.12500E-004	  5.49149E-001	  4.40727E-001	  7.18463E-001	  7.64146E-001
  1.25000E-004	  5.74968E-001	  5.58120E-001	  5.38434E-001	  4.02887E-001
  1.37500E-004	  4.30381E-001	  5.52784E-001	  5.92988E-001	  6.55768E-001
  1.50000E-004	  4.45872E-001	  3.28671E-001	  5.00246E-001	  4.75139E-001
  1.62500E-004	  4.87183E-001	  4.35391E-001	  6.31176E-001	  7.03936E-001
  1.75000E-004	  4.92347E-001	  5.90136E-001	  5.32978E-001	  5.59433E-001
  1.87500E-004	  5.74968E-001	  4.99424E-001	  3.74771E-001	  4.51055E-001
  2.00000E-004	  4.97510E-001	  4.06043E-001	  4.97518E-001	  4.99223E-001
  2.25000E-004	  4.51036E-001	  4.56735E-001	  4.86607E-001	  5.32338E-001
  2.50000E-004	  5.02674E-001	  4.80747E-001	  4.70240E-001	  5.50401E-001
  2.75000E-004	  5.33657E-001	  3.84699E-001	  5.13884E-001	  6.07600E-001
  3.00000E-004	  4.92347E-001	  4.38059E-001	  5.30250E-001	  5.11265E-001
  3.25000E-004	  4.69109E-001	  4.59403E-001	  3.85681E-001	  4.84170E-001
  3.50000E-004	  4.25217E-001	  4.40727E-001	  6.09354E-001	  4.11919E-001
  3.75000E-004	  5.20748E-001	  4.46063E-001	  5.57527E-001	  3.87835E-001
  4.00000E-004	  4.85891E-001	  4.27386E-001	  5.57527E-001	  4.72128E-001
  4.50000E-004	  4.53617E-001	  4.86083E-001	  5.61618E-001	  5.33843E-001
  5.00000E-004	  3.74869E-001	  4.42060E-001	  4.11594E-001	  4.70622E-001
  5.50000E-004	  4.80727E-001	  4.95421E-001	  4.48418E-001	  5.45885E-001
  6.00000E-004	  4.76855E-001	  4.07376E-001	  4.45690E-001	  4.31486E-001
  6.50000E-004	  4.80727E-001	  4.94087E-001	  6.25720E-001	  4.29981E-001
  7.00000E-004	  4.62654E-001	  5.18099E-001	  5.16611E-001	  5.11264E-001
  7.50000E-004	  4.94928E-001	  5.39443E-001	  5.05700E-001	  4.39012E-001
  8.00000E-004	  4.72980E-001	  5.06758E-001	  4.82513E-001	  4.81911E-001
  9.00000E-004	  4.49098E-001	  4.99421E-001	  4.64783E-001	  4.96210E-001
  1.00000E-003	  5.03963E-001	  4.38057E-001	  4.33414E-001	  4.53311E-001
  1.10000E-003	  4.83308E-001	  5.14762E-001	  4.92060E-001	  4.58579E-001
  1.20000E-003	  4.38770E-001	  3.53348E-001	  4.72284E-001	  5.20294E-001
  1.30000E-003	  4.40706E-001	  4.79411E-001	  4.60692E-001	  4.80405E-001
  1.40000E-003	  5.28491E-001	  5.00755E-001	  4.98880E-001	  4.84921E-001
  1.50000E-003	  4.65880E-001	  4.76076E-001	  4.85241E-001	  4.88684E-001
  1.60000E-003	  4.54905E-001	  4.55409E-001	  4.60701E-001	  4.49545E-001
  1.80000E-003	  4.43609E-001	  4.48739E-001	  4.99572E-001	  5.12765E-001
  2.00000E-003	  4.45868E-001	  4.43069E-001	  4.66157E-001	  4.34117E-001
  2.20000E-003	  4.69751E-001	  4.74419E-001	  4.93434E-001	  4.58953E-001
  2.40000E-003	  4.71687E-001	  4.58077E-001	  5.44579E-001	  4.80416E-001
  2.60000E-003	  4.59423E-001	  4.65081E-001	  5.10142E-001	  4.65364E-001
  2.80000E-003	  4.67491E-001	  4.26728E-001	  4.82182E-001	  4.77782E-001
  3.00000E-003	  4.93956E-001	  4.72097E-001	  4.68885E-001	  4.80416E-001
  3.20000E-003	  4.53459E-001	  4.65434E-001	  4.72131E-001	  4.92466E-001
  3.60000E-003	  4.62496E-001	  4.55262E-001	  4.86111E-001	  4.59539E-001
  4.00000E-003	  4.93156E-001	  4.18743E-001	  5.16956E-001	  4.89644E-001
  4.40000E-003	  4.82506E-001	  4.62420E-001	  4.98714E-001	  4.55587E-001
  4.80000E-003	  4.88154E-001	  4.38241E-001	  5.08615E-001	  4.82118E-001
  5.20000E-003	  4.81699E-001	  4.68089E-001	  4.55424E-001	  4.82306E-001
  5.60000E-003	  4.75406E-001	  4.34239E-001	  4.75541E-001	  4.73274E-001
  6.00000E-003	  4.68628E-001	  4.66922E-001	  4.70256E-001	  4.58033E-001
  6.40000E-003	  4.88758E-001	  4.52334E-001	  4.89025E-001	  4.69177E-001
  7.20000E-003	  4.79963E-001	  4.34908E-001	  4.76068E-001	  4.76610E-001
  8.00000E-003	  4.66085E-001	  4.60922E-001	  4.78723E-001	  4.65696E-001
  8.80000E-003	  4.77288E-001	  4.48248E-001	  4.73693E-001	  4.55334E-001
  9.60000E-003	  4.66315E-001	  4.59100E-001	  5.05745E-001	  4.60415E-001
  1.04000E-002	  4.66073E-001	  4.50678E-001	  4.84677E-001	  4.76126E-001
  1.12000E-002	  4.75109E-001	  4.47248E-001	  5.06414E-001	  4.74621E-001
  1.20000E-002	  4.60182E-001	  4.50249E-001	  4.90047E-001	  4.73680E-001
  1.28000E-002	  4.51549E-001	  4.53243E-001	  4.85385E-001	  4.63317E-001
  1.44000E-002	  4.53970E-001	  4.45156E-001	  4.84191E-001	  4.79169E-001
  1.60000E-002	  4.58218E-001	  4.31566E-001	  4.77116E-001	  4.66032E-001
  1.76000E-002	  4.56201E-001	  4.38736E-001	  4.83509E-001	  4.55354E-001
  1.92000E-002	  4.54333E-001	  4.48491E-001	  4.65169E-001	  4.64184E-001
  2.08000E-002	  4.65266E-001	  4.24103E-001	  4.69047E-001	  4.40852E-001
  2.24000E-002	  4.40523E-001	  4.36235E-001	  4.79831E-001	  4.62007E-001
  2.40000E-002	  4.35964E-001	  4.39182E-001	  4.85329E-001	  4.53634E-001
  2.56000E-002	  4.38077E-001	  4.27767E-001	  4.65312E-001	  4.40809E-001
  2.88000E-002	  4.41668E-001	  4.25069E-001	  4.63296E-001	  4.40291E-001
  3.20000E-002	  4.23774E-001	  4.14209E-001	  4.54110E-001	  4.32329E-001
  3.52000E-002	  4.39380E-001	  4.22234E-001	  4.52731E-001	  4.36834E-001
  3.84000E-002	  4.18774E-001	  4.01797E-001	  4.54265E-001	  4.21592E-001
  4.16000E-002	  4.27699E-001	  4.08500E-001	  4.32931E-001	  4.09785E-001
  4.48000E-002	  4.23823E-001	  4.11773E-001	  4.41210E-001	  4.07585E-001
  4.80000E-002	  4.06946E-001	  4.13086E-001	  4.28337E-001	  3.97717E-001
  5.12000E-002	  4.03595E-001	  4.01820E-001	  4.31820E-001	  4.09144E-001
  5.76000E-002	  4.06287E-001	  3.85130E-001	  4.28047E-001	  3.97781E-001
  6.40000E-002	  3.85825E-001	  3.82321E-001	  4.22939E-001	  3.83256E-001
  7.04000E-002	  3.89536E-001	  3.73022E-001	  4.10887E-001	  3.80117E-001
  7.68000E-002	  3.76760E-001	  3.68176E-001	  3.98556E-001	  3.71532E-001
  8.32000E-002	  3.65481E-001	  3.59683E-001	  3.90371E-001	  3.63253E-001
  8.96000E-002	  3.62618E-001	  3.60351E-001	  3.88171E-001	  3.54867E-001
  9.60000E-002	  3.52762E-001	  3.43956E-001	  3.80819E-001	  3.47305E-001
  1.02400E-001	  3.49573E-001	  3.38348E-001	  3.72032E-001	  3.41351E-001
  1.15200E-001	  3.33819E-001	  3.23493E-001	  3.55975E-001	  3.18544E-001
  1.28000E-001	  3.16763E-001	  3.05462E-001	  3.38857E-001	  3.12891E-001
  1.40800E-001	  3.07825E-001	  2.98111E-001	  3.31988E-001	  3.02791E-001
  1.53600E-001	  2.93742E-001	  2.86794E-001	  3.15903E-001	  2.88361E-001
  1.66400E-001	  2.76251E-001	  2.71922E-001	  3.01560E-001	  2.78190E-001
  1.79200E-001	  2.67659E-001	  2.59332E-001	  2.93917E-001	  2.58626E-001
  1.92000E-001	  2.49421E-001	  2.52405E-001	  2.76233E-001	  2.55791E-001
  2.04800E-001	  2.43059E-001	  2.41833E-001	  2.67648E-001	  2.41425E-001
  2.30400E-001	  2.20925E-001	  2.21160E-001	  2.51089E-001	  2.21297E-001
  2.56000E-001	  2.02832E-001	  1.99263E-001	  2.36844E-001	  2.03490E-001
  2.81600E-001	  1.88291E-001	  1.80778E-001	  2.14761E-001	  1.83676E-001
  3.07200E-001	  1.69284E-001	  1.67132E-001	  1.97422E-001	  1.74365E-001
  3.32800E-001	  1.55468E-001	  1.56875E-001	  1.83758E-001	  1.57528E-001
  3.58400E-001	  1.44120E-001	  1.44276E-001	  1.69207E-001	  1.48753E-001
  3.84000E-001	  1.33369E-001	  1.34602E-001	  1.56542E-001	  1.38220E-001
  4.09600E-001	  1.23323E-001	  1.25008E-001	  1.45539E-001	  1.28671E-001
  4.60800E-001	  1.08217E-001	  1.11726E-001	  1.28838E-001	  1.08088E-001
  5.12000E-001	  9.58444E-002	  9.62969E-002	  1.12525E-001	  1.00344E-001
  5.63200E-001	  8.19219E-002	  8.35614E-002	  9.76378E-002	  8.64253E-002
  6.14400E-001	  7.65842E-002	  7.01645E-002	  8.59313E-002	  7.49974E-002
  6.65600E-001	  6.82109E-002	  6.23905E-002	  7.66934E-002	  6.98251E-002
  7.16800E-001	  5.82696E-002	  4.98947E-002	  6.84891E-002	  6.30148E-002
  7.68000E-001	  5.45764E-002	  4.19559E-002	  6.02036E-002	  5.08713E-002
  8.19200E-001	  4.77877E-002	  3.60540E-002	  4.99741E-002	  4.76829E-002
  9.21600E-001	  3.69837E-002	  2.64939E-002	  4.14289E-002	  3.80688E-002
  1.02400E+000	  3.22900E-002	  2.49378E-002	  3.25161E-002	  3.20700E-002
  1.12640E+000	  3.02169E-002	  2.07429E-002	  2.58981E-002	  2.39615E-002
  1.22880E+000	  2.03835E-002	  1.49712E-002	  1.89687E-002	  2.76411E-002
  1.33120E+000	  1.26922E-002	  1.33449E-002	  1.11095E-002	  2.55364E-002
  1.43360E+000	  1.05476E-002	  9.86972E-003	  8.14124E-003	  1.84993E-002
  1.53600E+000	  1.09812E-002	  7.17081E-003	  7.95790E-003	  5.35613E-003
  1.63840E+000	  1.68541E-002	  9.29006E-003	  1.29536E-002	 -1.54735E-003
  1.84320E+000	  2.78615E-002	  1.98091E-002	  1.73063E-002	 -6.86353E-003
  2.04800E+000	  2.65067E-002	  2.45573E-002	  2.04296E-002	 -5.16313E-003
  2.25280E+000	  2.53065E-002	  2.33196E-002	  2.41232E-002	 -2.20293E-003
  2.45760E+000	  2.27859E-002	  1.90880E-002	  2.59869E-002	 -2.56653E-003
  2.66240E+000	  1.74353E-002	  1.00321E-002	  2.20760E-002	  6.35244E-004
  2.86720E+000	  1.68972E-002	  2.41086E-005	  1.61946E-002	  1.90926E-004
  3.07200E+000	  1.10541E-002	 -4.20091E-003	  7.61286E-003	  6.59815E-004
  3.27680E+000	  9.01485E-003	 -5.56089E-003	  4.25040E-003	 -1.53256E-004
  3.68640E+000	  1.26263E-002	 -7.15898E-003	  9.72195E-003	 -3.63756E-003
  4.09600E+000	  6.51264E-003	 -4.33525E-003	  1.60924E-002	  3.04630E-005
  4.50560E+000	 -2.06755E-003	 -3.43237E-003	  1.39268E-002	 -1.03003E-002
  4.91520E+000	  3.46226E-003	 -7.89213E-003	  1.39179E-002	 -1.18379E-002
  5.32480E+000	 -5.78440E-003	 -1.07176E-002	  1.23078E-002	 -5.00279E-003
  5.73440E+000	 -1.09644E-002	 -1.09366E-002	  5.98861E-003	 -7.88634E-003
  6.14400E+000	 -6.85367E-003	 -1.64874E-002	  1.27567E-002	  1.17607E-002
  6.55360E+000	 -7.20672E-003	 -1.69145E-002	  1.27336E-002	  6.74731E-003
  7.37280E+000	 -5.39490E-003	 -2.09688E-002	  1.13370E-002	  9.15943E-004
  8.19200E+000	  4.38260E-004	 -8.93489E-003	  8.99644E-003	 -1.06380E-002
  9.01120E+000	  4.40209E-003	  6.21110E-003	  8.24022E-003	 -1.74864E-002
  9.83040E+000	  7.21529E-003	 -6.14911E-004	  3.41046E-003	 -1.78206E-002
  1.06496E+001	  1.60279E-002	  3.96844E-003	 -5.35628E-004	 -6.66209E-003
  1.14688E+001	  9.07601E-003	  9.91444E-003	 -8.43725E-003	 -7.90559E-003
  1.22880E+001	  1.48107E-002	  3.30079E-003	 -3.89897E-003	  2.03000E-003
  1.31072E+001	  1.47269E-002	  3.98628E-003	 -3.62353E-003	 -9.99141E-004
  1.47456E+001	  1.06914E-002	  3.42682E-003	  4.54116E-003	 -3.33318E-003
  1.63840E+001	 -2.84891E-003	  2.71173E-003	  1.31341E-002	 -3.17660E-004
  1.80224E+001	  2.76053E-003	  5.54909E-003	  2.36963E-003	  1.50119E-002
  1.96608E+001	 -6.00533E-003	  1.40146E-003	  1.52253E-002	  6.82743E-003
  2.12992E+001	 -4.91577E-003	 -5.00126E-003	  8.12399E-003	  5.20052E-003
  2.29376E+001	  3.22127E-003	 -7.58812E-003	  6.25950E-003	 -7.80301E-003
  2.45760E+001	  1.15493E-002	 -1.03037E-002	  1.28697E-002	 -1.98247E-003
  2.62144E+001	  1.72745E-002	 -6.92663E-003	  8.65677E-003	  1.49554E-003
  2.94912E+001	  1.92804E-003	  1.00893E-002	  3.76365E-003	 -7.86273E-003
  3.27680E+001	 -4.63354E-003	  7.43367E-003	  2.90959E-003	  3.00535E-003
  3.60448E+001	 -1.05484E-002	  1.19842E-003	 -1.02925E-002	 -6.52576E-003
  3.93216E+001	  2.96229E-003	 -4.69744E-003	 -1.11844E-003	  4.16321E-003
  4.25984E+001	 -3.26054E-003	  4.50577E-004	 -4.15236E-003	 -7.22566E-003
  4.58752E+001	 -6.83187E-003	  3.50502E-003	  8.59010E-004	 -5.48302E-003
  4.91520E+001	  4.41281E-003	 -1.93022E-005	  1.07844E-002	 -1.04287E-003
  5.24288E+001	 -1.33062E-003	 -8.70799E-004	  5.21224E-003	  4.00494E-003
  5.89824E+001	  1.21776E-002	 -7.85686E-003	 -6.92742E-003	 -9.68055E-004
  6.55360E+001	 -7.36811E-004	  3.40047E-005	 -7.97559E-003	 -2.60828E-003
  7.20896E+001	 -2.75703E-003	 -4.08069E-003	 -7.20688E-003	 -7.89788E-003
  7.86432E+001	  2.07293E-003	  1.61803E-003	 -1.21214E-002	 -3.23591E-003
  8.51968E+001	 -2.58027E-003	 -3.17667E-003	 -1.83203E-002	  1.64321E-003
  9.17504E+001	 -1.89355E-003	 -3.46871E-003	 -1.02912E-002	 -1.81519E-003
  9.83040E+001	 -7.19312E-005	  2.56698E-003	 -6.59061E-004	  1.64875E-003
  1.04858E+002	  1.60455E-003	  4.91719E-003	 -5.37972E-003	  3.91195E-003
  1.17965E+002	  2.71933E-003	  1.46074E-003	  3.12579E-003	  3.83955E-003
  1.31072E+002	  1.51573E-003	 -2.12716E-003	  1.67720E-003	 -2.95713E-003
  1.44179E+002	  2.99453E-003	 -3.02491E-003	 -6.19285E-003	 -9.42315E-004
  1.57286E+002	 -1.70305E-003	  8.28149E-004	 -2.17989E-003	 -1.07725E-003
  1.70394E+002	 -2.13857E-003	 -2.94166E-003	  8.14647E-003	  3.78053E-003
  1.83501E+002	 -1.26611E-003	  2.50772E-003	  5.87706E-003	 -7.06946E-004
  1.96608E+002	 -3.67730E-003	  3.80062E-003	 -2.16815E-004	  2.54783E-005
  2.09715E+002	  3.04532E-003	  2.34463E-004	 -2.96235E-004	  2.20709E-003
  2.35930E+002	  1.12740E-003	  9.90283E-004	  4.41890E-004	 -7.43838E-003
  2.62144E+002	 -4.54720E-003	  3.89131E-004	 -8.71629E-003	  1.89547E-003
  2.88358E+002	  1.05863E-003	  1.81700E-004	  5.03149E-003	  2.81437E-003
  3.14573E+002	  1.84629E-004	 -1.94037E-003	  3.35437E-003	  2.22087E-003
  3.40787E+002	 -2.39795E-003	 -2.86511E-003	  1.22609E-002	 -4.96421E-003
  3.67002E+002	 -1.85182E-003	  3.87367E-004	 -1.71456E-003	  1.98432E-003
  3.93216E+002	 -1.77908E-005	  1.79507E-003	 -3.04989E-003	 -1.73593E-003

"Count Rate"
       0.01311	     125.80872	     174.33167	     111.61804	     109.78699
       0.02621	      91.93420	     138.62610	     122.68066	     128.25012
       0.03932	     128.32642	     121.99402	     111.77063	     127.33459
       0.05243	     120.08667	     135.34546	      93.30750	     137.10022
       0.06554	     114.59351	     127.02942	     111.77063	     103.14941
       0.07864	      95.21484	     133.51440	     141.37268	     138.39722
       0.09175	     130.23376	     117.11121	     111.46545	     116.80603
       0.10486	     122.68066	     118.78967	      89.34021	     100.63171
       0.11796	     139.99939	     108.87146	     150.14648	      95.74890
       0.13107	     101.85242	     106.04858	     133.66699	     116.19568
       0.14418	     121.00220	     138.39722	     134.96399	     123.74878
       0.15729	     111.38916	     115.73792	     108.71887	      86.05957
       0.17039	     146.40808	     145.26367	     160.75134	     127.18201
       0.18350	     149.23096	     130.69153	     101.01318	     132.52258
       0.19661	     142.51709	     118.02673	     120.23926	     135.19287
       0.20972	     123.67249	     101.31836	     132.98035	     107.95593
       0.22282	     115.96680	     126.57166	     104.82788	     111.46545
       0.23593	     112.83875	     111.46545	     125.96130	     105.36194
       0.24904	     138.09204	     138.85498	      94.14673	     117.72156
       0.26214	     101.54724	     162.27722	     107.19299	     132.90405
       0.27525	     121.15479	     137.02393	      84.83887	     112.38098
       0.28836	     149.38354	     111.92322	      98.64807	     112.60986
       0.30147	     160.82764	     133.74329	     124.35913	     136.79504
       0.31457	     131.37817	      98.34290	      83.99963	     111.54175
       0.32768	     135.87952	     118.33191	     139.46533	     102.53906
       0.34079	     112.99133	     100.70801	     153.65601	     105.81970
       0.35389	     106.96411	     132.14111	     159.37805	     119.55261
       0.36700	     109.32922	     156.02112	     145.41626	     129.92859
       0.38011	     102.53906	     175.24719	     119.09485	     137.02393
       0.39322	      89.26392	     122.07031	     111.46545	     128.78418
       0.40632	      86.66992	     130.00488	     114.05945	     133.89587
       0.41943	     135.34546	     138.32092	      87.66174	     122.98584
       0.43254	      94.68079	     118.63708	     101.85242	      96.58813
       0.44564	     129.77600	     117.87415	      94.68079	     109.32922
       0.45875	     109.48181	     112.45728	     143.50891	     118.02673
       0.47186	      93.38379	     105.66711	     171.66138	     136.87134
       0.48497	     142.66968	     125.57983	     150.68054	     102.08130
       0.49807	     121.84143	      95.21484	     121.84143	     127.94495
       0.51118	     131.14929	      86.21216	     108.03223	     125.73242
       0.52429	     115.89050	     135.65063	     133.36182	     111.38916
       0.53740	     123.74878	     111.99951	     123.82507	     130.08118
       0.55050	     137.10022	     128.63159	     102.00500	     112.83875
       0.56361	     124.74060	     127.02942	      99.86877	     113.52539
       0.57672	     106.43005	     124.28284	     127.79236	     151.06201
       0.58982	     147.55249	     118.56079	     111.92322	     104.44641
       0.60293	     129.31824	     125.12207	     104.21753	      85.90698
       0.61604	      89.49280	     104.37012	      94.07043	     101.01318
       0.62915	     116.65344	     139.61792	     117.87415	     101.31836
       0.64225	     137.78687	     113.75427	     119.55261	      77.89612
       0.65536	     165.25269	     140.45715	     176.39160	     131.68335
       0.66847	     122.14661	     109.25293	     102.31018	     122.83325
       0.68157	      87.50916	     142.13562	     170.82214	     169.21997
       0.69468	     156.25000	      92.23938	     145.72144	     102.76794
       0.70779	     126.72424	     112.83875	     199.43237	     114.74609
       0.72090	     139.16016	     133.28552	     126.34277	     129.62341
       0.73400	     121.84143	     115.43274	     101.01318	      92.69714
       0.74711	      89.18762	      99.10583	     146.33179	     122.98584
