ALV-7004/USB-FAST
Date :	"3/14/2024"
Time :	"12:34:52 PM"
Samplename : 	""
SampMemo(0) : 	""
SampMemo(1) : 	""
SampMemo(2) : 	""
SampMemo(3) : 	""
SampMemo(4) : 	""
SampMemo(5) : 	""
SampMemo(6) : 	""
SampMemo(7) : 	""
SampMemo(8) : 	""
SampMemo(9) : 	""
Temperature [K] :	     298.16000
Viscosity [cp]  :	       0.89000
Refractive Index:	       1.33200
Wavelength [nm] :	       0.00000
Angle [°]       :	       0.00000
Duration [s]    :	         1
FloatDur [ms]   :	          944
Stop TP [ms]   :	      3678
Runs            :	         1
Mode            :	"A-CH0+1  A-CH2+3 "
MeanCR0 [kHz]   :	     108.05448
MeanCR1 [kHz]   :	     104.19634
MeanCR2 [kHz]   :	     105.43929
MeanCR3 [kHz]   :	     100.76734

"Correlation"
  3.12500E-006	 -1.00000E+000	 -1.00000E+000	 -1.00000E+000	 -1.00000E+000
  6.25000E-006	 -1.00000E+000	 -1.00000E+000	 -1.00000E+000	 -1.00000E+000
  9.37500E-006	 -1.00000E+000	 -1.00000E+000	 -1.00000E+000	 -1.00000E+000
  1.25000E-005	 -1.00000E+000	 -1.00000E+000	 -1.00000E+000	 -1.00000E+000
  1.56250E-005	 -1.00000E+000	 -1.00000E+000	 -1.00000E+000	 -1.00000E+000
  1.87500E-005	 -1.00000E+000	 -1.00000E+000	 -1.00000E+000	 -1.00000E+000
  2.18750E-005	 -9.41917E-001	 -1.25498E-001	 -3.59496E-001	 -8.99818E-001
  2.50000E-005	  7.13168E+000	  6.15217E+000	  6.01504E+000	  1.29253E+001
  2.81250E-005	  2.77542E+000	  1.59227E+000	  1.13501E+000	  5.14449E+000
  3.12500E-005	  9.74835E-001	  1.12379E+000	  3.72509E-001	  3.10746E+000
  3.43750E-005	  9.74835E-001	  6.24075E-001	  1.13501E+000	  2.50637E+000
  3.75000E-005	  7.13460E-001	  8.42700E-001	  8.60512E-001	  1.43776E+000
  4.06250E-005	  2.48793E-001	  8.42700E-001	  3.11508E-001	  1.63812E+000
  4.37500E-005	  1.23621E+000	  4.67914E-001	  7.38511E-001	  1.73830E+000
  4.68750E-005	  6.84418E-001	  5.92842E-001	  5.86010E-001	  1.50455E+000
  5.00000E-005	  6.55377E-001	  7.64619E-001	  6.47010E-001	  1.35427E+000
  5.62500E-005	  6.84418E-001	  5.61610E-001	  4.18259E-001	  1.27079E+000
  6.25000E-005	  4.95647E-001	  5.61610E-001	  3.42008E-001	  1.02033E+000
  6.87500E-005	  6.84418E-001	  7.95852E-001	  6.01260E-001	  8.03274E-001
  7.50000E-005	  5.97293E-001	  5.14762E-001	  6.01260E-001	  9.86940E-001
  8.12500E-005	  8.44148E-001	  5.77226E-001	  4.48759E-001	  7.86577E-001
  8.75000E-005	  6.26335E-001	  5.30378E-001	  5.86010E-001	  6.69698E-001
  9.37500E-005	  4.23043E-001	  5.92842E-001	  4.94509E-001	  7.03092E-001
  1.00000E-004	  5.82772E-001	  4.83529E-001	  4.71634E-001	  7.53182E-001
  1.12500E-004	  5.31949E-001	  6.47498E-001	  6.92760E-001	  6.36304E-001
  1.25000E-004	  4.88387E-001	  4.99146E-001	  1.51382E-001	  6.19607E-001
  1.37500E-004	  6.40856E-001	  5.38186E-001	  4.03009E-001	  5.86213E-001
  1.50000E-004	  5.90033E-001	  5.69418E-001	  5.17384E-001	  5.19425E-001
  1.62500E-004	  4.88387E-001	  4.44489E-001	  4.64009E-001	  5.27773E-001
  1.75000E-004	  5.46470E-001	  3.89833E-001	  6.24135E-001	  4.94379E-001
  1.87500E-004	  6.40856E-001	  4.75721E-001	  6.39385E-001	  6.11258E-001
  2.00000E-004	  4.88386E-001	  4.36681E-001	  4.83071E-001	  4.27591E-001
  2.25000E-004	  4.30303E-001	  6.00650E-001	  5.55509E-001	  2.85667E-001
  2.50000E-004	  3.90371E-001	  6.55306E-001	  5.51697E-001	  4.48462E-001
  2.75000E-004	  5.93663E-001	  5.42090E-001	  4.10633E-001	  4.73508E-001
  3.00000E-004	  5.10168E-001	  3.46888E-001	  4.48759E-001	  5.52818E-001
  3.25000E-004	  4.55714E-001	  5.06953E-001	  4.94509E-001	  5.56993E-001
  3.50000E-004	  3.46808E-001	  5.22569E-001	  4.79259E-001	  5.06902E-001
  3.75000E-004	  5.68251E-001	  4.83529E-001	  5.82197E-001	  5.02728E-001
  4.00000E-004	  5.39209E-001	  5.26473E-001	  4.50664E-001	  4.98553E-001
  4.50000E-004	  5.08352E-001	  5.36233E-001	  4.73539E-001	  4.69333E-001
  5.00000E-004	  4.84756E-001	  4.24968E-001	  4.50664E-001	  4.44287E-001
  5.50000E-004	  4.19412E-001	  4.62056E-001	  5.04040E-001	  4.81856E-001
  6.00000E-004	  4.53899E-001	  5.49897E-001	  5.32633E-001	  4.94378E-001
  6.50000E-004	  4.59344E-001	  5.67465E-001	  4.20164E-001	  4.29678E-001
  7.00000E-004	  5.93662E-001	  4.34728E-001	  4.75446E-001	  5.13162E-001
  7.50000E-004	  5.06537E-001	  5.45993E-001	  4.60196E-001	  4.58897E-001
  8.00000E-004	  5.18334E-001	  4.64983E-001	  4.13491E-001	  4.64114E-001
  9.00000E-004	  4.46637E-001	  5.57704E-001	  5.09757E-001	  4.82898E-001
  1.00000E-003	  4.62066E-001	  4.54247E-001	  4.70679E-001	  4.39068E-001
  1.10000E-003	  4.88385E-001	  4.39607E-001	  4.43038E-001	  4.96464E-001
  1.20000E-003	  4.53898E-001	  4.37655E-001	  4.07772E-001	  4.72462E-001
  1.30000E-003	  4.36654E-001	  5.18663E-001	  4.69726E-001	  4.89159E-001
  1.40000E-003	  5.51913E-001	  4.24967E-001	  5.01179E-001	  5.35076E-001
  1.50000E-003	  4.53898E-001	  4.68887E-001	  4.35413E-001	  5.41337E-001
  1.60000E-003	  4.87474E-001	  5.10853E-001	  4.51614E-001	  4.75622E-001
  1.80000E-003	  4.92920E-001	  4.30821E-001	  5.16426E-001	  4.79796E-001
  2.00000E-003	  4.98819E-001	  5.08901E-001	  4.41129E-001	  4.35966E-001
  2.20000E-003	  4.78853E-001	  4.83525E-001	  4.76872E-001	  4.61533E-001
  2.40000E-003	  4.78853E-001	  5.09877E-001	  4.31598E-001	  4.78752E-001
  2.60000E-003	  4.88836E-001	  4.91333E-001	  4.51614E-001	  5.07973E-001
  2.80000E-003	  4.87021E-001	  4.96213E-001	  4.94028E-001	  4.79796E-001
  3.00000E-003	  4.72968E-001	  4.84013E-001	  4.33504E-001	  3.83787E-001
  3.20000E-003	  4.67518E-001	  4.98892E-001	  4.60678E-001	  4.51384E-001
  3.60000E-003	  4.77047E-001	  4.97184E-001	  4.60916E-001	  4.37280E-001
  4.00000E-003	  4.67305E-001	  4.85472E-001	  4.29463E-001	  4.41470E-001
  4.40000E-003	  4.86591E-001	  5.16948E-001	  4.64967E-001	  4.82431E-001
  4.80000E-003	  4.54599E-001	  4.75712E-001	  4.57342E-001	  4.40672E-001
  5.20000E-003	  4.47112E-001	  4.83276E-001	  3.91814E-001	  4.43542E-001
  5.60000E-003	  4.76154E-001	  4.16176E-001	  4.64967E-001	  4.82937E-001
  6.00000E-003	  4.66171E-001	  4.41552E-001	  4.42569E-001	  4.50586E-001
  6.40000E-003	  4.75350E-001	  4.68290E-001	  4.53906E-001	  4.77740E-001
  7.20000E-003	  4.54816E-001	  4.48891E-001	  4.34248E-001	  4.52172E-001
  8.00000E-003	  4.46989E-001	  4.66094E-001	  4.66655E-001	  4.45650E-001
  8.80000E-003	  4.69905E-001	  4.86590E-001	  4.32103E-001	  4.39012E-001
  9.60000E-003	  4.57312E-001	  4.66704E-001	  4.53296E-001	  4.47100E-001
  1.04000E-002	  4.62304E-001	  4.70852E-001	  4.36735E-001	  4.54651E-001
  1.12000E-002	  4.74669E-001	  4.66948E-001	  4.50794E-001	  4.56722E-001
  1.20000E-002	  4.64346E-001	  4.76830E-001	  4.31255E-001	  4.52939E-001
  1.28000E-002	  4.63191E-001	  4.67170E-001	  4.34124E-001	  4.65293E-001
  1.44000E-002	  4.49422E-001	  4.68268E-001	  4.44727E-001	  4.55770E-001
  1.60000E-002	  4.44885E-001	  4.70023E-001	  4.43402E-001	  4.23484E-001
  1.76000E-002	  4.44601E-001	  4.76535E-001	  4.43343E-001	  4.46980E-001
  1.92000E-002	  4.65305E-001	  4.48596E-001	  4.37698E-001	  4.51220E-001
  2.08000E-002	  4.64794E-001	  4.56709E-001	  4.36209E-001	  4.43980E-001
  2.24000E-002	  4.41084E-001	  4.52515E-001	  4.39292E-001	  4.43799E-001
  2.40000E-002	  4.35639E-001	  4.59286E-001	  4.40304E-001	  4.48074E-001
  2.56000E-002	  4.47299E-001	  4.60083E-001	  4.28260E-001	  4.41166E-001
  2.88000E-002	  4.50418E-001	  4.51955E-001	  4.23836E-001	  4.48652E-001
  3.20000E-002	  4.41470E-001	  4.52962E-001	  4.19636E-001	  4.42521E-001
  3.52000E-002	  4.44108E-001	  4.44894E-001	  4.22079E-001	  4.23768E-001
  3.84000E-002	  4.43399E-001	  4.47775E-001	  4.14303E-001	  4.27128E-001
  4.16000E-002	  4.46235E-001	  4.50841E-001	  4.19293E-001	  4.34205E-001
  4.48000E-002	  4.32253E-001	  4.53526E-001	  4.18354E-001	  4.28791E-001
  4.80000E-002	  4.37330E-001	  4.36292E-001	  4.21214E-001	  4.17605E-001
  5.12000E-002	  4.35932E-001	  4.31329E-001	  4.07159E-001	  4.24079E-001
  5.76000E-002	  4.26217E-001	  4.35460E-001	  4.16752E-001	  4.11865E-001
  6.40000E-002	  4.36981E-001	  4.26615E-001	  4.03049E-001	  4.12531E-001
  7.04000E-002	  4.11029E-001	  4.30366E-001	  4.07712E-001	  4.00556E-001
  7.68000E-002	  4.12887E-001	  4.26278E-001	  3.97763E-001	  3.99757E-001
  8.32000E-002	  4.03385E-001	  4.22555E-001	  4.00518E-001	  3.98371E-001
  8.96000E-002	  4.06619E-001	  4.21320E-001	  3.85803E-001	  3.94392E-001
  9.60000E-002	  3.97982E-001	  4.08799E-001	  3.93041E-001	  3.91065E-001
  1.02400E-001	  3.95950E-001	  4.04321E-001	  3.87602E-001	  3.87837E-001
  1.15200E-001	  3.90312E-001	  4.00072E-001	  3.76106E-001	  3.82989E-001
  1.28000E-001	  3.80447E-001	  3.86991E-001	  3.71257E-001	  3.72444E-001
  1.40800E-001	  3.74994E-001	  3.83332E-001	  3.58912E-001	  3.59203E-001
  1.53600E-001	  3.72722E-001	  3.78292E-001	  3.56999E-001	  3.57159E-001
  1.66400E-001	  3.61905E-001	  3.73405E-001	  3.47287E-001	  3.50937E-001
  1.79200E-001	  3.59579E-001	  3.66283E-001	  3.41490E-001	  3.43801E-001
  1.92000E-001	  3.54734E-001	  3.65603E-001	  3.35609E-001	  3.31549E-001
  2.04800E-001	  3.48170E-001	  3.58536E-001	  3.30444E-001	  3.30642E-001
  2.30400E-001	  3.28584E-001	  3.41302E-001	  3.17275E-001	  3.16792E-001
  2.56000E-001	  3.26056E-001	  3.29814E-001	  3.07270E-001	  2.98024E-001
  2.81600E-001	  3.11146E-001	  3.23080E-001	  2.91570E-001	  2.87234E-001
  3.07200E-001	  3.00331E-001	  3.09915E-001	  2.78636E-001	  2.75482E-001
  3.32800E-001	  2.87154E-001	  3.02161E-001	  2.69289E-001	  2.63192E-001
  3.58400E-001	  2.79902E-001	  2.90845E-001	  2.54323E-001	  2.56760E-001
  3.84000E-001	  2.62487E-001	  2.80219E-001	  2.55171E-001	  2.39745E-001
  4.09600E-001	  2.54817E-001	  2.72581E-001	  2.39220E-001	  2.32939E-001
  4.60800E-001	  2.34559E-001	  2.52685E-001	  2.22904E-001	  2.14290E-001
  5.12000E-001	  2.16783E-001	  2.33062E-001	  2.05044E-001	  1.97777E-001
  5.63200E-001	  1.96573E-001	  2.19993E-001	  1.86687E-001	  1.75653E-001
  6.14400E-001	  1.82471E-001	  2.07855E-001	  1.70023E-001	  1.60376E-001
  6.65600E-001	  1.70629E-001	  1.91388E-001	  1.57481E-001	  1.49725E-001
  7.16800E-001	  1.55610E-001	  1.79373E-001	  1.46479E-001	  1.38751E-001
  7.68000E-001	  1.41779E-001	  1.65044E-001	  1.34113E-001	  1.25567E-001
  8.19200E-001	  1.34642E-001	  1.54736E-001	  1.25815E-001	  1.18942E-001
  9.21600E-001	  1.15134E-001	  1.30107E-001	  1.07434E-001	  1.02461E-001
  1.02400E+000	  9.62526E-002	  1.14443E-001	  9.30201E-002	  8.38881E-002
  1.12640E+000	  8.13109E-002	  1.00697E-001	  8.07751E-002	  7.21138E-002
  1.22880E+000	  6.76921E-002	  9.02995E-002	  7.05484E-002	  6.06375E-002
  1.33120E+000	  5.61069E-002	  7.65174E-002	  6.47918E-002	  5.18878E-002
  1.43360E+000	  4.68512E-002	  6.57039E-002	  5.67749E-002	  4.14151E-002
  1.53600E+000	  4.35231E-002	  5.86274E-002	  5.10760E-002	  3.34774E-002
  1.63840E+000	  3.49917E-002	  5.04393E-002	  4.62344E-002	  2.68292E-002
  1.84320E+000	  2.15945E-002	  4.04272E-002	  3.63632E-002	  2.37700E-002
  2.04800E+000	  8.04893E-003	  3.08248E-002	  3.10263E-002	  1.82541E-002
  2.25280E+000	  1.61180E-003	  2.64044E-002	  2.10032E-002	  1.69915E-002
  2.45760E+000	  1.67664E-005	  2.64795E-002	  1.50118E-002	  1.49762E-002
  2.66240E+000	  8.67939E-004	  2.22538E-002	  1.49412E-002	  1.23990E-002
  2.86720E+000	  2.87201E-003	  1.71872E-002	  1.29182E-002	  1.15769E-002
  3.07200E+000	  2.92823E-003	  1.17829E-002	  1.70038E-002	  1.12441E-002
  3.27680E+000	  1.79697E-003	  1.30133E-002	  1.97783E-002	  1.40333E-002
  3.68640E+000	 -5.41503E-003	  1.25874E-002	  1.97574E-002	  8.84305E-003
  4.09600E+000	 -5.27155E-003	  1.29900E-002	  1.22505E-002	  4.96448E-003
  4.50560E+000	 -5.73418E-006	  1.61894E-002	  6.93859E-003	  4.19937E-003
  4.91520E+000	 -7.46300E-003	  1.22797E-003	  1.45308E-004	  2.92976E-004
  5.32480E+000	 -4.42408E-003	 -1.01406E-002	 -3.64211E-003	 -1.03737E-002
  5.73440E+000	  5.16474E-003	 -1.55387E-002	 -7.39865E-003	 -1.57816E-002
  6.14400E+000	  1.09903E-002	 -2.26560E-002	 -2.98372E-003	 -1.55480E-002
  6.55360E+000	  2.45794E-002	 -2.43019E-002	  5.17629E-003	 -2.09141E-002
  7.37280E+000	  2.82350E-002	 -2.00409E-002	  7.08769E-003	 -1.89446E-002
  8.19200E+000	  5.80929E-003	 -1.95586E-002	 -3.88256E-004	 -1.20726E-002
  9.01120E+000	 -3.61043E-004	 -2.03618E-002	  1.03141E-003	 -6.84837E-003
  9.83040E+000	  1.06862E-002	 -1.43219E-002	 -1.87736E-003	 -4.30081E-003
  1.06496E+001	  1.37980E-002	 -1.25992E-002	 -6.11041E-003	  7.82031E-003
  1.14688E+001	  5.61212E-003	 -6.25649E-003	 -5.60221E-003	 -3.61231E-003
  1.22880E+001	 -7.74173E-004	  1.90280E-003	 -2.94742E-004	 -5.14668E-003
  1.31072E+001	 -3.47793E-003	  5.14578E-003	  5.66972E-003	 -3.41590E-003
  1.47456E+001	 -2.69750E-003	 -6.24248E-003	  1.22474E-002	 -3.84583E-003
  1.63840E+001	 -1.11434E-003	 -2.19143E-003	 -2.07201E-003	  1.08112E-002
  1.80224E+001	 -1.32413E-003	 -3.95117E-003	 -5.94024E-003	  4.16858E-003
  1.96608E+001	 -6.40604E-003	 -1.49836E-002	 -8.86326E-003	  3.29572E-003
  2.12992E+001	  9.70951E-003	 -1.56607E-002	 -1.00852E-002	 -7.61487E-003
  2.29376E+001	  5.88954E-003	  2.68710E-003	 -6.65174E-003	 -6.33536E-003
  2.45760E+001	 -2.26887E-002	 -6.44051E-003	 -1.50498E-002	 -1.08899E-002
  2.62144E+001	 -3.61811E-003	 -2.56659E-003	  3.33825E-003	 -8.64413E-005
  2.94912E+001	  2.11534E-003	  4.36616E-004	  5.34819E-003	 -9.75021E-003
  3.27680E+001	 -4.61499E-003	 -3.76444E-003	 -2.26370E-004	  3.13173E-003
  3.60448E+001	  1.68684E-003	 -1.84251E-003	  1.36357E-003	 -3.65799E-004
  3.93216E+001	 -8.14153E-003	  6.60936E-004	  8.72548E-003	 -8.48238E-003
  4.25984E+001	 -1.30050E-002	 -1.76763E-005	 -6.44633E-003	 -8.79601E-003
  4.58752E+001	  7.12036E-003	 -3.56064E-003	  4.51379E-003	 -9.94310E-003
  4.91520E+001	 -9.26248E-003	 -5.48998E-003	 -4.78138E-003	 -4.87277E-003
  5.24288E+001	 -6.12448E-003	 -1.85413E-002	 -7.65542E-003	 -6.32433E-004
  5.89824E+001	 -1.20105E-002	  4.48608E-003	  2.93959E-003	  5.33536E-003
  6.55360E+001	 -3.61991E-003	 -2.75297E-003	  3.76344E-003	 -2.25222E-003
  7.20896E+001	 -4.46032E-003	  1.37474E-003	 -7.06993E-004	 -5.05406E-003
  7.86432E+001	 -2.02171E-002	 -2.49607E-003	  1.15058E-003	 -4.43830E-003
  8.51968E+001	 -7.55887E-003	 -1.20032E-003	 -3.25976E-003	 -3.10753E-003
  9.17504E+001	 -1.07358E-002	 -5.59653E-003	  1.80107E-002	 -6.22154E-003
  9.83040E+001	  4.47657E-003	  5.11475E-003	  1.11032E-002	 -3.69127E-003
  1.04858E+002	 -6.49612E-003	  1.31484E-003	 -4.45797E-003	 -7.76637E-003
  1.17965E+002	  7.79953E-004	  1.45806E-003	 -7.44878E-003	 -2.69391E-003
  1.31072E+002	  5.60907E-003	 -1.21245E-003	 -1.03490E-002	 -3.51876E-003
  1.44179E+002	 -1.13524E-002	  5.80291E-003	 -2.04766E-003	  1.12762E-002
  1.57286E+002	  9.06262E-003	  3.13424E-003	  2.75262E-003	 -9.17093E-004
  1.70394E+002	  1.74725E-002	 -6.54965E-004	 -7.24971E-003	  1.02628E-003
  1.83501E+002	  5.48320E-003	 -6.00979E-003	 -1.95051E-003	 -2.92398E-003
  1.96608E+002	  1.26530E-002	  6.63851E-003	 -3.15938E-003	  7.62376E-003
  2.09715E+002	 -1.60061E-003	  5.32323E-003	 -2.35434E-003	 -3.14067E-003
  2.35930E+002	 -5.62610E-003	 -2.41842E-003	 -1.28816E-002	 -2.40108E-003
  2.62144E+002	 -9.22677E-003	  4.18655E-004	 -1.18640E-002	 -9.93472E-003
  2.88358E+002	 -7.31388E-003	  1.21232E-003	  4.39057E-003	  4.72934E-003
  3.14573E+002	 -2.75913E-003	 -7.69084E-003	 -1.04496E-003	 -3.73272E-003
  3.40787E+002	  8.65733E-003	  3.86294E-003	 -7.28313E-003	  6.47185E-003
  3.67002E+002	  1.12025E-002	  5.29368E-003	 -3.41269E-003	 -2.17799E-004
  3.93216E+002	 -3.36915E-003	 -2.52522E-003	  7.84320E-003	  2.67359E-003

"Count Rate"
       0.01311	      95.90149	      70.72449	      87.05139	     144.04297
       0.02621	     101.77612	     120.16296	      77.51465	      61.34033
       0.03932	     124.20654	      76.59912	      79.87976	      98.57178
       0.05243	      71.41113	     127.41089	     101.16577	      95.90149
       0.06554	     101.54724	     108.26111	     104.37012	      95.82520
       0.07864	     105.66711	     137.78687	      61.18774	     106.65894
       0.09175	     149.99390	      53.71094	     132.21741	      66.68091
       0.10486	     142.89856	     157.92847	      72.63184	      79.65088
       0.11796	      98.57178	      96.28296	      68.35938	     122.60437
       0.13107	     119.47632	     103.60718	     157.92847	     103.98865
       0.14418	      82.85522	      97.73254	     103.91235	      80.49011
       0.15729	     103.91235	      63.24768	     104.98047	     100.86060
       0.17039	      87.96692	     126.95313	      67.90161	     114.21204
       0.18350	     124.13025	      94.83337	     109.93958	     103.98865
       0.19661	     110.24475	      99.10583	      78.12500	      98.26660
       0.20972	     105.05676	     105.05676	      89.95056	      89.34021
       0.22282	     154.80042	     124.58801	     147.09473	     136.87134
       0.23593	     106.12488	     101.24207	      98.80066	      85.67810
       0.24904	      74.23401	     102.84424	     118.17932	      92.16309
       0.26214	     121.61255	      77.05688	      83.99963	     100.93689
       0.27525	      78.65906	     120.69702	     112.68616	      85.37292
       0.28836	     143.43262	      94.07043	     114.28833	      77.89612
       0.30147	     127.02942	     102.23389	      89.03503	      94.90967
       0.31457	     124.20654	      68.66455	      88.95874	     109.02405
       0.32768	     105.81970	     138.09204	      99.41101	      92.08679
       0.34079	     100.02136	     106.04858	      91.55273	     109.55811
       0.35389	     128.78418	      94.29932	      88.42468	      90.17944
       0.36700	      91.78162	     139.46533	      95.74890	     107.34558
       0.38011	     103.83606	     111.69434	     127.71606	      92.46826
       0.39322	      81.02417	      71.48743	     115.12756	      87.58545
       0.40632	      89.11133	      84.22852	      95.44373	      83.16040
       0.41943	      81.25305	     117.03491	     113.06763	     145.49255
       0.43254	     103.45459	      94.29932	     139.46533	      68.20679
       0.44564	      73.47107	     122.29919	     145.41626	      83.23669
       0.45875	     142.82227	     125.96130	     101.31836	      89.41650
       0.47186	     126.72424	      98.41919	     162.42981	     126.11389
       0.48497	     150.90942	     110.01587	      96.81702	      97.04590
       0.49807	      84.68628	      90.48462	      92.08679	      84.76257
       0.51118	      89.56909	      73.16589	      88.72986	     130.38635
       0.52429	     100.63171	     109.55811	     111.77063	      85.14404
       0.53740	     106.58264	     101.69983	     127.56348	     141.06750
       0.55050	      97.96143	     123.74878	     107.34558	     130.61523
       0.56361	      66.37573	     120.92590	     143.28003	     107.95593
       0.57672	     103.60718	      98.57178	     101.47095	      72.17407
       0.58982	      94.83337	      72.17407	      93.61267	      86.21216
       0.60293	     108.26111	      92.16309	     107.42188	     113.22021
       0.61604	      82.62634	      93.68896	     102.92053	      88.57727
       0.62915	     102.53906	     114.36462	      83.46558	     107.57446
       0.64225	     165.78674	     108.64258	      95.97778	      72.32666
       0.65536	     123.06213	      70.87708	     105.66711	      90.33203
       0.66847	     115.66162	      84.22852	      97.42737	      91.24756
       0.68157	     121.30737	      97.04590	     127.18201	     123.74878
       0.69468	     107.87964	     122.22290	      71.10596	     128.32642
       0.70779	     109.86328	     143.05115	      70.87708	     139.54163
       0.72090	      88.57727	      84.53369	      84.22852	      51.34583
       0.73400	      97.65625	      89.72168	     107.34558	     111.16028
       0.74711	      77.13318	     117.49268	     114.21204	      78.65906
