ALV-7004/USB-FAST
Date :	"3/14/2024"
Time :	"12:33:04 PM"
Samplename : 	""
SampMemo(0) : 	""
SampMemo(1) : 	""
SampMemo(2) : 	""
SampMemo(3) : 	""
SampMemo(4) : 	""
SampMemo(5) : 	""
SampMemo(6) : 	""
SampMemo(7) : 	""
SampMemo(8) : 	""
SampMemo(9) : 	""
Temperature [K] :	     298.16000
Viscosity [cp]  :	       0.89000
Refractive Index:	       1.33200
Wavelength [nm] :	       0.00000
Angle [°]       :	       0.00000
Duration [s]    :	         1
FloatDur [ms]   :	          944
Stop TP [ms]   :	      3223
Runs            :	         1
Mode            :	"A-CH0+1  A-CH2+3 "
MeanCR0 [kHz]   :	     136.24403
MeanCR1 [kHz]   :	     133.85455
MeanCR2 [kHz]   :	     128.75557
MeanCR3 [kHz]   :	     127.80825

"Correlation"
  3.12500E-006	 -1.00000E+000	 -1.00000E+000	 -1.00000E+000	 -1.00000E+000
  6.25000E-006	 -1.00000E+000	 -1.00000E+000	 -1.00000E+000	 -1.00000E+000
  9.37500E-006	 -1.00000E+000	 -1.00000E+000	 -1.00000E+000	 -1.00000E+000
  1.25000E-005	 -1.00000E+000	 -1.00000E+000	 -1.00000E+000	 -1.00000E+000
  1.56250E-005	 -1.00000E+000	 -1.00000E+000	 -1.00000E+000	 -1.00000E+000
  1.87500E-005	 -1.00000E+000	 -1.00000E+000	 -1.00000E+000	 -1.00000E+000
  2.18750E-005	 -9.81733E-001	 -4.13318E-001	 -4.27287E-001	 -9.37725E-001
  2.50000E-005	  5.13779E+000	  5.30210E+000	  5.36121E+000	  1.03132E+001
  2.81250E-005	  2.21503E+000	  1.85771E+000	  1.35221E+000	  4.41789E+000
  3.12500E-005	  6.62317E-001	  5.51869E-001	  9.63588E-001	  2.27980E+000
  3.43750E-005	  1.13727E+000	  7.03271E-001	  7.79501E-001	  1.82312E+000
  3.75000E-005	  2.05637E-001	  7.41122E-001	  6.77231E-001	  1.65705E+000
  4.06250E-005	  4.97912E-001	  1.04393E+000	  9.84042E-001	  1.53250E+000
  4.37500E-005	  6.25783E-001	  8.16823E-001	  5.13599E-001	  1.74008E+000
  4.68750E-005	  6.07516E-001	  7.22196E-001	  5.34053E-001	  1.65705E+000
  5.00000E-005	  5.52714E-001	  7.97897E-001	  6.26096E-001	  1.37681E+000
  5.62500E-005	  5.89248E-001	  6.93808E-001	  8.51090E-001	  1.18999E+000
  6.25000E-005	  5.52714E-001	  4.95093E-001	  7.18139E-001	  8.68238E-001
  6.87500E-005	  4.43111E-001	  3.43692E-001	  6.15869E-001	  8.88996E-001
  7.50000E-005	  4.97912E-001	  6.46495E-001	  6.05642E-001	  9.51271E-001
  8.12500E-005	  5.25313E-001	  3.34229E-001	  4.93145E-001	  8.26722E-001
  8.75000E-005	  6.07516E-001	  5.04556E-001	  7.59047E-001	  6.81414E-001
  9.37500E-005	  4.33977E-001	  6.08645E-001	  7.18139E-001	  4.63453E-001
  1.00000E-004	  5.84681E-001	  4.76168E-001	  6.87458E-001	  4.16747E-001
  1.12500E-004	  6.12082E-001	  6.08645E-001	  5.59620E-001	  5.41296E-001
  1.25000E-004	  4.02009E-001	  5.94451E-001	  4.72690E-001	  6.03571E-001
  1.37500E-004	  5.29880E-001	  5.42406E-001	  5.08485E-001	  7.38499E-001
  1.50000E-004	  5.52714E-001	  3.95736E-001	  5.64734E-001	  4.32316E-001
  1.62500E-004	  6.44050E-001	  4.43049E-001	  4.42009E-001	  4.06368E-001
  1.75000E-004	  6.25783E-001	  5.18750E-001	  4.57350E-001	  4.16747E-001
  1.87500E-004	  5.39013E-001	  4.99825E-001	  4.62463E-001	  3.23335E-001
  2.00000E-004	  4.97912E-001	  4.28855E-001	  5.23825E-001	  4.99780E-001
  2.25000E-004	  4.79645E-001	  4.85630E-001	  5.13598E-001	  4.27126E-001
  2.50000E-004	  4.38543E-001	  5.16384E-001	  4.54793E-001	  4.58263E-001
  2.75000E-004	  4.33977E-001	  5.82622E-001	  4.90587E-001	  5.17943E-001
  3.00000E-004	  5.11612E-001	  4.26489E-001	  4.77804E-001	  5.04969E-001
  3.25000E-004	  5.16179E-001	  5.89719E-001	  4.34339E-001	  4.53074E-001
  3.50000E-004	  4.84211E-001	  4.35952E-001	  5.21268E-001	  4.47884E-001
  3.75000E-004	  4.95628E-001	  5.89719E-001	  4.88031E-001	  3.67446E-001
  4.00000E-004	  5.29879E-001	  4.65522E-001	  5.91579E-001	  4.91995E-001
  4.50000E-004	  4.79644E-001	  5.04555E-001	  4.63741E-001	  5.28321E-001
  5.00000E-004	  4.38543E-001	  5.36491E-001	  5.27660E-001	  4.07664E-001
  5.50000E-004	  5.08187E-001	  4.98641E-001	  4.56071E-001	  4.88102E-001
  6.00000E-004	  5.43579E-001	  5.30577E-001	  4.47122E-001	  4.82913E-001
  6.50000E-004	  4.83069E-001	  4.96275E-001	  4.07492E-001	  4.46586E-001
  7.00000E-004	  5.01336E-001	  4.35951E-001	  4.82917E-001	  4.62155E-001
  7.50000E-004	  4.97911E-001	  4.30037E-001	  4.63741E-001	  4.59560E-001
  8.00000E-004	  4.64801E-001	  4.56058E-001	  5.02103E-001	  4.37503E-001
  9.00000E-004	  4.09999E-001	  4.05788E-001	  5.13609E-001	  4.29070E-001
  1.00000E-003	  5.01906E-001	  5.46544E-001	  4.90598E-001	  4.80317E-001
  1.10000E-003	  4.84210E-001	  4.99822E-001	  5.01464E-001	  4.91345E-001
  1.20000E-003	  4.76218E-001	  4.98640E-001	  4.41380E-001	  4.95237E-001
  1.30000E-003	  4.77359E-001	  5.12242E-001	  5.30867E-001	  4.14799E-001
  1.40000E-003	  4.92201E-001	  5.40642E-001	  4.44576E-001	  4.64100E-001
  1.50000E-003	  4.43108E-001	  5.07523E-001	  4.65669E-001	  4.55667E-001
  1.60000E-003	  4.61373E-001	  4.61685E-001	  4.90927E-001	  5.13073E-001
  1.80000E-003	  4.85920E-001	  5.22010E-001	  4.78143E-001	  4.86814E-001
  2.00000E-003	  4.70792E-001	  5.21418E-001	  4.75894E-001	  4.13847E-001
  2.20000E-003	  4.72219E-001	  4.85342E-001	  5.25112E-001	  4.39795E-001
  2.40000E-003	  4.53096E-001	  5.18757E-001	  4.73337E-001	  4.90069E-001
  2.60000E-003	  4.61088E-001	  5.02789E-001	  5.42370E-001	  4.37525E-001
  2.80000E-003	  4.49385E-001	  4.61685E-001	  4.77172E-001	  4.63473E-001
  3.00000E-003	  4.87632E-001	  4.54293E-001	  5.03060E-001	  4.64770E-001
  3.20000E-003	  4.92348E-001	  4.78388E-001	  5.09139E-001	  4.55197E-001
  3.60000E-003	  5.04051E-001	  4.87703E-001	  5.04984E-001	  4.66387E-001
  4.00000E-003	  4.83785E-001	  4.79866E-001	  4.86939E-001	  4.45466E-001
  4.40000E-003	  4.50819E-001	  4.78104E-001	  4.81850E-001	  4.27951E-001
  4.80000E-003	  4.77934E-001	  4.74703E-001	  4.65071E-001	  4.20978E-001
  5.20000E-003	  4.32694E-001	  4.72042E-001	  4.97658E-001	  4.61359E-001
  5.60000E-003	  4.69229E-001	  4.79435E-001	  4.86632E-001	  4.48235E-001
  6.00000E-003	  4.41685E-001	  4.81061E-001	  4.75126E-001	  4.24395E-001
  6.40000E-003	  4.57896E-001	  4.80113E-001	  4.80482E-001	  4.36236E-001
  7.20000E-003	  4.73155E-001	  4.87444E-001	  4.70015E-001	  4.57319E-001
  8.00000E-003	  4.42340E-001	  4.50701E-001	  4.53955E-001	  4.61293E-001
  8.80000E-003	  4.63473E-001	  4.76724E-001	  4.59947E-001	  4.44507E-001
  9.60000E-003	  4.66327E-001	  4.71845E-001	  4.62744E-001	  4.45318E-001
  1.04000E-002	  4.58121E-001	  4.62234E-001	  4.56432E-001	  4.42723E-001
  1.12000E-002	  4.28008E-001	  4.69479E-001	  4.64422E-001	  4.33641E-001
  1.20000E-002	  4.66399E-001	  4.69923E-001	  4.64889E-001	  4.46535E-001
  1.28000E-002	  4.64211E-001	  4.63642E-001	  4.58629E-001	  4.42027E-001
  1.44000E-002	  4.50356E-001	  4.75471E-001	  4.68977E-001	  4.35458E-001
  1.60000E-002	  4.28412E-001	  4.50224E-001	  4.58469E-001	  4.22565E-001
  1.76000E-002	  4.40437E-001	  4.54574E-001	  4.48801E-001	  4.31566E-001
  1.92000E-002	  4.36833E-001	  4.54452E-001	  4.32181E-001	  4.23648E-001
  2.08000E-002	  4.36001E-001	  4.47983E-001	  4.49680E-001	  4.23121E-001
  2.24000E-002	  4.22585E-001	  4.54674E-001	  4.23911E-001	  4.12904E-001
  2.40000E-002	  4.32005E-001	  4.50127E-001	  4.28186E-001	  4.21662E-001
  2.56000E-002	  4.23866E-001	  4.37000E-001	  4.31045E-001	  4.17312E-001
  2.88000E-002	  4.18085E-001	  4.37788E-001	  4.20517E-001	  4.08554E-001
  3.20000E-002	  4.09332E-001	  4.26218E-001	  4.22906E-001	  4.00283E-001
  3.52000E-002	  4.02709E-001	  4.23427E-001	  4.05854E-001	  3.96553E-001
  3.84000E-002	  4.00492E-001	  4.18430E-001	  4.01499E-001	  3.83814E-001
  4.16000E-002	  3.94094E-001	  4.06694E-001	  4.03240E-001	  3.68155E-001
  4.48000E-002	  3.82551E-001	  4.08298E-001	  3.87392E-001	  3.70567E-001
  4.80000E-002	  3.74969E-001	  3.98484E-001	  3.87136E-001	  3.74228E-001
  5.12000E-002	  3.71991E-001	  3.84245E-001	  3.84291E-001	  3.63053E-001
  5.76000E-002	  3.60165E-001	  3.75371E-001	  3.67833E-001	  3.50169E-001
  6.40000E-002	  3.49216E-001	  3.69835E-001	  3.59112E-001	  3.39476E-001
  7.04000E-002	  3.37126E-001	  3.62591E-001	  3.41874E-001	  3.22537E-001
  7.68000E-002	  3.28361E-001	  3.52564E-001	  3.31981E-001	  3.17368E-001
  8.32000E-002	  3.24184E-001	  3.42445E-001	  3.21330E-001	  3.02032E-001
  8.96000E-002	  3.15686E-001	  3.26662E-001	  3.17963E-001	  2.96985E-001
  9.60000E-002	  2.97370E-001	  3.19147E-001	  3.03919E-001	  2.84902E-001
  1.02400E-001	  2.93721E-001	  3.10936E-001	  2.94103E-001	  2.77647E-001
  1.15200E-001	  2.82735E-001	  2.94303E-001	  2.81256E-001	  2.60887E-001
  1.28000E-001	  2.68557E-001	  2.79225E-001	  2.63885E-001	  2.50822E-001
  1.40800E-001	  2.55976E-001	  2.69280E-001	  2.48702E-001	  2.35188E-001
  1.53600E-001	  2.36909E-001	  2.56923E-001	  2.43543E-001	  2.13050E-001
  1.66400E-001	  2.27911E-001	  2.41573E-001	  2.31546E-001	  2.12067E-001
  1.79200E-001	  2.16504E-001	  2.33649E-001	  2.25474E-001	  1.98434E-001
  1.92000E-001	  2.08538E-001	  2.23223E-001	  2.12167E-001	  1.87607E-001
  2.04800E-001	  2.00000E-001	  2.14796E-001	  2.02686E-001	  1.77508E-001
  2.30400E-001	  1.86986E-001	  1.93514E-001	  1.85679E-001	  1.63719E-001
  2.56000E-001	  1.69641E-001	  1.80277E-001	  1.75101E-001	  1.54237E-001
  2.81600E-001	  1.57040E-001	  1.69556E-001	  1.63718E-001	  1.38497E-001
  3.07200E-001	  1.45843E-001	  1.57404E-001	  1.55759E-001	  1.33793E-001
  3.32800E-001	  1.30122E-001	  1.40945E-001	  1.43657E-001	  1.22356E-001
  3.58400E-001	  1.24176E-001	  1.32984E-001	  1.33465E-001	  1.15995E-001
  3.84000E-001	  1.15718E-001	  1.26290E-001	  1.29448E-001	  1.04725E-001
  4.09600E-001	  1.05707E-001	  1.17938E-001	  1.16287E-001	  9.60999E-002
  4.60800E-001	  9.85721E-002	  1.08858E-001	  1.02993E-001	  8.05042E-002
  5.12000E-001	  9.03848E-002	  9.79348E-002	  8.83957E-002	  6.58723E-002
  5.63200E-001	  8.05792E-002	  8.87294E-002	  7.92924E-002	  5.35212E-002
  6.14400E-001	  7.36599E-002	  7.52528E-002	  6.56322E-002	  4.16098E-002
  6.65600E-001	  6.93799E-002	  7.00866E-002	  5.71423E-002	  3.29530E-002
  7.16800E-001	  6.15516E-002	  6.34755E-002	  4.66374E-002	  3.13189E-002
  7.68000E-001	  5.19386E-002	  5.49492E-002	  4.29700E-002	  3.50542E-002
  8.19200E-001	  4.57617E-002	  4.89008E-002	  3.74625E-002	  3.45266E-002
  9.21600E-001	  4.04537E-002	  4.00224E-002	  2.76604E-002	  2.91961E-002
  1.02400E+000	  3.46658E-002	  3.22751E-002	  1.82680E-002	  2.13639E-002
  1.12640E+000	  2.61918E-002	  2.94629E-002	  1.67192E-002	  1.51619E-002
  1.22880E+000	  2.19387E-002	  2.65215E-002	  1.54844E-002	  1.14059E-002
  1.33120E+000	  1.32275E-002	  2.62189E-002	  9.85306E-003	  7.95227E-003
  1.43360E+000	  1.59427E-002	  2.79950E-002	  6.30175E-003	  6.97543E-003
  1.53600E+000	  1.36396E-002	  2.77188E-002	  5.55830E-004	  8.35681E-003
  1.63840E+000	  1.03506E-002	  2.82086E-002	 -2.79347E-004	  6.16873E-003
  1.84320E+000	  6.85709E-004	  2.60061E-002	 -7.07103E-004	  1.42234E-003
  2.04800E+000	 -2.38784E-003	  1.80673E-002	 -3.50114E-003	  1.59834E-003
  2.25280E+000	 -9.17788E-005	  1.29750E-002	 -2.53320E-003	 -4.35747E-003
  2.45760E+000	  1.31069E-003	  1.01020E-002	 -2.15809E-003	 -5.66661E-003
  2.66240E+000	  1.84447E-003	  1.10973E-002	 -8.36111E-003	 -1.09079E-002
  2.86720E+000	  1.93992E-003	  1.22651E-002	 -1.14545E-002	 -7.94664E-003
  3.07200E+000	  3.00346E-006	  1.17763E-002	 -1.05580E-002	 -8.10887E-003
  3.27680E+000	 -2.26976E-003	  5.46250E-003	 -9.88201E-003	 -4.78372E-003
  3.68640E+000	  3.04201E-003	 -3.29454E-003	 -5.77633E-003	 -5.67379E-003
  4.09600E+000	  1.09120E-004	  6.63076E-004	 -4.56858E-003	 -6.00459E-003
  4.50560E+000	 -7.55294E-003	  9.12535E-003	  3.32667E-003	  2.26396E-003
  4.91520E+000	 -9.11569E-004	  9.94073E-003	  3.88545E-003	  3.90266E-003
  5.32480E+000	  2.32617E-003	  4.20070E-003	  2.15678E-003	  3.89528E-003
  5.73440E+000	  9.50019E-004	  8.34761E-003	 -2.62297E-003	  2.65363E-003
  6.14400E+000	 -3.83920E-003	  1.47557E-002	 -1.65242E-003	  1.79735E-002
  6.55360E+000	 -3.62243E-003	  7.23208E-003	  3.04835E-004	  2.00089E-002
  7.37280E+000	 -5.82275E-004	 -5.11290E-003	 -1.30086E-003	  1.30820E-002
  8.19200E+000	 -1.34170E-002	 -3.86647E-003	 -7.31578E-003	 -1.43277E-004
  9.01120E+000	 -1.02123E-002	 -6.85997E-003	  8.66060E-003	 -1.34480E-003
  9.83040E+000	 -6.04639E-003	  4.79939E-003	  1.41052E-002	  2.68789E-003
  1.06496E+001	 -5.34344E-003	  8.05511E-003	  2.28785E-003	  1.83595E-003
  1.14688E+001	 -4.08678E-003	  9.23305E-003	  1.33681E-003	  4.84200E-003
  1.22880E+001	  1.52141E-003	  1.75683E-002	 -3.31856E-003	  2.73941E-003
  1.31072E+001	  8.09245E-003	  7.74191E-003	 -2.03350E-003	  9.69145E-003
  1.47456E+001	 -2.57873E-003	  1.21024E-003	  4.87655E-003	  6.06959E-003
  1.63840E+001	  6.99427E-003	 -4.63664E-003	  1.97710E-003	  5.05552E-004
  1.80224E+001	  7.25248E-003	 -2.97524E-003	 -4.55078E-003	  3.79830E-004
  1.96608E+001	  3.55787E-003	 -8.65798E-003	 -3.21950E-003	 -7.58504E-003
  2.12992E+001	 -7.41204E-003	  1.59278E-002	 -3.51249E-003	  4.62760E-003
  2.29376E+001	 -9.81060E-003	  8.57682E-004	  4.34631E-004	 -1.45663E-003
  2.45760E+001	 -3.48902E-003	 -2.60732E-004	 -6.04548E-003	  6.49798E-003
  2.62144E+001	 -1.17913E-002	  5.24290E-003	  8.00221E-004	 -7.04491E-003
  2.94912E+001	 -3.58666E-003	  6.31876E-003	 -7.59054E-003	  5.84179E-003
  3.27680E+001	 -1.87204E-003	  6.18998E-003	 -1.26920E-003	 -6.11019E-003
  3.60448E+001	  3.79001E-003	  3.82207E-003	 -1.00889E-003	  2.63566E-003
  3.93216E+001	 -1.88797E-003	 -8.50726E-004	 -4.75921E-003	 -5.22140E-003
  4.25984E+001	 -2.09114E-003	 -2.88927E-003	  3.52413E-003	 -2.80648E-004
  4.58752E+001	  3.03661E-005	 -2.55648E-003	 -5.71939E-004	  7.14532E-004
  4.91520E+001	  7.74903E-003	  3.80678E-003	  3.57362E-004	 -1.21953E-002
  5.24288E+001	 -5.98934E-004	  1.83508E-003	 -4.10407E-003	 -6.61041E-003
  5.89824E+001	 -1.17227E-003	  8.20869E-003	  1.13832E-003	 -5.64233E-004
  6.55360E+001	  3.17606E-003	  1.77912E-003	  1.18670E-003	 -3.89828E-003
  7.20896E+001	 -2.91276E-003	  9.32112E-003	 -3.20929E-003	  3.84091E-003
  7.86432E+001	  4.16684E-003	  1.15684E-002	  7.07959E-005	 -9.33773E-004
  8.51968E+001	  2.21119E-003	  6.87463E-003	 -3.58140E-003	 -2.18110E-004
  9.17504E+001	 -8.49950E-004	  6.78951E-003	 -3.16711E-003	  2.79062E-003
  9.83040E+001	 -4.43203E-003	  1.04217E-003	 -1.62973E-003	 -1.22706E-003
  1.04858E+002	  8.02853E-005	  2.70079E-003	 -9.67867E-004	 -9.29387E-005
  1.17965E+002	  4.05893E-004	  7.42773E-004	  7.96496E-005	 -1.69455E-003
  1.31072E+002	 -7.38433E-004	  3.61396E-003	 -2.12147E-003	 -4.24243E-003
  1.44179E+002	  1.67913E-003	  3.39517E-003	 -9.67942E-004	 -1.15426E-004
  1.57286E+002	 -4.59077E-004	 -3.45610E-004	  3.24575E-004	 -1.25199E-003
  1.70394E+002	 -5.17082E-004	  5.55212E-003	 -2.59720E-004	 -9.62343E-004
  1.83501E+002	 -5.85268E-003	  3.53262E-003	  2.99220E-003	  7.71943E-004
  1.96608E+002	 -7.05502E-005	 -6.29613E-003	  3.62513E-003	  2.54053E-003
  2.09715E+002	  3.61320E-003	  9.40011E-004	  2.74091E-003	 -2.06251E-004
  2.35930E+002	 -1.23416E-003	 -1.04869E-003	 -4.58653E-004	 -3.27985E-004
  2.62144E+002	  1.18374E-003	  2.45745E-003	  1.39268E-004	  3.15494E-003
  2.88358E+002	 -2.03757E-003	  1.26828E-003	 -4.01240E-004	 -2.17809E-003
  3.14573E+002	  3.49107E-003	 -6.63255E-004	  1.01891E-003	  2.42752E-003
  3.40787E+002	 -6.80760E-004	 -9.44598E-004	 -3.09974E-003	  5.63028E-003
  3.67002E+002	 -9.74545E-004	  5.53112E-003	 -2.39247E-004	 -6.33570E-003
  3.93216E+002	 -8.67188E-004	  3.42028E-004	  3.02520E-005	 -4.41250E-003

"Count Rate"
       0.01311	     139.99939	     107.26929	     174.33167	     152.89307
       0.02621	     120.84961	     114.82239	     104.29382	     176.62048
       0.03932	     115.96680	     114.74609	     115.96680	     122.22290
       0.05243	     132.59888	     185.39429	     102.38647	     104.14124
       0.06554	     172.57690	     149.68872	     126.64795	     119.78149
       0.07864	     110.54993	     164.87122	     129.08936	     113.83057
       0.09175	     111.99951	     124.28284	     124.81689	     126.57166
       0.10486	     124.81689	     145.11108	     121.38367	     110.70251
       0.11796	     153.42712	     143.96667	     143.96667	     126.64795
       0.13107	     145.03479	     194.32068	     146.40808	     120.08667
       0.14418	     127.63977	     204.23889	     128.47900	     103.22571
       0.15729	     143.89038	     133.89587	     121.23108	     134.35364
       0.17039	     130.84412	     130.46265	     131.60706	     107.72705
       0.18350	     158.23364	     119.32373	     116.11938	      99.56360
       0.19661	     127.48718	     131.14929	     138.24463	     103.75977
       0.20972	     140.15198	     160.44617	     128.02124	     119.24744
       0.22282	     116.34827	     156.02112	     111.99951	     138.01575
       0.23593	     127.41089	     132.82776	     123.13843	     161.51428
       0.24904	     131.98853	     147.70508	     110.39734	     120.16296
       0.26214	     153.19824	     129.92859	     126.03760	     125.42725
       0.27525	     166.54968	     117.41638	     110.01587	     109.10034
       0.28836	     140.22827	     132.37000	     119.09485	     139.16016
       0.30147	     131.30188	     145.03479	     122.29919	     150.45166
       0.31457	     120.31555	     139.92310	     174.71313	     160.21729
       0.32768	     143.58521	     118.71338	     154.19006	     128.32642
       0.34079	     150.75684	     108.03223	     120.31555	     118.25562
       0.35389	     109.25293	     134.65881	     120.84961	      99.41101
       0.36700	     120.46814	     127.71606	     111.99951	     117.56897
       0.38011	     138.16833	     114.97498	     134.73511	     112.53357
       0.39322	     140.15198	     158.69141	     109.25293	     113.60168
       0.40632	     128.32642	     101.92871	     106.81152	     135.80322
       0.41943	     131.68335	     109.25293	     123.67249	     132.90405
       0.43254	     149.23096	     121.99402	     121.38367	     138.47351
       0.44564	     122.45178	     144.11926	     101.16577	     112.60986
       0.45875	     114.51721	     101.77612	     119.24744	     112.76245
       0.47186	     118.48450	     120.84961	     111.31287	     110.01587
       0.48497	     149.91760	     128.93677	     123.44360	     113.52539
       0.49807	     151.74866	     140.30457	     146.17920	     130.76782
       0.51118	     119.32373	     116.42456	     158.92029	     118.02673
       0.52429	     140.91492	     164.10828	     116.19568	     107.72705
       0.53740	     132.59888	     137.71057	     109.32922	     129.62341
       0.55050	     139.69421	      99.02954	     132.44629	     151.06201
       0.56361	     108.71887	     125.42725	     138.70239	     140.30457
       0.57672	     118.78967	     157.69958	     134.58252	     163.26904
       0.58982	     141.75415	      90.17944	     131.07300	     104.37012
       0.60293	     185.77576	     128.63159	      84.45740	     122.90955
       0.61604	     120.39185	     116.27197	     135.95581	     129.08936
       0.62915	      98.34290	     137.02393	     151.67236	      95.52002
       0.64225	     142.51709	     154.41895	     111.69434	     126.11389
       0.65536	     115.50903	     123.97766	     116.88232	     142.59338
       0.66847	     119.70520	     122.90955	     153.35083	     102.53906
       0.68157	     126.80054	     110.01587	      98.19031	     114.13574
       0.69468	     150.07019	     120.84961	     105.97229	     134.35364
       0.70779	     104.90417	     124.89319	     135.57434	     122.60437
       0.72090	     113.67798	     118.40820	     130.61523	     120.01038
       0.73400	     164.87122	     125.96130	     138.32092	     116.88232
       0.74711	     134.35364	     139.84680	     121.15479	     133.28552
