ALV-7004/USB-FAST
Date :	"3/14/2024"
Time :	"12:34:19 PM"
Samplename : 	""
SampMemo(0) : 	""
SampMemo(1) : 	""
SampMemo(2) : 	""
SampMemo(3) : 	""
SampMemo(4) : 	""
SampMemo(5) : 	""
SampMemo(6) : 	""
SampMemo(7) : 	""
SampMemo(8) : 	""
SampMemo(9) : 	""
Temperature [K] :	     298.16000
Viscosity [cp]  :	       0.89000
Refractive Index:	       1.33200
Wavelength [nm] :	       0.00000
Angle [°]       :	       0.00000
Duration [s]    :	         1
FloatDur [ms]   :	          944
Stop TP [ms]   :	      3489
Runs            :	         1
Mode            :	"A-CH0+1  A-CH2+3 "
MeanCR0 [kHz]   :	     106.93974
MeanCR1 [kHz]   :	     110.44184
MeanCR2 [kHz]   :	     110.63470
MeanCR3 [kHz]   :	     106.55827

"Correlation"
  3.12500E-006	 -1.00000E+000	 -1.00000E+000	 -1.00000E+000	 -1.00000E+000
  6.25000E-006	 -1.00000E+000	 -1.00000E+000	 -1.00000E+000	 -1.00000E+000
  9.37500E-006	 -1.00000E+000	 -1.00000E+000	 -1.00000E+000	 -1.00000E+000
  1.25000E-005	 -1.00000E+000	 -1.00000E+000	 -1.00000E+000	 -1.00000E+000
  1.56250E-005	 -1.00000E+000	 -1.00000E+000	 -1.00000E+000	 -1.00000E+000
  1.87500E-005	 -1.00000E+000	 -1.00000E+000	 -1.00000E+000	 -1.00000E+000
  2.18750E-005	 -9.11049E-001	 -5.27405E-001	 -3.62834E-001	 -9.70137E-001
  2.50000E-005	  6.94628E+000	  6.11673E+000	  6.06423E+000	  1.29759E+001
  2.81250E-005	  1.75748E+000	  1.47417E+000	  1.65948E+000	  5.00246E+000
  3.12500E-005	  7.79019E-001	  9.18180E-001	  9.11498E-001	  2.76274E+000
  3.43750E-005	  1.16447E+000	  8.06981E-001	  1.05001E+000	  2.46411E+000
  3.75000E-005	  6.30767E-001	  6.40183E-001	  9.94607E-001	  2.40438E+000
  4.06250E-005	  1.10517E+000	  4.17785E-001	  8.28390E-001	  2.07589E+000
  4.37500E-005	  5.71467E-001	  4.45585E-001	  5.79064E-001	  1.47863E+000
  4.68750E-005	  1.10517E+000	  4.73385E-001	  6.34470E-001	  1.77726E+000
  5.00000E-005	  7.19718E-001	  5.28984E-001	  4.54401E-001	  1.47863E+000
  5.62500E-005	  7.49368E-001	  8.62580E-001	  5.79064E-001	  1.16507E+000
  6.25000E-005	  5.26991E-001	  4.73384E-001	  5.37509E-001	  9.85888E-001
  6.87500E-005	  6.60417E-001	  3.89985E-001	  5.51361E-001	  7.32053E-001
  7.50000E-005	  2.30488E-001	  4.45585E-001	  6.20618E-001	  1.07548E+000
  8.12500E-005	  7.64194E-001	  7.65281E-001	  5.92915E-001	  7.61916E-001
  8.75000E-005	  5.41816E-001	  5.15084E-001	  7.03727E-001	  6.72327E-001
  9.37500E-005	  7.79019E-001	  6.81882E-001	  5.51361E-001	  6.27533E-001
  1.00000E-004	  5.19578E-001	  6.33233E-001	  4.33623E-001	  4.63286E-001
  1.12500E-004	  5.78879E-001	  5.49833E-001	  5.30584E-001	  6.34998E-001
  1.25000E-004	  4.75103E-001	  5.70683E-001	  4.95955E-001	  7.69382E-001
  1.37500E-004	  4.52865E-001	  7.30532E-001	  4.05921E-001	  5.75272E-001
  1.50000E-004	  5.56641E-001	  4.59484E-001	  4.61326E-001	  8.29108E-001
  1.62500E-004	  6.01117E-001	  6.40182E-001	  3.78218E-001	  5.00615E-001
  1.75000E-004	  7.27130E-001	  5.42884E-001	  5.51361E-001	  4.93149E-001
  1.87500E-004	  4.38040E-001	  5.15084E-001	  6.76024E-001	  4.70752E-001
  2.00000E-004	  5.52935E-001	  5.01184E-001	  7.24503E-001	  4.37156E-001
  2.25000E-004	  4.71396E-001	  5.77633E-001	  4.85566E-001	  5.34210E-001
  2.50000E-004	  5.56641E-001	  4.62959E-001	  5.23658E-001	  4.96882E-001
  2.75000E-004	  6.56711E-001	  4.73384E-001	  5.06343E-001	  5.00614E-001
  3.00000E-004	  5.23284E-001	  4.42109E-001	  6.62172E-001	  5.19279E-001
  3.25000E-004	  5.97410E-001	  4.10835E-001	  5.61749E-001	  5.26745E-001
  3.50000E-004	  5.52935E-001	  4.28209E-001	  5.47898E-001	  6.16333E-001
  3.75000E-004	  4.97340E-001	  4.83809E-001	  4.44012E-001	  5.56607E-001
  4.00000E-004	  5.01046E-001	  4.89021E-001	  4.82103E-001	  5.15545E-001
  4.50000E-004	  5.06605E-001	  4.35159E-001	  5.47897E-001	  4.74484E-001
  5.00000E-004	  4.69542E-001	  5.11608E-001	  5.23657E-001	  5.00614E-001
  5.50000E-004	  4.17654E-001	  4.61221E-001	  4.57863E-001	  4.46487E-001
  6.00000E-004	  5.39962E-001	  5.25508E-001	  5.16731E-001	  4.18491E-001
  6.50000E-004	  4.99193E-001	  4.54271E-001	  5.58285E-001	  4.29689E-001
  7.00000E-004	  5.34402E-001	  4.83808E-001	  5.87720E-001	  4.78217E-001
  7.50000E-004	  5.41815E-001	  4.97708E-001	  5.35777E-001	  6.16333E-001
  8.00000E-004	  5.09399E-001	  5.29850E-001	  5.12401E-001	  4.97813E-001
  9.00000E-004	  4.84381E-001	  5.09000E-001	  5.05476E-001	  4.67950E-001
  1.00000E-003	  5.18665E-001	  4.50795E-001	  4.71713E-001	  5.06212E-001
  1.10000E-003	  4.88087E-001	  5.11607E-001	  4.79504E-001	  4.77282E-001
  1.20000E-003	  4.77895E-001	  4.11702E-001	  4.64787E-001	  4.90347E-001
  1.30000E-003	  5.25151E-001	  4.70776E-001	  4.26696E-001	  5.00612E-001
  1.40000E-003	  4.95500E-001	  5.47225E-001	  4.38816E-001	  4.59551E-001
  1.50000E-003	  5.15885E-001	  5.30719E-001	  4.77773E-001	  4.74482E-001
  1.60000E-003	  5.27016E-001	  4.54702E-001	  5.17593E-001	  4.41817E-001
  1.80000E-003	  5.01535E-001	  4.68602E-001	  5.67804E-001	  4.50216E-001
  2.00000E-003	  5.39510E-001	  4.63823E-001	  5.15429E-001	  4.82412E-001
  2.20000E-003	  4.88548E-001	  5.15079E-001	  5.16727E-001	  4.54416E-001
  2.40000E-003	  5.26075E-001	  4.89886E-001	  5.31444E-001	  4.74013E-001
  2.60000E-003	  4.97351E-001	  5.25070E-001	  5.00279E-001	  4.19420E-001
  2.80000E-003	  4.97351E-001	  4.80330E-001	  4.48769E-001	  4.67947E-001
  3.00000E-003	  4.85305E-001	  4.74683E-001	  5.13264E-001	  4.50683E-001
  3.20000E-003	  4.99677E-001	  5.04881E-001	  5.40096E-001	  4.15230E-001
  3.60000E-003	  5.25158E-001	  5.25079E-001	  5.01789E-001	  4.33428E-001
  4.00000E-003	  4.90179E-001	  4.54711E-001	  4.94863E-001	  4.59325E-001
  4.40000E-003	  4.91569E-001	  4.92718E-001	  5.16073E-001	  4.69357E-001
  4.80000E-003	  5.10101E-001	  4.68176E-001	  5.05468E-001	  4.95254E-001
  5.20000E-003	  5.36725E-001	  4.89243E-001	  5.13476E-001	  4.44393E-001
  5.60000E-003	  5.30702E-001	  4.51236E-001	  4.91833E-001	  4.71690E-001
  6.00000E-003	  4.99662E-001	  4.81425E-001	  4.79497E-001	  4.48593E-001
  6.40000E-003	  4.99465E-001	  5.00433E-001	  5.12506E-001	  4.60510E-001
  7.20000E-003	  5.11395E-001	  4.84904E-001	  4.69220E-001	  4.49895E-001
  8.00000E-003	  4.90315E-001	  4.78714E-001	  4.96382E-001	  4.49880E-001
  8.80000E-003	  5.12205E-001	  4.85433E-001	  4.90430E-001	  4.81727E-001
  9.60000E-003	  5.01202E-001	  4.88039E-001	  4.87184E-001	  4.60846E-001
  1.04000E-002	  4.84755E-001	  4.71858E-001	  4.79176E-001	  4.42881E-001
  1.12000E-002	  4.74562E-001	  4.66863E-001	  4.85669E-001	  4.54080E-001
  1.20000E-002	  4.86941E-001	  4.61325E-001	  4.93785E-001	  4.60146E-001
  1.28000E-002	  4.97331E-001	  4.77445E-001	  4.79347E-001	  4.57705E-001
  1.44000E-002	  5.10362E-001	  4.57790E-001	  5.03208E-001	  4.41374E-001
  1.60000E-002	  4.82723E-001	  4.66695E-001	  4.92874E-001	  4.50998E-001
  1.76000E-002	  4.90078E-001	  4.66640E-001	  4.86922E-001	  4.57924E-001
  1.92000E-002	  4.76685E-001	  4.67346E-001	  4.80956E-001	  4.41710E-001
  2.08000E-002	  4.72863E-001	  4.73482E-001	  4.77601E-001	  4.50050E-001
  2.24000E-002	  4.83577E-001	  4.79983E-001	  4.75329E-001	  4.41360E-001
  2.40000E-002	  4.77264E-001	  4.67766E-001	  4.79333E-001	  4.58566E-001
  2.56000E-002	  4.81265E-001	  4.58918E-001	  4.79242E-001	  4.47473E-001
  2.88000E-002	  4.77819E-001	  4.49661E-001	  4.64200E-001	  4.31345E-001
  3.20000E-002	  4.83436E-001	  4.57832E-001	  4.78011E-001	  4.34203E-001
  3.52000E-002	  4.65237E-001	  4.35843E-001	  4.60412E-001	  4.33124E-001
  3.84000E-002	  4.71275E-001	  4.54194E-001	  4.48346E-001	  4.26504E-001
  4.16000E-002	  4.66511E-001	  4.51697E-001	  4.51674E-001	  4.29216E-001
  4.48000E-002	  4.62211E-001	  4.42277E-001	  4.50605E-001	  4.14911E-001
  4.80000E-002	  4.59518E-001	  4.23016E-001	  4.53947E-001	  4.28808E-001
  5.12000E-002	  4.53386E-001	  4.28992E-001	  4.47582E-001	  4.19118E-001
  5.76000E-002	  4.56340E-001	  4.32711E-001	  4.43767E-001	  4.12833E-001
  6.40000E-002	  4.41136E-001	  4.18269E-001	  4.42455E-001	  4.10209E-001
  7.04000E-002	  4.43351E-001	  4.21310E-001	  4.32498E-001	  4.06301E-001
  7.68000E-002	  4.37646E-001	  4.10058E-001	  4.28291E-001	  4.00891E-001
  8.32000E-002	  4.36242E-001	  4.10017E-001	  4.26343E-001	  4.05441E-001
  8.96000E-002	  4.31419E-001	  4.00285E-001	  4.19173E-001	  3.95364E-001
  9.60000E-002	  4.27987E-001	  3.98779E-001	  4.16238E-001	  3.84632E-001
  1.02400E-001	  4.22982E-001	  3.92491E-001	  4.12432E-001	  3.84488E-001
  1.15200E-001	  4.12128E-001	  3.85549E-001	  4.04104E-001	  3.78515E-001
  1.28000E-001	  4.08687E-001	  3.75737E-001	  3.90670E-001	  3.69079E-001
  1.40800E-001	  3.98362E-001	  3.70783E-001	  3.84567E-001	  3.66403E-001
  1.53600E-001	  3.91464E-001	  3.61398E-001	  3.81881E-001	  3.55285E-001
  1.66400E-001	  3.85339E-001	  3.55331E-001	  3.73013E-001	  3.43383E-001
  1.79200E-001	  3.79966E-001	  3.50716E-001	  3.66950E-001	  3.34047E-001
  1.92000E-001	  3.76236E-001	  3.44107E-001	  3.54360E-001	  3.22662E-001
  2.04800E-001	  3.63797E-001	  3.41191E-001	  3.51130E-001	  3.20919E-001
  2.30400E-001	  3.48047E-001	  3.22404E-001	  3.35791E-001	  3.05015E-001
  2.56000E-001	  3.34159E-001	  3.07682E-001	  3.23936E-001	  2.92641E-001
  2.81600E-001	  3.20610E-001	  2.91682E-001	  3.15657E-001	  2.71691E-001
  3.07200E-001	  3.07517E-001	  2.84322E-001	  2.97424E-001	  2.61701E-001
  3.32800E-001	  2.90956E-001	  2.70762E-001	  2.84065E-001	  2.51219E-001
  3.58400E-001	  2.77568E-001	  2.56565E-001	  2.73570E-001	  2.35484E-001
  3.84000E-001	  2.74451E-001	  2.40540E-001	  2.60533E-001	  2.30196E-001
  4.09600E-001	  2.56646E-001	  2.33126E-001	  2.46779E-001	  2.15105E-001
  4.60800E-001	  2.38607E-001	  2.11933E-001	  2.25396E-001	  1.92957E-001
  5.12000E-001	  2.17886E-001	  1.91236E-001	  2.08393E-001	  1.73243E-001
  5.63200E-001	  2.01101E-001	  1.74347E-001	  1.90359E-001	  1.56095E-001
  6.14400E-001	  1.79839E-001	  1.57722E-001	  1.75736E-001	  1.39950E-001
  6.65600E-001	  1.64876E-001	  1.39438E-001	  1.61086E-001	  1.21449E-001
  7.16800E-001	  1.53415E-001	  1.28074E-001	  1.46952E-001	  1.07603E-001
  7.68000E-001	  1.39065E-001	  1.12898E-001	  1.37243E-001	  9.37763E-002
  8.19200E-001	  1.29199E-001	  1.03167E-001	  1.28245E-001	  8.65033E-002
  9.21600E-001	  1.11604E-001	  8.25454E-002	  1.07147E-001	  6.87100E-002
  1.02400E+000	  9.49389E-002	  7.05669E-002	  8.77740E-002	  5.55151E-002
  1.12640E+000	  8.21242E-002	  5.78012E-002	  7.09684E-002	  4.38695E-002
  1.22880E+000	  7.23532E-002	  4.76787E-002	  6.03847E-002	  3.38288E-002
  1.33120E+000	  5.82474E-002	  3.58555E-002	  4.67978E-002	  2.56000E-002
  1.43360E+000	  4.81408E-002	  2.84740E-002	  3.65386E-002	  2.13811E-002
  1.53600E+000	  3.83006E-002	  2.24132E-002	  2.60201E-002	  1.52634E-002
  1.63840E+000	  2.95579E-002	  1.40719E-002	  2.22709E-002	  1.27742E-002
  1.84320E+000	  1.78859E-002	  2.93827E-003	  1.81914E-002	  7.45259E-003
  2.04800E+000	  1.14725E-002	 -5.43536E-003	  2.14759E-002	  1.92992E-003
  2.25280E+000	  5.30697E-003	 -1.23574E-002	  1.98574E-002	  5.90900E-003
  2.45760E+000	  8.54036E-003	 -1.25072E-002	  1.62455E-002	  1.18562E-002
  2.66240E+000	  9.35505E-003	 -1.68879E-002	  9.45350E-003	  1.61976E-002
  2.86720E+000	  3.68147E-003	 -1.81747E-002	  8.98524E-004	  2.14253E-002
  3.07200E+000	 -3.71252E-003	 -1.64755E-002	 -7.22979E-003	  1.78241E-002
  3.27680E+000	 -7.94085E-003	 -1.67656E-002	 -7.11432E-003	  1.13528E-002
  3.68640E+000	 -6.81223E-003	 -1.19327E-002	 -1.60504E-002	  1.02062E-002
  4.09600E+000	 -4.83444E-003	  9.68696E-005	 -2.17077E-002	  7.73658E-003
  4.50560E+000	 -1.27247E-003	  1.55622E-002	 -1.92966E-002	  2.85928E-003
  4.91520E+000	 -2.04452E-003	  2.03096E-002	 -1.96535E-002	 -2.41297E-003
  5.32480E+000	 -9.71737E-003	  1.64994E-002	 -8.06317E-003	  2.39293E-003
  5.73440E+000	 -3.30346E-003	  1.40740E-002	 -1.56118E-003	  9.91604E-003
  6.14400E+000	  1.61457E-003	  1.10631E-002	  1.23390E-003	  1.82356E-002
  6.55360E+000	  5.76051E-003	  6.44140E-003	  1.22233E-003	  2.31982E-002
  7.37280E+000	 -1.60745E-002	 -4.19620E-003	 -1.12486E-002	  9.18700E-003
  8.19200E+000	 -3.09644E-002	 -1.72670E-003	 -7.76377E-003	  7.74604E-005
  9.01120E+000	 -2.54074E-002	 -4.04155E-004	 -9.64650E-003	  8.52919E-003
  9.83040E+000	 -1.58361E-002	  8.29583E-003	 -1.74126E-002	  1.31991E-003
  1.06496E+001	  4.34329E-003	 -3.72587E-003	 -8.12450E-003	 -5.28775E-004
  1.14688E+001	  1.49659E-002	 -1.96039E-002	  5.23571E-003	 -3.45039E-003
  1.22880E+001	  1.30244E-002	 -2.15111E-002	  1.21727E-002	 -1.43841E-002
  1.31072E+001	  1.63718E-002	 -8.06048E-003	  1.53306E-002	 -6.88687E-003
  1.47456E+001	 -7.18747E-003	  1.68326E-002	  5.23064E-004	 -5.46485E-003
  1.63840E+001	  8.24386E-003	  1.38072E-002	  6.86570E-003	 -1.28425E-002
  1.80224E+001	 -5.37838E-003	 -3.76646E-003	  1.41188E-002	  8.59915E-003
  1.96608E+001	 -2.01610E-002	  1.80569E-003	 -1.08832E-002	 -8.49173E-003
  2.12992E+001	 -1.76900E-002	  3.67573E-003	 -1.38602E-002	  8.03304E-004
  2.29376E+001	  9.76443E-003	  8.39287E-003	  6.42376E-003	  4.66735E-004
  2.45760E+001	  9.06282E-003	  6.91344E-003	 -5.48284E-003	 -1.01389E-004
  2.62144E+001	  1.27314E-002	 -9.15000E-003	 -1.42293E-002	 -2.05748E-003
  2.94912E+001	 -1.22184E-003	 -2.21753E-003	 -8.86779E-003	 -1.61243E-002
  3.27680E+001	 -1.59486E-002	  1.61850E-002	 -1.56627E-002	 -9.89819E-004
  3.60448E+001	  1.09470E-002	  1.09158E-003	 -1.05772E-002	 -6.88690E-003
  3.93216E+001	  3.01383E-003	 -2.86726E-003	  1.16029E-002	 -8.28303E-003
  4.25984E+001	 -2.33949E-003	  9.77840E-003	  1.10176E-003	 -2.23471E-003
  4.58752E+001	 -1.97363E-002	 -2.15242E-002	 -8.08702E-003	  7.49839E-003
  4.91520E+001	  9.21896E-003	 -7.85570E-003	  3.14491E-003	 -6.01537E-003
  5.24288E+001	  6.78200E-004	 -6.54103E-003	 -7.19600E-003	 -2.78969E-003
  5.89824E+001	 -7.73850E-003	  6.32899E-003	  9.56345E-005	 -1.08445E-002
  6.55360E+001	 -6.74288E-004	  1.69236E-004	 -7.64563E-004	 -8.41105E-003
  7.20896E+001	 -9.78260E-003	  5.96121E-003	  1.22335E-002	 -3.08856E-004
  7.86432E+001	 -5.94001E-003	 -7.15362E-003	  4.68253E-003	  7.43003E-003
  8.51968E+001	 -8.81701E-003	 -7.24586E-004	  9.66593E-003	  1.76101E-003
  9.17504E+001	  1.40027E-002	 -9.62329E-004	 -1.65137E-003	 -7.43046E-003
  9.83040E+001	 -1.81012E-003	 -2.02396E-003	  5.71242E-003	  1.38887E-003
  1.04858E+002	 -4.39639E-003	 -8.53581E-004	 -4.02656E-003	  5.39951E-003
  1.17965E+002	 -1.36046E-002	 -3.09843E-003	 -7.07089E-003	 -3.70830E-003
  1.31072E+002	  9.78494E-003	 -1.65147E-003	 -2.02711E-003	 -9.90646E-003
  1.44179E+002	  3.39390E-003	  3.61421E-003	 -7.12766E-003	 -9.55906E-004
  1.57286E+002	  4.83417E-004	 -4.25126E-003	  7.98381E-003	  9.63748E-003
  1.70394E+002	  5.72008E-004	  3.05561E-003	 -2.94702E-003	  5.21798E-003
  1.83501E+002	  3.06931E-003	 -4.92838E-003	 -1.57757E-003	 -2.38841E-004
  1.96608E+002	  5.58083E-004	 -7.80733E-003	 -4.58776E-004	  7.56817E-004
  2.09715E+002	  7.22108E-004	 -2.91380E-003	 -6.53969E-003	 -9.67270E-003
  2.35930E+002	  8.87818E-003	  2.94615E-003	 -3.83802E-003	  9.88695E-004
  2.62144E+002	 -5.97101E-003	  2.85390E-003	 -5.48627E-003	  4.18167E-003
  2.88358E+002	 -3.56615E-003	 -3.05317E-004	 -1.14689E-003	 -2.24416E-004
  3.14573E+002	  5.81209E-004	  4.57698E-003	  8.28758E-004	 -2.14934E-003
  3.40787E+002	 -4.17369E-003	  4.57593E-003	  5.99147E-003	  3.21131E-003
  3.67002E+002	  1.07880E-002	 -1.88111E-003	  3.74707E-004	  3.85952E-003
  3.93216E+002	  5.82700E-003	 -4.16764E-003	  2.58752E-003	 -1.19291E-002

"Count Rate"
       0.01311	     122.83325	      83.00781	     111.77063	      99.41101
       0.02621	     120.84961	     112.60986	     111.84692	      87.28027
       0.03932	      73.39478	     109.17664	     140.99121	      77.97241
       0.05243	      83.08411	      93.30750	      77.59094	     117.72156
       0.06554	      92.23938	     109.17664	     100.47913	     103.53088
       0.07864	      72.86072	      87.35657	     125.19836	      94.22302
       0.09175	     119.40002	      86.59363	      88.50098	     119.32373
       0.10486	      93.61267	     103.53088	     109.78699	      96.66443
       0.11796	     122.90955	     102.38647	     114.82239	     106.04858
       0.13107	     118.78967	      84.07593	     113.83057	      93.61267
       0.14418	     139.08386	     116.04309	     108.18481	      80.03235
       0.15729	     115.58533	     113.44910	     116.88232	     116.50085
       0.17039	     107.80334	      86.59363	      96.51184	     165.93933
       0.18350	     115.12756	     201.87378	     104.29382	      98.49548
       0.19661	     113.90686	     113.67798	     127.63977	     120.92590
       0.20972	      67.97791	     109.10034	     142.59338	     136.10840
       0.22282	     131.60706	     105.28564	      82.55005	     113.83057
       0.23593	      88.72986	     112.76245	     105.51453	      73.31848
       0.24904	     127.25830	      92.92603	     100.09766	     111.69434
       0.26214	     111.61804	     115.50903	     134.50623	     114.74609
       0.27525	      99.71619	     108.94775	      82.01599	      98.64807
       0.28836	      98.72437	     112.76245	     120.77332	      99.63989
       0.30147	      99.25842	     105.66711	      99.86877	     102.99683
       0.31457	     124.81689	     145.11108	      92.84973	     109.10034
       0.32768	     141.67786	     153.96118	     104.37012	      86.66992
       0.34079	     124.81689	      75.68359	     145.11108	      90.02686
       0.35389	      83.84705	     129.16565	     136.41357	      69.04602
       0.36700	     101.24207	      87.35657	      77.28577	     160.36987
       0.38011	      88.95874	      97.80884	      94.60449	      88.72986
       0.39322	      83.77075	      86.89880	      81.55823	      96.81702
       0.40632	      90.17944	      90.33203	      97.04590	      97.27478
       0.41943	     129.47083	     135.72693	     145.11108	     108.87146
       0.43254	      91.62903	     116.27197	     101.08948	      90.94238
       0.44564	      75.83618	     105.97229	      76.98059	     133.59070
       0.45875	      93.68896	      85.37292	      72.86072	      90.48462
       0.47186	     125.12207	      92.62085	      69.42749	     124.66431
       0.48497	     123.51990	     130.46265	     113.98315	     141.83044
       0.49807	     109.32922	     130.92041	     111.23657	      77.43835
       0.51118	      91.24756	     132.75146	     127.18201	      85.90698
       0.52429	     119.47632	     128.40271	     125.73242	     120.77332
       0.53740	      88.19580	     105.97229	     131.91223	     108.56628
       0.55050	     107.65076	     101.69983	     122.45178	     142.05933
       0.56361	     144.04297	     113.98315	      93.68896	      70.57190
       0.57672	      85.37292	     120.23926	     131.14929	      74.76807
       0.58982	      90.56091	     117.79785	     108.03223	      68.13049
       0.60293	     113.60168	     142.05933	     141.06750	     106.58264
       0.61604	     110.39734	      78.35388	     133.66699	     127.63977
       0.62915	      90.86609	     126.57166	      82.09229	     163.49792
       0.64225	      64.62097	     101.24207	     133.81958	     116.04309
       0.65536	     149.00208	      89.41650	     122.07031	     115.81421
       0.66847	      63.24768	     103.91235	      91.78162	      79.04053
       0.68157	      95.97778	      97.73254	     131.53076	     110.77881
       0.69468	     145.18738	      81.25305	      97.27478	      84.30481
       0.70779	     128.32642	      61.18774	     140.07568	      86.44104
       0.72090	     121.61255	      88.88245	      95.29114	     100.47913
       0.73400	     108.41370	     126.87683	      98.87695	      95.29114
       0.74711	      83.00781	     136.03210	      89.41650	      99.48730
