ALV-7004/USB-FAST
Date :	"3/14/2024"
Time :	"12:34:16 PM"
Samplename : 	""
SampMemo(0) : 	""
SampMemo(1) : 	""
SampMemo(2) : 	""
SampMemo(3) : 	""
SampMemo(4) : 	""
SampMemo(5) : 	""
SampMemo(6) : 	""
SampMemo(7) : 	""
SampMemo(8) : 	""
SampMemo(9) : 	""
Temperature [K] :	     298.16000
Viscosity [cp]  :	       0.89000
Refractive Index:	       1.33200
Wavelength [nm] :	       0.00000
Angle [°]       :	       0.00000
Duration [s]    :	         1
FloatDur [ms]   :	          944
Stop TP [ms]   :	      3474
Runs            :	         1
Mode            :	"A-CH0+1  A-CH2+3 "
MeanCR0 [kHz]   :	     109.34618
MeanCR1 [kHz]   :	     107.86163
MeanCR2 [kHz]   :	     110.80954
MeanCR3 [kHz]   :	     108.03434

"Correlation"
  3.12500E-006	 -1.00000E+000	 -1.00000E+000	 -1.00000E+000	 -1.00000E+000
  6.25000E-006	 -1.00000E+000	 -1.00000E+000	 -1.00000E+000	 -1.00000E+000
  9.37500E-006	 -1.00000E+000	 -1.00000E+000	 -1.00000E+000	 -1.00000E+000
  1.25000E-005	 -1.00000E+000	 -1.00000E+000	 -1.00000E+000	 -1.00000E+000
  1.56250E-005	 -1.00000E+000	 -1.00000E+000	 -1.00000E+000	 -1.00000E+000
  1.87500E-005	 -1.00000E+000	 -1.00000E+000	 -1.00000E+000	 -1.00000E+000
  2.18750E-005	 -8.86562E-001	 -4.17087E-001	 -1.43919E-001	 -9.12842E-001
  2.50000E-005	  6.51530E+000	  6.78189E+000	  7.31227E+000	  1.19865E+001
  2.81250E-005	  1.55237E+000	  1.88542E+000	  1.51301E+000	  4.72335E+000
  3.12500E-005	  9.00094E-001	  9.52758E-001	  8.50240E-001	  3.64840E+000
  3.43750E-005	  1.41057E+000	  6.61302E-001	  1.07116E+000	  2.28293E+000
  3.75000E-005	  6.73217E-001	  3.69845E-001	  7.12162E-001	  2.10862E+000
  4.06250E-005	  1.09861E+000	  7.48738E-001	  6.84547E-001	  1.20799E+000
  4.37500E-005	  8.15015E-001	  9.81904E-001	  5.74085E-001	  1.61473E+000
  4.68750E-005	  4.17981E-001	  1.27336E+000	  1.01593E+000	  1.58567E+000
  5.00000E-005	  6.73217E-001	  1.11306E+000	  6.70739E-001	  1.20799E+000
  5.62500E-005	  7.86656E-001	  3.55272E-001	  6.43123E-001	  1.07726E+000
  6.25000E-005	  5.73959E-001	  6.90447E-001	  4.36007E-001	  9.46519E-001
  6.87500E-005	  5.45599E-001	  8.79894E-001	  6.01700E-001	  8.59361E-001
  7.50000E-005	  5.88138E-001	  5.30146E-001	  6.29316E-001	  1.32420E+000
  8.12500E-005	  6.02318E-001	  6.90447E-001	  5.46469E-001	  9.02940E-001
  8.75000E-005	  5.59779E-001	  6.75874E-001	  2.70314E-001	  7.72204E-001
  9.37500E-005	  5.31419E-001	  3.69845E-001	  6.43123E-001	  6.55994E-001
  1.00000E-004	  5.03059E-001	  5.44719E-001	  6.01700E-001	  6.99572E-001
  1.12500E-004	  5.88138E-001	  6.10296E-001	  3.94584E-001	  7.14099E-001
  1.25000E-004	  5.81048E-001	  3.77131E-001	  5.46469E-001	  7.79467E-001
  1.37500E-004	  4.10891E-001	  3.33413E-001	  4.29103E-001	  5.32520E-001
  1.50000E-004	  5.88138E-001	  4.57282E-001	  3.46256E-001	  5.83362E-001
  1.62500E-004	  7.37026E-001	  5.95724E-001	  2.28890E-001	  6.26941E-001
  1.75000E-004	  5.66868E-001	  6.97733E-001	  5.74084E-001	  6.19678E-001
  1.87500E-004	  5.17239E-001	  6.90447E-001	  5.18853E-001	  4.52626E-001
  2.00000E-004	  5.42053E-001	  4.79141E-001	  4.42910E-001	  4.09047E-001
  2.25000E-004	  5.20784E-001	  5.70221E-001	  3.87679E-001	  4.70783E-001
  2.50000E-004	  4.46340E-001	  4.42709E-001	  6.18959E-001	  4.96204E-001
  2.75000E-004	  4.28615E-001	  5.95723E-001	  5.18853E-001	  5.94257E-001
  3.00000E-004	  3.78986E-001	  4.60925E-001	  5.15401E-001	  5.07099E-001
  3.25000E-004	  5.13694E-001	  5.41075E-001	  4.56718E-001	  5.50678E-001
  3.50000E-004	  4.21525E-001	  5.92080E-001	  5.15401E-001	  4.52626E-001
  3.75000E-004	  3.86076E-001	  5.44718E-001	  3.28996E-001	  4.34468E-001
  4.00000E-004	  4.94196E-001	  5.59291E-001	  4.63621E-001	  4.76230E-001
  4.50000E-004	  4.23297E-001	  5.13751E-001	  4.54992E-001	  5.56124E-001
  5.00000E-004	  4.56974E-001	  4.93713E-001	  4.91237E-001	  5.76098E-001
  5.50000E-004	  5.59778E-001	  5.62934E-001	  5.80987E-001	  4.18125E-001
  6.00000E-004	  4.72926E-001	  5.31967E-001	  5.63728E-001	  5.19809E-001
  6.50000E-004	  5.82820E-001	  5.00999E-001	  4.34280E-001	  5.37967E-001
  7.00000E-004	  5.73957E-001	  5.22859E-001	  5.05045E-001	  5.50677E-001
  7.50000E-004	  4.97741E-001	  5.11929E-001	  4.86059E-001	  4.63520E-001
  8.00000E-004	  5.50914E-001	  5.64754E-001	  4.95551E-001	  4.64441E-001
  9.00000E-004	  4.54314E-001	  5.65665E-001	  4.73113E-001	  4.89862E-001
  1.00000E-003	  4.42793E-001	  5.13749E-001	  4.13567E-001	  4.49006E-001
  1.10000E-003	  4.14433E-001	  5.55646E-001	  5.07632E-001	  5.16191E-001
  1.20000E-003	  4.68494E-001	  5.48360E-001	  4.49812E-001	  4.79875E-001
  1.30000E-003	  4.86219E-001	  5.09195E-001	  4.61894E-001	  4.64441E-001
  1.40000E-003	  5.19896E-001	  5.06463E-001	  4.10115E-001	  4.81691E-001
  1.50000E-003	  4.40134E-001	  4.91890E-001	  3.98896E-001	  4.38112E-001
  1.60000E-003	  4.49880E-001	  5.33799E-001	  4.45927E-001	  5.56166E-001
  1.80000E-003	  4.53869E-001	  5.00555E-001	  4.78720E-001	  4.93974E-001
  2.00000E-003	  4.79126E-001	  4.96001E-001	  4.78288E-001	  4.81717E-001
  2.20000E-003	  4.38359E-001	  5.25602E-001	  4.22626E-001	  4.42663E-001
  2.40000E-003	  4.66276E-001	  4.90536E-001	  4.66207E-001	  4.28590E-001
  2.60000E-003	  5.17677E-001	  4.79151E-001	  4.32119E-001	  4.49032E-001
  2.80000E-003	  5.18564E-001	  4.88259E-001	  4.28235E-001	  4.83079E-001
  3.00000E-003	  4.63174E-001	  4.75508E-001	  4.15291E-001	  4.56750E-001
  3.20000E-003	  4.54528E-001	  5.16731E-001	  4.63181E-001	  4.54518E-001
  3.60000E-003	  4.74247E-001	  4.79388E-001	  4.42470E-001	  4.84707E-001
  4.00000E-003	  4.65606E-001	  5.02173E-001	  4.58435E-001	  4.49283E-001
  4.40000E-003	  4.86654E-001	  5.09217E-001	  4.69222E-001	  4.67214E-001
  4.80000E-003	  4.80672E-001	  4.92139E-001	  4.63397E-001	  5.01716E-001
  5.20000E-003	  4.66507E-001	  4.82804E-001	  4.60377E-001	  4.68349E-001
  5.60000E-003	  4.56758E-001	  5.02158E-001	  4.50668E-001	  4.59710E-001
  6.00000E-003	  4.88219E-001	  5.04891E-001	  4.46353E-001	  4.88990E-001
  6.40000E-003	  4.59628E-001	  5.01252E-001	  4.47652E-001	  4.86769E-001
  7.20000E-003	  4.62065E-001	  5.07073E-001	  4.64278E-001	  4.87336E-001
  8.00000E-003	  4.39134E-001	  4.98876E-001	  4.48097E-001	  4.79505E-001
  8.80000E-003	  4.50212E-001	  4.97965E-001	  4.38712E-001	  4.64070E-001
  9.60000E-003	  4.44452E-001	  5.09920E-001	  4.20589E-001	  4.51912E-001
  1.04000E-002	  4.51431E-001	  5.01950E-001	  4.54677E-001	  4.54054E-001
  1.12000E-002	  4.37029E-001	  4.96257E-001	  4.58021E-001	  4.65970E-001
  1.20000E-002	  4.71371E-001	  5.15840E-001	  4.47342E-001	  4.67999E-001
  1.28000E-002	  4.54402E-001	  4.97932E-001	  4.51004E-001	  4.64036E-001
  1.44000E-002	  4.42992E-001	  4.94403E-001	  4.38598E-001	  4.46544E-001
  1.60000E-002	  4.58113E-001	  5.00380E-001	  4.41120E-001	  4.59425E-001
  1.76000E-002	  4.28591E-001	  4.88895E-001	  4.37506E-001	  4.43706E-001
  1.92000E-002	  4.46440E-001	  4.79901E-001	  4.38369E-001	  4.48757E-001
  2.08000E-002	  4.48656E-001	  4.84284E-001	  4.47053E-001	  4.64476E-001
  2.24000E-002	  4.69980E-001	  4.86163E-001	  4.34270E-001	  4.48799E-001
  2.40000E-002	  4.44723E-001	  4.83928E-001	  4.41497E-001	  4.48842E-001
  2.56000E-002	  4.48284E-001	  4.88188E-001	  4.37279E-001	  4.53045E-001
  2.88000E-002	  4.43438E-001	  4.69344E-001	  4.18104E-001	  4.41170E-001
  3.20000E-002	  4.27624E-001	  4.76958E-001	  4.23633E-001	  4.35836E-001
  3.52000E-002	  4.30255E-001	  4.75165E-001	  4.20559E-001	  4.38631E-001
  3.84000E-002	  4.31723E-001	  4.53006E-001	  4.16271E-001	  4.32672E-001
  4.16000E-002	  4.30297E-001	  4.48167E-001	  4.10068E-001	  4.21578E-001
  4.48000E-002	  4.20354E-001	  4.66042E-001	  4.05457E-001	  4.28416E-001
  4.80000E-002	  4.21005E-001	  4.76175E-001	  4.14599E-001	  4.21280E-001
  5.12000E-002	  4.12965E-001	  4.58805E-001	  4.12702E-001	  4.28803E-001
  5.76000E-002	  4.20692E-001	  4.56357E-001	  4.10046E-001	  4.22332E-001
  6.40000E-002	  4.10639E-001	  4.46380E-001	  3.95495E-001	  4.20728E-001
  7.04000E-002	  4.12702E-001	  4.41328E-001	  3.92070E-001	  4.12612E-001
  7.68000E-002	  3.98509E-001	  4.45597E-001	  3.90223E-001	  4.07632E-001
  8.32000E-002	  3.88538E-001	  4.32305E-001	  3.92839E-001	  4.03886E-001
  8.96000E-002	  3.96819E-001	  4.24164E-001	  3.83386E-001	  3.96181E-001
  9.60000E-002	  3.94658E-001	  4.31550E-001	  3.87269E-001	  3.94039E-001
  1.02400E-001	  3.92168E-001	  4.24893E-001	  3.78828E-001	  3.92406E-001
  1.15200E-001	  3.84190E-001	  4.17271E-001	  3.66725E-001	  3.86590E-001
  1.28000E-001	  3.82479E-001	  4.06339E-001	  3.65934E-001	  3.76989E-001
  1.40800E-001	  3.71240E-001	  4.02988E-001	  3.53033E-001	  3.67422E-001
  1.53600E-001	  3.68919E-001	  4.00170E-001	  3.50564E-001	  3.65021E-001
  1.66400E-001	  3.57112E-001	  3.82272E-001	  3.44931E-001	  3.56790E-001
  1.79200E-001	  3.55960E-001	  3.80116E-001	  3.38303E-001	  3.50781E-001
  1.92000E-001	  3.43457E-001	  3.73720E-001	  3.28023E-001	  3.45752E-001
  2.04800E-001	  3.42214E-001	  3.70671E-001	  3.20747E-001	  3.35388E-001
  2.30400E-001	  3.34502E-001	  3.53818E-001	  3.09858E-001	  3.16926E-001
  2.56000E-001	  3.14575E-001	  3.43745E-001	  2.97187E-001	  3.04787E-001
  2.81600E-001	  3.06281E-001	  3.30690E-001	  2.88483E-001	  2.95943E-001
  3.07200E-001	  2.93056E-001	  3.21152E-001	  2.77032E-001	  2.88287E-001
  3.32800E-001	  2.82072E-001	  3.11806E-001	  2.68064E-001	  2.75179E-001
  3.58400E-001	  2.67233E-001	  3.00847E-001	  2.54227E-001	  2.64751E-001
  3.84000E-001	  2.56924E-001	  2.94449E-001	  2.42433E-001	  2.54705E-001
  4.09600E-001	  2.47992E-001	  2.86332E-001	  2.31080E-001	  2.41757E-001
  4.60800E-001	  2.27999E-001	  2.63489E-001	  2.16538E-001	  2.24600E-001
  5.12000E-001	  2.06634E-001	  2.44145E-001	  1.97104E-001	  2.07904E-001
  5.63200E-001	  1.89130E-001	  2.28994E-001	  1.77222E-001	  1.91541E-001
  6.14400E-001	  1.71733E-001	  2.16615E-001	  1.60650E-001	  1.71946E-001
  6.65600E-001	  1.57317E-001	  1.99545E-001	  1.47137E-001	  1.59688E-001
  7.16800E-001	  1.42824E-001	  1.85369E-001	  1.32078E-001	  1.41960E-001
  7.68000E-001	  1.27718E-001	  1.74777E-001	  1.18358E-001	  1.28881E-001
  8.19200E-001	  1.17561E-001	  1.63605E-001	  1.06940E-001	  1.16431E-001
  9.21600E-001	  9.29832E-002	  1.42406E-001	  8.45494E-002	  9.32879E-002
  1.02400E+000	  7.05109E-002	  1.28714E-001	  6.94452E-002	  7.92973E-002
  1.12640E+000	  5.65128E-002	  1.19826E-001	  5.82543E-002	  6.63577E-002
  1.22880E+000	  4.39994E-002	  1.07498E-001	  4.97814E-002	  5.09250E-002
  1.33120E+000	  3.24884E-002	  9.88745E-002	  4.07600E-002	  3.91171E-002
  1.43360E+000	  2.19135E-002	  9.44608E-002	  3.14678E-002	  3.37017E-002
  1.53600E+000	  1.79390E-002	  9.17903E-002	  2.42072E-002	  2.97985E-002
  1.63840E+000	  1.34533E-002	  8.56465E-002	  2.26427E-002	  2.11760E-002
  1.84320E+000	  1.30508E-002	  7.24832E-002	  1.98070E-002	  1.52442E-002
  2.04800E+000	  1.40335E-002	  5.66522E-002	  2.18799E-002	  6.10076E-003
  2.25280E+000	  1.59474E-002	  3.86613E-002	  2.21277E-002	  2.62573E-003
  2.45760E+000	  1.68904E-002	  2.91037E-002	  1.85352E-002	  7.00012E-003
  2.66240E+000	  1.78018E-002	  2.02136E-002	  1.37547E-002	  8.33313E-003
  2.86720E+000	  1.83822E-002	  1.72453E-002	  1.80599E-002	  1.29155E-002
  3.07200E+000	  1.95790E-002	  1.59235E-002	  1.92191E-002	  1.08988E-002
  3.27680E+000	  1.91314E-002	  1.30569E-002	  1.96515E-002	  4.28205E-003
  3.68640E+000	  1.21635E-002	  9.46061E-003	  2.21098E-002	 -4.13694E-003
  4.09600E+000	 -1.97643E-003	  1.34249E-002	  1.80492E-002	  6.57836E-003
  4.50560E+000	 -1.40245E-002	  2.07031E-002	  6.56993E-003	  1.73179E-002
  4.91520E+000	 -1.69204E-002	  1.99525E-002	  4.18910E-004	  1.83550E-002
  5.32480E+000	 -8.87751E-003	  2.45284E-002	  1.84346E-003	  1.24105E-002
  5.73440E+000	 -6.33654E-004	  2.83748E-002	 -4.44525E-004	  3.66626E-003
  6.14400E+000	  1.21955E-004	  3.87209E-002	 -3.26957E-004	  3.71432E-003
  6.55360E+000	 -1.35779E-003	  3.84161E-002	  1.19093E-003	  1.60920E-002
  7.37280E+000	 -1.77701E-002	  3.48974E-002	  1.48639E-003	  3.70841E-002
  8.19200E+000	 -1.67165E-002	  2.31334E-002	 -2.64305E-003	  3.21922E-002
  9.01120E+000	 -1.13677E-002	  2.28991E-002	  7.38475E-003	  6.62644E-003
  9.83040E+000	 -1.50405E-002	  2.49677E-002	  2.82558E-003	  6.24137E-003
  1.06496E+001	 -3.62877E-003	  2.43882E-002	 -4.81297E-003	  5.20661E-003
  1.14688E+001	 -2.79413E-003	  2.17971E-002	 -9.79650E-003	 -2.84278E-003
  1.22880E+001	  6.49108E-003	  1.35165E-002	 -1.09983E-002	 -1.26473E-002
  1.31072E+001	  3.39560E-003	  1.14537E-002	 -2.02359E-003	 -5.66742E-003
  1.47456E+001	 -1.22938E-002	  2.33502E-002	  3.35210E-003	  4.07319E-003
  1.63840E+001	 -1.43223E-002	  3.96402E-003	 -3.69653E-003	  7.75150E-003
  1.80224E+001	 -2.44610E-002	 -4.83803E-003	 -4.54618E-003	 -2.71265E-003
  1.96608E+001	  5.09439E-003	 -1.98518E-002	 -1.49471E-002	 -1.24070E-002
  2.12992E+001	  1.11615E-002	  6.07424E-003	 -2.51205E-004	 -1.03195E-002
  2.29376E+001	  3.09249E-002	  2.39595E-002	 -1.34664E-002	 -1.55161E-002
  2.45760E+001	  1.77751E-002	  1.40686E-002	  6.91352E-004	  5.70614E-003
  2.62144E+001	  1.25126E-002	  4.57153E-003	 -5.82693E-003	 -1.80352E-003
  2.94912E+001	  1.04899E-003	  1.64369E-002	 -1.36000E-002	 -2.55817E-002
  3.27680E+001	 -1.83580E-003	  1.59807E-002	 -3.94790E-003	 -1.80444E-002
  3.60448E+001	 -9.00362E-003	  1.10470E-002	  4.83291E-003	 -1.21993E-002
  3.93216E+001	 -1.46344E-002	  1.54077E-002	  1.03177E-002	 -1.46400E-002
  4.25984E+001	 -2.00041E-003	  2.44400E-002	  1.69661E-002	  1.38768E-002
  4.58752E+001	  1.04836E-002	  2.21706E-002	  1.07498E-002	  3.00090E-003
  4.91520E+001	 -1.42514E-002	  1.45925E-002	  4.25721E-003	  1.91307E-002
  5.24288E+001	  1.09804E-002	  1.34621E-002	 -5.45180E-003	  1.32317E-002
  5.89824E+001	  8.60392E-003	 -1.11974E-002	 -9.44504E-003	  6.70792E-003
  6.55360E+001	 -1.81003E-003	 -1.13236E-002	 -1.26749E-003	 -2.94696E-003
  7.20896E+001	 -7.43606E-003	 -1.27964E-002	  5.15918E-005	 -1.55500E-003
  7.86432E+001	  7.07841E-003	 -5.53064E-003	  5.41228E-003	 -2.05678E-002
  8.51968E+001	  5.03699E-003	  1.45412E-002	  6.37082E-003	 -7.95730E-003
  9.17504E+001	 -1.22063E-002	  8.00491E-003	  4.19981E-003	 -3.63516E-003
  9.83040E+001	  1.77080E-003	  3.04754E-003	  1.65636E-003	  4.40377E-003
  1.04858E+002	 -7.61032E-003	 -5.90275E-003	 -7.71218E-003	  6.02056E-003
  1.17965E+002	 -3.41531E-003	  8.72252E-004	  4.67530E-003	  1.27461E-002
  1.31072E+002	 -2.72733E-003	 -2.57297E-003	  1.54289E-003	 -4.50980E-003
  1.44179E+002	  7.96150E-003	 -6.95565E-003	 -2.52446E-004	 -1.87325E-002
  1.57286E+002	  1.46148E-003	 -9.60625E-003	 -2.61306E-003	  1.02007E-003
  1.70394E+002	  1.30869E-003	 -9.48658E-004	 -4.21855E-003	  1.12617E-002
  1.83501E+002	  3.93114E-003	  4.00848E-003	  7.31071E-004	  3.98101E-003
  1.96608E+002	  2.35830E-003	 -7.47429E-003	 -1.22086E-003	 -8.93844E-003
  2.09715E+002	  6.50701E-004	 -2.88658E-003	 -6.18176E-003	  4.05189E-003
  2.35930E+002	 -5.35268E-003	 -5.38543E-003	 -2.38418E-003	 -3.62554E-003
  2.62144E+002	 -2.57044E-003	  5.82958E-003	  8.48963E-004	 -8.13085E-003
  2.88358E+002	  4.23207E-003	 -1.73078E-003	 -4.12021E-003	  6.34422E-003
  3.14573E+002	 -3.45673E-003	  3.66367E-003	  4.92052E-003	 -1.12382E-003
  3.40787E+002	  5.90434E-004	 -3.87687E-003	 -4.44080E-003	 -7.60210E-003
  3.67002E+002	  2.54521E-003	  5.09097E-003	 -6.86093E-003	  3.31419E-003
  3.93216E+002	 -3.46602E-003	 -3.49950E-003	  3.22907E-003	  3.20121E-003

"Count Rate"
       0.01311	     117.72156	      96.58813	     144.57703	     116.19568
       0.02621	     103.68347	      79.65088	     109.17664	     130.53894
       0.03932	     102.31018	     142.59338	      76.37024	     100.25024
       0.05243	     106.04858	     186.30981	     120.08667	      96.66443
       0.06554	     144.27185	     166.85486	     126.95313	      76.67542
       0.07864	     115.35645	     139.54163	     124.58801	     140.53345
       0.09175	     117.26379	     240.70740	     142.97485	     116.42456
       0.10486	     124.89319	     119.32373	      71.94519	      96.28296
       0.11796	     165.78674	      87.50916	      83.31299	      81.93970
       0.13107	     113.06763	      92.54456	      89.64539	     133.43811
       0.14418	     113.75427	     115.66162	      94.98596	     167.31262
       0.15729	      71.25854	      78.04871	     150.37537	      80.03235
       0.17039	     124.74060	      96.58813	     133.28552	      71.71631
       0.18350	     128.02124	     124.35913	     111.77063	     112.30469
       0.19661	      97.04590	     126.80054	      95.97778	      97.57996
       0.20972	     150.22278	      63.85803	     108.41370	      72.70813
       0.22282	      77.74353	      87.43286	     123.29102	      96.96960
       0.23593	      76.44653	     110.47363	     117.95044	     100.47913
       0.24904	      96.51184	      81.40564	      93.76526	     142.89856
       0.26214	     129.47083	      84.68628	      83.46558	     133.74329
       0.27525	     110.62622	     118.33191	     137.25281	      69.80896
       0.28836	     137.40540	     105.51453	     139.00757	      94.68079
       0.30147	      99.63989	     126.57166	      80.10864	     133.59070
       0.31457	     106.81152	      93.30750	     119.85779	     119.01855
       0.32768	     140.83862	      86.28845	      98.34290	     115.58533
       0.34079	     111.23657	     125.04578	     103.75977	     102.76794
       0.35389	     134.88770	     139.31274	      96.81702	     131.07300
       0.36700	      87.66174	     102.92053	      98.64807	     122.68066
       0.38011	     117.95044	      77.36206	     104.98047	      91.93420
       0.39322	     104.90417	      94.98596	     116.19568	      86.21216
       0.40632	     100.02136	      96.43555	     114.97498	     112.83875
       0.41943	     114.59351	     125.27466	      71.02966	     135.26917
       0.43254	      80.26123	      81.78711	     126.41907	      90.86609
       0.44564	      97.35107	     105.74341	      91.40015	     112.45728
       0.45875	      96.81702	      86.21216	     110.54993	      93.00232
       0.47186	     121.76514	     144.34814	     136.18469	     111.69434
       0.48497	      98.95325	      87.58545	     113.75427	     111.31287
       0.49807	     112.99133	      87.35657	     113.52539	      80.87158
       0.51118	     109.17664	     106.65894	      88.19580	     101.39465
       0.52429	      84.22852	      89.18762	     105.28564	      96.74072
       0.53740	      99.79248	     123.74878	     157.62329	     125.19836
       0.55050	     115.43274	      83.00781	      83.99963	      94.37561
       0.56361	      99.10583	      74.99695	      89.18762	      74.53918
       0.57672	     101.92871	     100.32654	     129.85229	      87.66174
       0.58982	      90.71350	      93.76526	     130.31006	      70.72449
       0.60293	      82.93152	      98.72437	     101.92871	     109.78699
       0.61604	     114.97498	      88.19580	     153.04565	     129.16565
       0.62915	      86.82251	     139.54163	     107.11670	     125.12207
       0.64225	     113.60168	     125.19836	      93.38379	     116.88232
       0.65536	     111.16028	      84.99146	     130.15747	     114.28833
       0.66847	     107.11670	     114.05945	     117.64526	     121.53625
       0.68157	     109.10034	     105.51453	      97.50366	      56.22864
       0.69468	     130.31006	      89.34021	     115.66162	      88.04321
       0.70779	      77.66724	      88.50098	     152.96936	     101.85242
       0.72090	      89.56909	     176.46790	     103.91235	      89.26392
       0.73400	      88.50098	      96.28296	     128.55530	     109.10034
       0.74711	     107.34558	      93.84155	     114.59351	      91.09497
