ALV-7004/USB-FAST
Date :	"3/14/2024"
Time :	"12:32:31 PM"
Samplename : 	""
SampMemo(0) : 	""
SampMemo(1) : 	""
SampMemo(2) : 	""
SampMemo(3) : 	""
SampMemo(4) : 	""
SampMemo(5) : 	""
SampMemo(6) : 	""
SampMemo(7) : 	""
SampMemo(8) : 	""
SampMemo(9) : 	""
Temperature [K] :	     298.16000
Viscosity [cp]  :	       0.89000
Refractive Index:	       1.33200
Wavelength [nm] :	       0.00000
Angle [°]       :	       0.00000
Duration [s]    :	         1
FloatDur [ms]   :	          944
Stop TP [ms]   :	      3211
Runs            :	         1
Mode            :	"A-CH0+1  A-CH2+3 "
MeanCR0 [kHz]   :	     149.38142
MeanCR1 [kHz]   :	     145.81998
MeanCR2 [kHz]   :	     142.85300
MeanCR3 [kHz]   :	     138.70981

"Correlation"
  3.12500E-006	 -1.00000E+000	 -1.00000E+000	 -1.00000E+000	 -1.00000E+000
  6.25000E-006	 -1.00000E+000	 -1.00000E+000	 -1.00000E+000	 -1.00000E+000
  9.37500E-006	 -1.00000E+000	 -1.00000E+000	 -1.00000E+000	 -1.00000E+000
  1.25000E-005	 -1.00000E+000	 -1.00000E+000	 -1.00000E+000	 -1.00000E+000
  1.56250E-005	 -1.00000E+000	 -1.00000E+000	 -1.00000E+000	 -1.00000E+000
  1.87500E-005	 -1.00000E+000	 -1.00000E+000	 -1.00000E+000	 -1.00000E+000
  2.18750E-005	 -9.69609E-001	 -4.25915E-001	 -3.51972E-001	 -1.00000E+000
  2.50000E-005	  5.30612E+000	  5.44251E+000	  5.06487E+000	  1.06315E+001
  2.81250E-005	  1.97831E+000	  1.23255E+000	  9.93931E-001	  4.65716E+000
  3.12500E-005	  8.38653E-001	  7.38201E-001	  6.28377E-001	  2.36610E+000
  3.43750E-005	  6.10721E-001	  6.74414E-001	  8.77618E-001	  2.17224E+000
  3.75000E-005	  7.77871E-001	  5.30892E-001	  5.95145E-001	  1.74927E+000
  4.06250E-005	  7.77871E-001	  6.26573E-001	  6.94841E-001	  1.83739E+000
  4.37500E-005	  6.56307E-001	  7.06307E-001	  8.44386E-001	  7.97601E-001
  4.68750E-005	  6.86698E-001	  8.49828E-001	  4.62216E-001	  1.30868E+000
  5.00000E-005	  8.61446E-001	  7.78068E-001	  4.78832E-001	  1.17651E+000
  5.62500E-005	  5.65134E-001	  5.78733E-001	  5.95145E-001	  1.28225E+000
  6.25000E-005	  6.94296E-001	  6.26573E-001	  8.11154E-001	  9.65025E-001
  6.87500E-005	  4.81559E-001	  5.22919E-001	  5.86837E-001	  8.76907E-001
  7.50000E-005	  4.89157E-001	  5.46839E-001	  7.52997E-001	  9.38589E-001
  8.12500E-005	  5.57536E-001	  3.95345E-001	  5.61912E-001	  9.65025E-001
  8.75000E-005	  4.81559E-001	  4.59132E-001	  4.28984E-001	  6.47801E-001
  9.37500E-005	  4.73961E-001	  5.54813E-001	  5.20372E-001	  6.91860E-001
  1.00000E-004	  5.34743E-001	  4.87039E-001	  4.58062E-001	  6.43395E-001
  1.12500E-004	  4.73961E-001	  5.42852E-001	  3.58365E-001	  4.75971E-001
  1.25000E-004	  6.71502E-001	  4.35211E-001	  4.99602E-001	  5.24436E-001
  1.37500E-004	  5.04352E-001	  5.38866E-001	  5.61912E-001	  4.89189E-001
  1.50000E-004	  4.66363E-001	  5.42852E-001	  5.61912E-001	  7.27107E-001
  1.62500E-004	  5.80329E-001	  5.90693E-001	  6.90687E-001	  5.86118E-001
  1.75000E-004	  4.09380E-001	  6.02653E-001	  5.86836E-001	  5.81713E-001
  1.87500E-004	  4.35972E-001	  3.91358E-001	  4.58062E-001	  5.50871E-001
  2.00000E-004	  4.94854E-001	  4.31224E-001	  4.60138E-001	  5.00203E-001
  2.25000E-004	  5.63234E-001	  4.57138E-001	  4.37291E-001	  6.03742E-001
  2.50000E-004	  4.72061E-001	  4.81058E-001	  5.70220E-001	  5.22233E-001
  2.75000E-004	  4.94854E-001	  5.24912E-001	  4.45599E-001	  5.00203E-001
  3.00000E-004	  5.63234E-001	  3.83384E-001	  5.32834E-001	  4.27506E-001
  3.25000E-004	  4.56866E-001	  4.43185E-001	  5.84759E-001	  4.58347E-001
  3.50000E-004	  5.72731E-001	  4.07304E-001	  5.07910E-001	  4.36318E-001
  3.75000E-004	  4.35972E-001	  5.52819E-001	  5.63989E-001	  6.10350E-001
  4.00000E-004	  5.05301E-001	  4.83051E-001	  5.13101E-001	  5.94929E-001
  4.50000E-004	  5.26195E-001	  4.70094E-001	  4.66369E-001	  5.16725E-001
  5.00000E-004	  4.52117E-001	  5.17935E-001	  4.80908E-001	  5.24435E-001
  5.50000E-004	  4.44519E-001	  5.13948E-001	  4.24829E-001	  3.96665E-001
  6.00000E-004	  4.21726E-001	  5.01988E-001	  4.75715E-001	  5.79509E-001
  6.50000E-004	  4.64463E-001	  5.46838E-001	  4.82996E-001	  4.68260E-001
  7.00000E-004	  5.29993E-001	  4.90028E-001	  4.62226E-001	  4.72666E-001
  7.50000E-004	  4.54016E-001	  5.68765E-001	  5.02728E-001	  5.09015E-001
  8.00000E-004	  4.67311E-001	  4.96505E-001	  5.32324E-001	  4.46229E-001
  9.00000E-004	  4.55914E-001	  4.62119E-001	  4.59628E-001	  4.66607E-001
  1.00000E-003	  4.66361E-001	  4.72585E-001	  4.61186E-001	  5.93826E-001
  1.10000E-003	  4.99601E-001	  4.75076E-001	  4.30030E-001	  4.80926E-001
  1.20000E-003	  5.13847E-001	  4.98000E-001	  4.84033E-001	  5.21680E-001
  1.30000E-003	  5.36165E-001	  4.76073E-001	  5.53613E-001	  4.97448E-001
  1.40000E-003	  4.70160E-001	  4.74578E-001	  4.71052E-001	  4.75969E-001
  1.50000E-003	  4.38819E-001	  4.64611E-001	  4.62744E-001	  4.84230E-001
  1.60000E-003	  4.84641E-001	  4.43429E-001	  4.62222E-001	  4.91674E-001
  1.80000E-003	  4.92476E-001	  4.60373E-001	  4.61703E-001	  5.30501E-001
  2.00000E-003	  4.79655E-001	  4.88030E-001	  4.83771E-001	  5.12051E-001
  2.20000E-003	  4.40241E-001	  4.63363E-001	  5.01685E-001	  5.01312E-001
  2.40000E-003	  4.95800E-001	  5.03230E-001	  4.50798E-001	  4.92775E-001
  2.60000E-003	  4.44990E-001	  5.00987E-001	  5.02724E-001	  4.86993E-001
  2.80000E-003	  4.61610E-001	  4.78562E-001	  4.65857E-001	  4.54774E-001
  3.00000E-003	  5.05534E-001	  4.89525E-001	  4.40673E-001	  4.57528E-001
  3.20000E-003	  4.73616E-001	  4.70584E-001	  4.71563E-001	  4.54803E-001
  3.60000E-003	  4.66849E-001	  4.75567E-001	  4.60140E-001	  4.82340E-001
  4.00000E-003	  4.49636E-001	  4.68715E-001	  4.85973E-001	  4.82604E-001
  4.40000E-003	  4.53316E-001	  4.47162E-001	  4.57284E-001	  4.62089E-001
  4.80000E-003	  4.47984E-001	  4.49654E-001	  4.77924E-001	  5.01880E-001
  5.20000E-003	  4.73389E-001	  4.51149E-001	  4.65462E-001	  4.86735E-001
  5.60000E-003	  4.74220E-001	  4.45044E-001	  4.90776E-001	  4.71865E-001
  6.00000E-003	  4.62348E-001	  4.64604E-001	  4.78573E-001	  4.55618E-001
  6.40000E-003	  4.60460E-001	  4.72848E-001	  4.79667E-001	  4.65291E-001
  7.20000E-003	  4.69304E-001	  4.50049E-001	  4.70656E-001	  4.60529E-001
  8.00000E-003	  4.73508E-001	  4.30801E-001	  4.68968E-001	  4.68859E-001
  8.80000E-003	  4.59975E-001	  4.73471E-001	  4.78704E-001	  4.71671E-001
  9.60000E-003	  4.68403E-001	  4.54347E-001	  4.69293E-001	  4.78016E-001
  1.04000E-002	  4.61280E-001	  4.45004E-001	  4.38202E-001	  4.61964E-001
  1.12000E-002	  4.61815E-001	  4.49551E-001	  4.43914E-001	  4.75457E-001
  1.20000E-002	  4.62646E-001	  4.50610E-001	  4.56441E-001	  4.73736E-001
  1.28000E-002	  4.58254E-001	  4.54951E-001	  4.44890E-001	  4.56502E-001
  1.44000E-002	  4.44720E-001	  4.45171E-001	  4.56540E-001	  4.53014E-001
  1.60000E-002	  4.42049E-001	  4.42098E-001	  4.47908E-001	  4.50570E-001
  1.76000E-002	  4.42287E-001	  4.35869E-001	  4.51121E-001	  4.48023E-001
  1.92000E-002	  4.37587E-001	  4.30470E-001	  4.49660E-001	  4.47162E-001
  2.08000E-002	  4.19780E-001	  4.14554E-001	  4.30718E-001	  4.28929E-001
  2.24000E-002	  4.31236E-001	  4.19631E-001	  4.30848E-001	  4.43858E-001
  2.40000E-002	  4.17702E-001	  4.06643E-001	  4.21047E-001	  4.29320E-001
  2.56000E-002	  4.19564E-001	  4.18300E-001	  4.19335E-001	  4.24186E-001
  2.88000E-002	  4.08751E-001	  3.96092E-001	  4.04260E-001	  4.18110E-001
  3.20000E-002	  4.09671E-001	  3.94317E-001	  4.09167E-001	  4.10999E-001
  3.52000E-002	  3.96553E-001	  3.86530E-001	  4.02990E-001	  4.05762E-001
  3.84000E-002	  3.90469E-001	  3.79211E-001	  3.91177E-001	  3.97756E-001
  4.16000E-002	  3.84276E-001	  3.78490E-001	  3.73441E-001	  3.77879E-001
  4.48000E-002	  3.67512E-001	  3.72033E-001	  3.75901E-001	  3.72811E-001
  4.80000E-002	  3.56931E-001	  3.62720E-001	  3.63774E-001	  3.72102E-001
  5.12000E-002	  3.58159E-001	  3.57574E-001	  3.55371E-001	  3.64681E-001
  5.76000E-002	  3.37752E-001	  3.37534E-001	  3.39241E-001	  3.42791E-001
  6.40000E-002	  3.32379E-001	  3.25993E-001	  3.28448E-001	  3.34851E-001
  7.04000E-002	  3.15694E-001	  3.09695E-001	  3.12397E-001	  3.15766E-001
  7.68000E-002	  3.00306E-001	  2.98101E-001	  2.98086E-001	  3.04655E-001
  8.32000E-002	  2.93051E-001	  2.88827E-001	  2.91498E-001	  2.81099E-001
  8.96000E-002	  2.75453E-001	  2.71432E-001	  2.75123E-001	  2.82388E-001
  9.60000E-002	  2.68684E-001	  2.64716E-001	  2.68267E-001	  2.63894E-001
  1.02400E-001	  2.60595E-001	  2.53978E-001	  2.59920E-001	  2.53689E-001
  1.15200E-001	  2.38694E-001	  2.29589E-001	  2.43976E-001	  2.34484E-001
  1.28000E-001	  2.26203E-001	  2.14164E-001	  2.21912E-001	  2.19949E-001
  1.40800E-001	  2.08691E-001	  2.03821E-001	  2.08870E-001	  2.06282E-001
  1.53600E-001	  1.98811E-001	  1.85389E-001	  1.97262E-001	  1.87219E-001
  1.66400E-001	  1.83127E-001	  1.78114E-001	  1.83529E-001	  1.75388E-001
  1.79200E-001	  1.75611E-001	  1.65547E-001	  1.75678E-001	  1.64428E-001
  1.92000E-001	  1.65611E-001	  1.62744E-001	  1.65393E-001	  1.54267E-001
  2.04800E-001	  1.53236E-001	  1.52375E-001	  1.58823E-001	  1.48095E-001
  2.30400E-001	  1.36693E-001	  1.36550E-001	  1.42041E-001	  1.31548E-001
  2.56000E-001	  1.21882E-001	  1.23338E-001	  1.25250E-001	  1.14755E-001
  2.81600E-001	  1.11170E-001	  1.13616E-001	  1.10577E-001	  1.01653E-001
  3.07200E-001	  9.63431E-002	  1.01868E-001	  1.00818E-001	  9.24619E-002
  3.32800E-001	  8.57537E-002	  9.40849E-002	  9.06803E-002	  8.06954E-002
  3.58400E-001	  7.62063E-002	  8.17916E-002	  7.97555E-002	  7.54060E-002
  3.84000E-001	  7.11069E-002	  7.99792E-002	  7.29885E-002	  7.22879E-002
  4.09600E-001	  6.35896E-002	  6.97521E-002	  6.65090E-002	  6.38973E-002
  4.60800E-001	  5.16420E-002	  6.19623E-002	  5.25666E-002	  5.28418E-002
  5.12000E-001	  4.33784E-002	  5.55784E-002	  5.05114E-002	  4.04639E-002
  5.63200E-001	  3.99712E-002	  4.71101E-002	  4.51058E-002	  3.02903E-002
  6.14400E-001	  3.30994E-002	  3.77607E-002	  4.02606E-002	  2.30295E-002
  6.65600E-001	  2.56929E-002	  3.08445E-002	  3.48931E-002	  1.96024E-002
  7.16800E-001	  1.70493E-002	  2.62733E-002	  3.11787E-002	  1.78159E-002
  7.68000E-001	  1.44038E-002	  2.63647E-002	  2.99234E-002	  1.62183E-002
  8.19200E-001	  1.12030E-002	  2.30634E-002	  2.78723E-002	  1.87115E-002
  9.21600E-001	  1.09568E-002	  1.30831E-002	  2.76672E-002	  1.70255E-002
  1.02400E+000	  8.61439E-003	  6.69105E-003	  1.96775E-002	  1.13590E-002
  1.12640E+000	  2.94904E-003	  5.89965E-003	  1.21097E-002	  7.63417E-003
  1.22880E+000	 -5.32959E-003	  2.71027E-003	  8.32145E-003	  8.24162E-003
  1.33120E+000	 -5.85623E-003	  3.31064E-003	  4.27062E-003	  8.29943E-003
  1.43360E+000	  1.79850E-003	  6.13175E-003	  8.46338E-003	  2.53900E-003
  1.53600E+000	  6.68536E-003	  6.08655E-003	  7.16997E-003	 -2.25094E-003
  1.63840E+000	  1.12158E-002	  1.02080E-002	  6.36346E-003	 -1.23407E-003
  1.84320E+000	  1.66254E-002	  4.30958E-003	  5.08867E-004	 -2.44677E-003
  2.04800E+000	  8.04412E-003	  1.93908E-003	  3.37129E-003	  6.77592E-003
  2.25280E+000	 -8.29855E-004	 -4.07213E-003	  8.23309E-003	  7.37955E-003
  2.45760E+000	  9.62457E-004	 -3.74722E-003	  8.77102E-003	  8.40596E-003
  2.66240E+000	  2.72459E-003	 -1.53679E-003	  8.44430E-003	  4.85393E-003
  2.86720E+000	 -5.94472E-003	  1.04899E-003	  1.15022E-002	 -1.45852E-004
  3.07200E+000	 -6.63040E-003	  1.83544E-003	  1.19354E-002	  2.79760E-003
  3.27680E+000	 -3.13520E-003	  2.94163E-004	  6.18410E-003	  8.41667E-004
  3.68640E+000	 -1.01388E-002	 -7.82623E-003	 -6.67314E-003	 -1.92173E-004
  4.09600E+000	 -7.86191E-003	 -1.26695E-003	 -2.34291E-003	 -1.02964E-002
  4.50560E+000	 -1.72468E-002	  7.58037E-003	  2.53401E-003	 -1.53245E-002
  4.91520E+000	 -1.15831E-002	 -1.79659E-003	 -2.27697E-003	 -1.29678E-002
  5.32480E+000	 -1.57354E-002	 -6.00779E-003	  1.04746E-004	  2.74532E-004
  5.73440E+000	 -9.33974E-003	 -3.71228E-003	  5.60505E-003	  2.29480E-003
  6.14400E+000	 -3.18755E-003	  2.06304E-003	 -4.62961E-003	  2.50400E-003
  6.55360E+000	  8.13723E-003	  1.86125E-003	 -7.35688E-003	  4.39301E-003
  7.37280E+000	  8.59095E-003	 -1.77826E-003	 -7.86076E-003	 -4.46368E-003
  8.19200E+000	  1.21078E-002	  3.05893E-004	 -1.17609E-002	  1.00961E-002
  9.01120E+000	  9.54152E-003	 -1.10442E-002	 -3.71767E-003	  1.50285E-002
  9.83040E+000	 -4.11777E-003	 -3.16308E-003	 -4.69573E-003	  1.04368E-002
  1.06496E+001	  2.18901E-003	 -4.04998E-003	  1.00076E-002	  2.42408E-003
  1.14688E+001	  3.66843E-003	  1.59112E-003	 -5.60683E-004	  2.48881E-003
  1.22880E+001	 -8.85701E-003	  4.75887E-003	 -3.65011E-003	  5.81108E-003
  1.31072E+001	 -2.64293E-003	  1.98787E-003	 -5.54543E-003	 -5.91500E-003
  1.47456E+001	  3.01976E-003	  3.92149E-003	 -4.11431E-003	  1.85134E-003
  1.63840E+001	  6.56359E-003	  2.10864E-003	 -2.93789E-004	  2.41551E-003
  1.80224E+001	 -5.56778E-003	 -8.27952E-004	 -3.63580E-003	  4.16345E-003
  1.96608E+001	 -5.69660E-003	 -7.15595E-003	 -5.70889E-004	  9.00744E-003
  2.12992E+001	 -8.62267E-003	 -7.93660E-003	 -7.19776E-004	 -5.67028E-003
  2.29376E+001	 -5.55129E-003	 -9.15447E-003	  5.31874E-005	 -2.53679E-004
  2.45760E+001	 -6.98286E-003	  3.90728E-003	 -8.03678E-004	 -1.52819E-003
  2.62144E+001	 -2.57375E-003	  3.17588E-003	 -2.39543E-003	 -4.80704E-003
  2.94912E+001	 -2.60442E-003	 -7.60410E-004	 -3.16373E-003	 -6.99376E-003
  3.27680E+001	 -4.21212E-003	  3.01781E-003	 -5.35915E-003	 -5.65960E-003
  3.60448E+001	  2.46239E-003	 -4.00725E-003	 -2.04426E-003	  1.25859E-003
  3.93216E+001	  6.03589E-003	 -1.43092E-003	  2.48147E-004	 -2.65562E-003
  4.25984E+001	 -3.53172E-003	 -4.90995E-003	 -5.22186E-005	 -3.69285E-003
  4.58752E+001	  5.99676E-003	 -5.42731E-003	 -6.39478E-003	 -4.80534E-004
  4.91520E+001	  6.77895E-004	 -2.71553E-003	 -1.14499E-003	 -2.87622E-003
  5.24288E+001	  3.90011E-003	  2.25196E-003	  1.60406E-003	  7.34798E-004
  5.89824E+001	  9.77247E-004	 -1.31712E-003	 -1.64352E-003	  3.32979E-005
  6.55360E+001	 -2.57498E-003	  1.44728E-004	  4.79194E-004	 -3.07945E-003
  7.20896E+001	  1.49735E-003	  8.37444E-004	  9.31639E-005	 -2.38386E-003
  7.86432E+001	 -1.93161E-003	  7.01072E-004	  4.90024E-003	 -9.85571E-004
  8.51968E+001	  3.07250E-003	  5.16032E-003	  2.14505E-004	  3.42326E-003
  9.17504E+001	  3.98499E-004	 -2.86914E-003	 -2.80967E-003	  1.97716E-003
  9.83040E+001	 -7.19858E-004	  8.88527E-004	 -2.69104E-003	  1.48490E-003
  1.04858E+002	  3.01121E-003	 -5.56011E-004	 -8.27913E-004	  4.83748E-004
  1.17965E+002	  5.26208E-004	 -2.11301E-003	  1.69650E-003	  2.10955E-003
  1.31072E+002	 -3.02626E-003	 -8.01747E-004	  1.21759E-003	 -2.24574E-003
  1.44179E+002	 -7.16552E-004	  3.24892E-004	 -8.27262E-004	 -9.30474E-004
  1.57286E+002	  1.75010E-003	  2.30116E-003	  1.61708E-003	  1.75556E-003
  1.70394E+002	 -1.47777E-003	  2.98376E-003	 -1.47860E-003	  2.94780E-003
  1.83501E+002	  1.02597E-003	 -3.96467E-003	  2.68466E-003	  6.36160E-004
  1.96608E+002	 -2.76537E-003	 -4.73047E-004	 -1.96625E-003	  5.14513E-004
  2.09715E+002	 -2.35720E-005	  1.38290E-003	 -3.56713E-003	 -1.15313E-003
  2.35930E+002	  3.32214E-004	  1.82305E-003	  5.35132E-004	  2.12628E-004
  2.62144E+002	  6.84243E-004	 -1.02731E-003	  1.85700E-003	  1.72893E-004
  2.88358E+002	 -1.50298E-003	 -4.55284E-003	 -1.60492E-003	  6.76107E-004
  3.14573E+002	 -1.31997E-004	  2.03149E-003	  5.13650E-004	  1.34939E-003
  3.40787E+002	  1.25169E-003	 -2.01758E-004	  2.06193E-003	 -2.35434E-003
  3.67002E+002	 -1.57221E-003	 -1.95641E-003	 -9.76490E-004	 -1.33369E-003
  3.93216E+002	 -1.55123E-003	  1.00995E-003	 -1.50143E-003	  9.14226E-004

"Count Rate"
       0.01311	     169.06738	     154.34265	     168.22815	     148.01025
       0.02621	     146.94214	     131.75964	     159.68323	     126.72424
       0.03932	     168.68591	     149.91760	     144.80591	     140.60974
       0.05243	     154.64783	     146.78955	     166.93115	     156.25000
       0.06554	     170.59326	     136.79504	     123.06213	     115.58533
       0.07864	     156.25000	     112.83875	     129.92859	     148.54431
       0.09175	     123.21472	     140.76233	     114.59351	     136.26099
       0.10486	     176.92566	     133.59070	     177.00195	     136.79504
       0.11796	     139.99939	     170.97473	     162.50610	     128.17383
       0.13107	     142.28821	     168.76221	     138.47351	     136.41357
       0.14418	     143.28003	     139.92310	     149.00208	     153.57971
       0.15729	     139.46533	     125.04578	     146.40808	     132.29370
       0.17039	     160.98022	     134.58252	     132.29370	     147.39990
       0.18350	     162.20093	     148.77319	     140.76233	     130.08118
       0.19661	     134.12476	     126.26648	     133.05664	     124.74060
       0.20972	     141.60156	     149.53613	     141.75415	     115.50903
       0.22282	     160.67505	     126.72424	     116.65344	     143.50891
       0.23593	     132.82776	     126.95313	     140.83862	     118.10303
       0.24904	     153.50342	     125.80872	     156.78406	     127.48718
       0.26214	     157.24182	     157.31812	     141.60156	     158.92029
       0.27525	     131.68335	     142.36450	     143.96667	     167.00745
       0.28836	     129.85229	     162.35352	     158.92029	     127.94495
       0.30147	     120.77332	     144.95850	     150.68054	     128.86047
       0.31457	     124.81689	     142.82227	     125.12207	     120.23926
       0.32768	     153.12195	     133.43811	     141.67786	     128.70789
       0.34079	     141.29639	     124.43542	     129.69971	     140.76233
       0.35389	     147.47620	     156.47888	     179.06189	     116.04309
       0.36700	     143.66150	     132.06482	     136.64246	     106.20117
       0.38011	     143.73779	     157.77588	     154.87671	     131.53076
       0.39322	     143.28003	     149.61243	     131.07300	     120.08667
       0.40632	     154.87671	     159.98840	     103.45459	     121.38367
       0.41943	     118.78967	     140.68604	     150.68054	     167.08374
       0.43254	     161.13281	     145.72144	     166.01563	     163.11646
       0.44564	     133.89587	     172.42432	     108.33740	     157.92847
       0.45875	     130.84412	     151.67236	     162.96387	     120.46814
       0.47186	     165.32898	     142.66968	     137.02393	     138.09204
       0.48497	     153.65601	     143.28003	     123.44360	     124.35913
       0.49807	     110.16846	     117.41638	     117.79785	     103.98865
       0.51118	     146.78955	     167.00745	     178.52783	     156.70776
       0.52429	     131.22559	     147.39990	     115.28015	     150.83313
       0.53740	     135.34546	     126.26648	     124.35913	     138.16833
       0.55050	     131.14929	     144.72961	     125.57983	      95.36743
       0.56361	     149.99390	     124.58801	     127.33459	     123.97766
       0.57672	     125.65613	     143.81409	     153.57971	     125.96130
       0.58982	     130.00488	     112.15210	     151.59607	     148.77319
       0.60293	     159.68323	     149.15466	     112.91504	     137.32910
       0.61604	     160.06470	     190.96375	     137.86316	     117.79785
       0.62915	     130.31006	     173.11096	     180.89294	     154.64783
       0.64225	     130.53894	     126.80054	     144.50073	     149.30725
       0.65536	     147.24731	     120.77332	     129.69971	     127.33459
       0.66847	     181.73218	     143.58521	     125.19836	     118.56079
       0.68157	     140.76233	     160.90393	     129.69971	     156.25000
       0.69468	     152.96936	     117.03491	     177.99377	     150.22278
       0.70779	     172.50061	     128.55530	     120.16296	     150.07019
       0.72090	     157.47070	     127.94495	     128.63159	     152.74048
       0.73400	     133.36182	     123.29102	     124.05396	     146.10291
       0.74711	     122.14661	     161.89575	     143.50891	     154.34265
