ALV-7004/USB-FAST
Date :	"3/14/2024"
Time :	"12:33:27 PM"
Samplename : 	""
SampMemo(0) : 	""
SampMemo(1) : 	""
SampMemo(2) : 	""
SampMemo(3) : 	""
SampMemo(4) : 	""
SampMemo(5) : 	""
SampMemo(6) : 	""
SampMemo(7) : 	""
SampMemo(8) : 	""
SampMemo(9) : 	""
Temperature [K] :	     298.16000
Viscosity [cp]  :	       0.89000
Refractive Index:	       1.33200
Wavelength [nm] :	       0.00000
Angle [°]       :	       0.00000
Duration [s]    :	         1
FloatDur [ms]   :	          944
Stop TP [ms]   :	      3267
Runs            :	         1
Mode            :	"A-CH0+1  A-CH2+3 "
MeanCR0 [kHz]   :	     126.17217
MeanCR1 [kHz]   :	     125.33188
MeanCR2 [kHz]   :	     122.52066
MeanCR3 [kHz]   :	     119.42227

"Correlation"
  3.12500E-006	 -1.00000E+000	 -1.00000E+000	 -1.00000E+000	 -1.00000E+000
  6.25000E-006	 -1.00000E+000	 -1.00000E+000	 -1.00000E+000	 -1.00000E+000
  9.37500E-006	 -1.00000E+000	 -1.00000E+000	 -1.00000E+000	 -1.00000E+000
  1.25000E-005	 -1.00000E+000	 -1.00000E+000	 -1.00000E+000	 -1.00000E+000
  1.56250E-005	 -1.00000E+000	 -1.00000E+000	 -1.00000E+000	 -1.00000E+000
  1.87500E-005	 -1.00000E+000	 -1.00000E+000	 -1.00000E+000	 -1.00000E+000
  2.18750E-005	 -9.78700E-001	 -2.22882E-001	 -1.41634E-001	 -1.00000E+000
  2.50000E-005	  5.32611E+000	  6.33945E+000	  6.02505E+000	  1.14348E+001
  2.81250E-005	  1.93941E+000	  1.56881E+000	  1.25886E+000	  4.68244E+000
  3.12500E-005	  7.67903E-001	  7.05342E-001	  8.52263E-001	  2.75659E+000
  3.43750E-005	  8.53103E-001	  5.32649E-001	  7.16732E-001	  2.16219E+000
  3.75000E-005	  9.38303E-001	  4.89476E-001	  7.61909E-001	  1.87688E+000
  4.06250E-005	  6.82703E-001	  4.67889E-001	  4.90846E-001	  1.71045E+000
  4.37500E-005	  8.10503E-001	  3.59956E-001	  1.05556E+000	  2.09087E+000
  4.68750E-005	  4.91003E-001	  3.59956E-001	  6.94143E-001	  9.73399E-001
  5.00000E-005	  6.82703E-001	  6.40582E-001	  7.73203E-001	  9.97175E-001
  5.62500E-005	  6.50753E-001	  4.03130E-001	  4.79552E-001	  1.23493E+000
  6.25000E-005	  5.33603E-001	  4.35509E-001	  7.73203E-001	  9.97175E-001
  6.87500E-005	  6.29453E-001	  5.86616E-001	  5.81200E-001	  9.61511E-001
  7.50000E-005	  5.54903E-001	  4.46303E-001	  4.90846E-001	  9.85287E-001
  8.12500E-005	  5.12303E-001	  8.13275E-001	  8.18380E-001	  6.16761E-001
  8.75000E-005	  5.86853E-001	  4.24716E-001	  6.03789E-001	  6.52424E-001
  9.37500E-005	  5.97503E-001	  5.75822E-001	  4.90846E-001	  6.52424E-001
  1.00000E-004	  6.24128E-001	  4.24716E-001	  5.75553E-001	  7.89136E-001
  1.12500E-004	  4.85677E-001	  5.21856E-001	  5.81200E-001	  4.56273E-001
  1.25000E-004	  4.11127E-001	  5.81219E-001	  6.32024E-001	  5.27601E-001
  1.37500E-004	  3.84502E-001	  4.94872E-001	  5.41670E-001	  4.74105E-001
  1.50000E-004	  5.38927E-001	  4.57096E-001	  5.98142E-001	  6.28648E-001
  1.62500E-004	  3.73852E-001	  5.11062E-001	  6.15083E-001	  5.63265E-001
  1.75000E-004	  3.89827E-001	  4.89476E-001	  4.96493E-001	  5.63265E-001
  1.87500E-004	  5.01652E-001	  4.94872E-001	  4.85199E-001	  4.80049E-001
  2.00000E-004	  5.76202E-001	  4.49001E-001	  4.65433E-001	  5.81096E-001
  2.25000E-004	  3.79177E-001	  4.67889E-001	  4.42845E-001	  4.53301E-001
  2.50000E-004	  5.09640E-001	  5.11062E-001	  4.71081E-001	  4.35469E-001
  2.75000E-004	  5.84190E-001	  5.11062E-001	  4.93669E-001	  4.47357E-001
  3.00000E-004	  5.25615E-001	  4.84079E-001	  4.06138E-001	  5.21657E-001
  3.25000E-004	  5.41590E-001	  4.84079E-001	  4.54139E-001	  4.32497E-001
  3.50000E-004	  4.51065E-001	  4.73286E-001	  5.69906E-001	  5.39488E-001
  3.75000E-004	  5.06977E-001	  4.84079E-001	  4.90846E-001	  4.23581E-001
  4.00000E-004	  4.71033E-001	  5.13760E-001	  4.64021E-001	  5.75152E-001
  4.50000E-004	  4.57720E-001	  4.74634E-001	  4.72492E-001	  4.74104E-001
  5.00000E-004	  5.32270E-001	  5.04316E-001	  5.69905E-001	  4.87478E-001
  5.50000E-004	  3.92489E-001	  4.61142E-001	  4.61197E-001	  4.97880E-001
  6.00000E-004	  5.02983E-001	  5.42092E-001	  4.92257E-001	  4.44384E-001
  6.50000E-004	  4.49733E-001	  4.93522E-001	  4.96492E-001	  4.33982E-001
  7.00000E-004	  4.60383E-001	  4.30112E-001	  4.54139E-001	  5.11254E-001
  7.50000E-004	  4.88339E-001	  5.00268E-001	  5.17669E-001	  4.51814E-001
  8.00000E-004	  4.72375E-001	  4.59792E-001	  5.06373E-001	  4.78561E-001
  9.00000E-004	  4.79697E-001	  5.43440E-001	  4.89432E-001	  4.41411E-001
  1.00000E-003	  4.79031E-001	  4.78680E-001	  5.43786E-001	  4.44383E-001
  1.10000E-003	  4.98335E-001	  4.61141E-001	  4.94373E-001	  4.08719E-001
  1.20000E-003	  5.09650E-001	  4.83402E-001	  4.52726E-001	  4.42897E-001
  1.30000E-003	  4.59728E-001	  5.40742E-001	  5.21197E-001	  4.71131E-001
  1.40000E-003	  4.63722E-001	  5.52884E-001	  5.17668E-001	  3.86429E-001
  1.50000E-003	  5.37607E-001	  4.71260E-001	  4.64726E-001	  4.28780E-001
  1.60000E-003	  5.06332E-001	  4.74630E-001	  5.00018E-001	  4.43266E-001
  1.80000E-003	  4.55078E-001	  4.42251E-001	  4.74606E-001	  4.41037E-001
  2.00000E-003	  4.78030E-001	  4.62825E-001	  4.81665E-001	  4.46610E-001
  2.20000E-003	  4.37760E-001	  4.93194E-001	  4.69311E-001	  4.51068E-001
  2.40000E-003	  4.67048E-001	  4.79028E-001	  5.09547E-001	  4.40666E-001
  2.60000E-003	  4.47411E-001	  4.53393E-001	  4.81665E-001	  4.51068E-001
  2.80000E-003	  4.83355E-001	  5.01289E-001	  4.79547E-001	  4.51068E-001
  3.00000E-003	  4.97001E-001	  4.94880E-001	  4.86606E-001	  4.47724E-001
  3.20000E-003	  4.74210E-001	  4.86443E-001	  5.10424E-001	  4.33417E-001
  3.60000E-003	  4.59899E-001	  4.87792E-001	  4.86601E-001	  4.79668E-001
  4.00000E-003	  4.60565E-001	  4.82058E-001	  4.90483E-001	  4.55149E-001
  4.40000E-003	  4.53409E-001	  4.59966E-001	  4.97366E-001	  4.37875E-001
  4.80000E-003	  4.74710E-001	  4.84082E-001	  4.59953E-001	  4.63136E-001
  5.20000E-003	  4.69539E-001	  4.77842E-001	  4.96307E-001	  4.84497E-001
  5.60000E-003	  4.70038E-001	  4.74638E-001	  4.65071E-001	  4.62765E-001
  6.00000E-003	  4.49403E-001	  4.99766E-001	  4.76189E-001	  4.35460E-001
  6.40000E-003	  4.77113E-001	  4.64593E-001	  4.78649E-001	  4.46886E-001
  7.20000E-003	  4.46589E-001	  4.58016E-001	  4.70267E-001	  4.48094E-001
  8.00000E-003	  4.56740E-001	  4.78001E-001	  4.64620E-001	  4.40664E-001
  8.80000E-003	  4.86028E-001	  4.56920E-001	  4.76620E-001	  4.31469E-001
  9.60000E-003	  4.82616E-001	  4.61317E-001	  4.73797E-001	  4.47722E-001
  1.04000E-002	  4.57738E-001	  4.66461E-001	  4.79267E-001	  4.53759E-001
  1.12000E-002	  4.61578E-001	  4.72448E-001	  4.90826E-001	  4.51716E-001
  1.20000E-002	  4.78123E-001	  4.72111E-001	  4.83855E-001	  4.38249E-001
  1.28000E-002	  4.57826E-001	  4.70910E-001	  4.76865E-001	  4.37437E-001
  1.44000E-002	  4.50962E-001	  4.53877E-001	  4.66497E-001	  4.33257E-001
  1.60000E-002	  4.52543E-001	  4.69055E-001	  4.62791E-001	  4.35951E-001
  1.76000E-002	  4.46386E-001	  4.61171E-001	  4.81321E-001	  4.28427E-001
  1.92000E-002	  4.53399E-001	  4.61436E-001	  4.77879E-001	  4.31201E-001
  2.08000E-002	  4.49655E-001	  4.60762E-001	  4.58424E-001	  4.38863E-001
  2.24000E-002	  4.40835E-001	  4.34435E-001	  4.49997E-001	  4.27393E-001
  2.40000E-002	  4.48865E-001	  4.66478E-001	  4.66718E-001	  4.30690E-001
  2.56000E-002	  4.39813E-001	  4.53342E-001	  4.59093E-001	  4.43666E-001
  2.88000E-002	  4.44265E-001	  4.52309E-001	  4.59093E-001	  4.17587E-001
  3.20000E-002	  4.49319E-001	  4.50117E-001	  4.44160E-001	  4.34724E-001
  3.52000E-002	  4.43649E-001	  4.43582E-001	  4.49035E-001	  4.22056E-001
  3.84000E-002	  4.37130E-001	  4.38450E-001	  4.39738E-001	  4.16179E-001
  4.16000E-002	  4.26063E-001	  4.44184E-001	  4.40886E-001	  4.17642E-001
  4.48000E-002	  4.21612E-001	  4.29638E-001	  4.35944E-001	  4.00192E-001
  4.80000E-002	  4.20468E-001	  4.27943E-001	  4.35768E-001	  4.01097E-001
  5.12000E-002	  4.22643E-001	  4.29791E-001	  4.34131E-001	  3.94445E-001
  5.76000E-002	  4.08248E-001	  4.22413E-001	  4.26554E-001	  3.91668E-001
  6.40000E-002	  4.10558E-001	  4.20758E-001	  4.21127E-001	  3.84504E-001
  7.04000E-002	  3.97006E-001	  4.06093E-001	  4.11709E-001	  3.77131E-001
  7.68000E-002	  3.97817E-001	  3.96058E-001	  4.04839E-001	  3.75656E-001
  8.32000E-002	  3.84089E-001	  3.95680E-001	  3.96070E-001	  3.70662E-001
  8.96000E-002	  3.81613E-001	  3.81440E-001	  3.93126E-001	  3.54196E-001
  9.60000E-002	  3.79441E-001	  3.80723E-001	  3.94780E-001	  3.56495E-001
  1.02400E-001	  3.70728E-001	  3.79141E-001	  3.82358E-001	  3.51436E-001
  1.15200E-001	  3.53991E-001	  3.66456E-001	  3.72668E-001	  3.38509E-001
  1.28000E-001	  3.46504E-001	  3.51341E-001	  3.55583E-001	  3.22430E-001
  1.40800E-001	  3.34216E-001	  3.42851E-001	  3.41719E-001	  3.17343E-001
  1.53600E-001	  3.29647E-001	  3.26556E-001	  3.33821E-001	  3.04266E-001
  1.66400E-001	  3.15356E-001	  3.14531E-001	  3.26822E-001	  2.91736E-001
  1.79200E-001	  3.05466E-001	  3.07441E-001	  3.08939E-001	  2.78927E-001
  1.92000E-001	  2.96729E-001	  2.95047E-001	  3.04047E-001	  2.79283E-001
  2.04800E-001	  2.88342E-001	  2.85421E-001	  2.92536E-001	  2.66785E-001
  2.30400E-001	  2.69658E-001	  2.65148E-001	  2.74276E-001	  2.40831E-001
  2.56000E-001	  2.55460E-001	  2.47988E-001	  2.59413E-001	  2.28772E-001
  2.81600E-001	  2.40703E-001	  2.28839E-001	  2.40917E-001	  2.12926E-001
  3.07200E-001	  2.23255E-001	  2.13352E-001	  2.21040E-001	  1.93678E-001
  3.32800E-001	  2.13360E-001	  1.96135E-001	  2.07088E-001	  1.84104E-001
  3.58400E-001	  1.99652E-001	  1.78701E-001	  1.92930E-001	  1.69158E-001
  3.84000E-001	  1.84581E-001	  1.67849E-001	  1.82775E-001	  1.58310E-001
  4.09600E-001	  1.75277E-001	  1.53690E-001	  1.69235E-001	  1.43797E-001
  4.60800E-001	  1.50127E-001	  1.31315E-001	  1.42579E-001	  1.28380E-001
  5.12000E-001	  1.34263E-001	  1.12652E-001	  1.24790E-001	  1.08092E-001
  5.63200E-001	  1.20313E-001	  9.53243E-002	  1.03261E-001	  9.87350E-002
  6.14400E-001	  1.03800E-001	  8.19878E-002	  8.80398E-002	  8.53277E-002
  6.65600E-001	  9.23081E-002	  6.15598E-002	  7.59432E-002	  7.57351E-002
  7.16800E-001	  7.95779E-002	  5.45696E-002	  6.22010E-002	  6.38615E-002
  7.68000E-001	  7.29876E-002	  4.29427E-002	  5.02021E-002	  5.37114E-002
  8.19200E-001	  6.30466E-002	  4.06264E-002	  4.49808E-002	  4.83526E-002
  9.21600E-001	  5.17520E-002	  2.77225E-002	  3.32750E-002	  3.93370E-002
  1.02400E+000	  4.50491E-002	  1.90597E-002	  2.56119E-002	  3.00982E-002
  1.12640E+000	  3.35460E-002	  1.30980E-002	  2.34589E-002	  2.29469E-002
  1.22880E+000	  2.95780E-002	  1.21605E-002	  2.32818E-002	  1.98499E-002
  1.33120E+000	  2.69524E-002	  1.06772E-002	  2.41179E-002	  2.12593E-002
  1.43360E+000	  2.56221E-002	  6.07251E-003	  2.02201E-002	  2.18736E-002
  1.53600E+000	  2.24435E-002	  2.13007E-003	  1.37028E-002	  2.13902E-002
  1.63840E+000	  2.03034E-002	  8.78751E-004	  6.84544E-003	  1.68869E-002
  1.84320E+000	  1.98930E-002	 -3.33220E-003	 -3.52011E-003	  1.25316E-002
  2.04800E+000	  1.41840E-002	 -2.89834E-003	 -1.22067E-002	  1.67711E-002
  2.25280E+000	  1.14954E-002	  1.66613E-003	 -1.02879E-002	  1.54751E-002
  2.45760E+000	  1.02878E-002	  1.23312E-002	 -2.01467E-003	  6.90719E-003
  2.66240E+000	  6.39619E-003	  2.12617E-002	  3.95316E-003	 -5.28704E-004
  2.86720E+000	  5.70135E-003	  2.08394E-002	  9.46558E-003	 -5.62909E-004
  3.07200E+000	  6.83315E-003	  1.73322E-002	  1.26579E-002	 -1.35515E-003
  3.27680E+000	  1.71477E-002	  1.65761E-002	  6.58022E-003	  5.74651E-004
  3.68640E+000	  1.95676E-002	  1.66410E-002	  7.73081E-003	  3.47251E-003
  4.09600E+000	  1.11487E-002	  3.01827E-002	  2.72604E-003	 -6.73938E-003
  4.50560E+000	  1.05682E-002	  1.98875E-002	 -2.72509E-003	 -8.39525E-003
  4.91520E+000	  1.21586E-002	 -2.69791E-003	 -1.49566E-002	 -1.83918E-002
  5.32480E+000	  9.33014E-003	  2.45509E-003	 -2.38487E-002	 -1.57019E-002
  5.73440E+000	 -3.11536E-003	 -5.47771E-003	 -2.21340E-002	 -9.56205E-003
  6.14400E+000	 -5.23450E-003	 -1.95341E-003	 -9.10246E-003	 -1.25993E-002
  6.55360E+000	 -1.03048E-003	  4.02792E-003	 -1.76758E-002	 -1.28523E-002
  7.37280E+000	 -1.26093E-002	  8.23826E-003	 -1.80111E-002	 -1.60256E-002
  8.19200E+000	 -8.94973E-003	  1.51447E-002	 -2.03721E-002	 -6.55920E-004
  9.01120E+000	 -2.28762E-003	  8.17602E-003	 -1.71954E-002	  4.46102E-003
  9.83040E+000	  1.58651E-002	  6.94923E-003	 -1.91212E-002	  1.11552E-002
  1.06496E+001	  1.24575E-003	  1.00086E-003	 -8.17659E-003	  1.02655E-002
  1.14688E+001	 -1.99749E-002	  1.61315E-002	  5.73441E-003	  5.39450E-003
  1.22880E+001	 -1.91294E-002	  7.09939E-003	  4.57708E-003	  6.57244E-003
  1.31072E+001	 -1.21299E-002	  3.20505E-003	  2.59100E-003	  2.98560E-003
  1.47456E+001	 -6.18804E-003	 -6.38595E-003	  5.25279E-003	 -9.93411E-003
  1.63840E+001	 -1.25543E-002	  1.20945E-003	 -4.52038E-004	 -7.19336E-003
  1.80224E+001	 -1.05961E-002	  1.09608E-002	  1.35140E-002	 -5.00348E-003
  1.96608E+001	  2.84676E-003	 -1.40962E-003	  3.17717E-003	 -7.07461E-003
  2.12992E+001	 -9.48559E-003	 -2.51975E-004	 -4.42536E-003	 -8.15382E-003
  2.29376E+001	  4.40017E-003	 -3.57654E-003	 -1.00149E-003	  3.61765E-003
  2.45760E+001	  2.24651E-002	  4.91300E-003	  1.51827E-003	  6.01122E-003
  2.62144E+001	  1.90500E-002	 -3.72391E-003	 -9.09765E-003	 -1.97748E-003
  2.94912E+001	  6.37573E-003	 -5.90742E-003	  6.00425E-004	  1.01928E-003
  3.27680E+001	  5.37749E-003	 -3.53370E-003	 -9.81461E-004	  2.13922E-004
  3.60448E+001	  4.94174E-003	 -6.87328E-004	  9.83345E-003	 -4.01352E-004
  3.93216E+001	  7.48339E-003	 -6.92619E-003	 -2.61121E-003	 -4.57703E-003
  4.25984E+001	 -6.43823E-003	 -2.56654E-003	  4.93727E-003	 -8.64267E-004
  4.58752E+001	 -8.31489E-003	  5.57419E-004	 -5.34535E-003	 -8.04016E-003
  4.91520E+001	 -1.81186E-003	 -8.30527E-003	 -6.72834E-004	 -2.07374E-003
  5.24288E+001	 -5.13999E-003	 -3.68608E-003	  2.31280E-004	  4.47137E-003
  5.89824E+001	 -3.65691E-003	 -1.11017E-002	 -1.89023E-003	  1.09830E-003
  6.55360E+001	  3.63913E-003	 -6.42275E-003	 -6.05779E-003	 -5.77502E-004
  7.20896E+001	 -4.03434E-003	 -8.26545E-003	  1.12032E-002	 -3.18522E-004
  7.86432E+001	  9.11746E-003	  5.11242E-003	 -6.39189E-003	 -4.72398E-003
  8.51968E+001	 -1.69259E-003	  1.83091E-003	 -6.48457E-004	  7.45458E-003
  9.17504E+001	  4.11606E-003	  3.55408E-003	  4.41990E-003	 -3.20811E-003
  9.83040E+001	  2.89258E-004	  2.66323E-003	 -2.98710E-003	 -7.35187E-003
  1.04858E+002	 -2.46537E-004	  2.70566E-003	 -3.17033E-003	 -8.99573E-003
  1.17965E+002	  3.06045E-003	  6.58150E-003	  3.90979E-004	  3.54787E-003
  1.31072E+002	 -6.90606E-003	  1.89565E-003	 -4.65344E-003	 -3.57462E-003
  1.44179E+002	  9.80423E-005	 -1.27322E-003	  3.87425E-003	  1.89896E-003
  1.57286E+002	 -3.29672E-003	  2.30563E-003	 -1.41180E-003	 -2.83830E-003
  1.70394E+002	  8.64010E-004	 -2.69552E-003	 -7.35719E-004	  5.35306E-003
  1.83501E+002	  4.40203E-003	  1.14885E-002	 -1.45996E-003	 -1.93439E-003
  1.96608E+002	  1.63673E-004	 -3.72420E-004	 -3.19987E-004	 -5.85924E-005
  2.09715E+002	  3.81974E-003	 -2.33610E-003	 -4.90574E-003	 -5.16825E-004
  2.35930E+002	 -3.47937E-003	 -4.58830E-003	  7.16908E-003	  6.75987E-005
  2.62144E+002	 -3.66663E-003	 -2.80125E-003	  1.37607E-003	 -3.84145E-003
  2.88358E+002	 -6.25282E-004	  3.97397E-003	 -3.26573E-003	  4.65413E-003
  3.14573E+002	  1.97382E-003	  4.29986E-004	  4.22180E-003	 -7.92344E-004
  3.40787E+002	 -1.46664E-003	 -1.09678E-003	 -3.83337E-004	  2.30431E-003
  3.67002E+002	 -2.06685E-004	  5.62655E-003	 -1.53742E-003	 -7.29860E-004
  3.93216E+002	  2.98335E-003	 -2.55067E-003	  2.58481E-003	 -1.95019E-003

"Count Rate"
       0.01311	     114.59351	     104.44641	     115.96680	     112.83875
       0.02621	      86.66992	     143.20374	      91.78162	     121.07849
       0.03932	     138.93127	     117.34009	     135.72693	     129.69971
       0.05243	      92.46826	     136.64246	     149.38354	     103.83606
       0.06554	     133.74329	     100.17395	     101.16577	     140.38086
       0.07864	     130.46265	     112.22839	     122.14661	      95.67261
       0.09175	     105.51453	     121.38367	     119.32373	     104.52271
       0.10486	     126.26648	      66.37573	     107.04041	     131.53076
       0.11796	     107.11670	     158.76770	     104.37012	      89.79797
       0.13107	     129.85229	     138.70239	     125.12207	     110.16846
       0.14418	     128.86047	     157.54700	     148.01025	     143.58521
       0.15729	     100.63171	     111.99951	      76.21765	     101.54724
       0.17039	     109.25293	     141.75415	     146.33179	     114.59351
       0.18350	     147.01843	      91.17126	     110.24475	      89.56909
       0.19661	     116.50085	     106.73523	     116.04309	     178.60413
       0.20972	     148.39172	      90.02686	     109.17664	     116.34827
       0.22282	     115.96680	     120.46814	     130.31006	     137.93945
       0.23593	     140.07568	     161.59058	     147.70508	     121.61255
       0.24904	     124.89319	     116.50085	      99.94507	     125.19836
       0.26214	     167.61780	     110.85510	     122.75696	     115.28015
       0.27525	     109.78699	     146.17920	     147.70508	     134.04846
       0.28836	     137.17651	      93.07861	     138.16833	     141.22009
       0.30147	     105.28564	      87.58545	     115.43274	      94.14673
       0.31457	     135.26917	     125.73242	     167.92297	      98.57178
       0.32768	      95.06226	     132.29370	      92.77344	     103.91235
       0.34079	     116.19568	      94.90967	     114.36462	     117.49268
       0.35389	     118.94226	     136.79504	      95.21484	     118.86597
       0.36700	     107.19299	     133.13293	     135.11658	     125.57983
       0.38011	     151.51978	     105.89600	     112.45728	     117.95044
       0.39322	     111.54175	     115.81421	     141.22009	     114.36462
       0.40632	     132.14111	     147.39990	     108.03223	     134.42993
       0.41943	     135.95581	     154.64783	     108.64258	     151.90125
       0.43254	     108.18481	      88.04321	     142.51709	     124.43542
       0.44564	      97.73254	     117.41638	      87.73804	     105.36194
       0.45875	     108.48999	      92.92603	     115.89050	      83.46558
       0.47186	     145.11108	     109.25293	     134.81140	     109.02405
       0.48497	     132.44629	     146.48438	      99.25842	     130.61523
       0.49807	     122.37549	     136.56616	     121.15479	     120.08667
       0.51118	     118.86597	     117.03491	     114.74609	     111.61804
       0.52429	     103.91235	     174.40796	     102.31018	     117.34009
       0.53740	     108.41370	     134.50623	     135.87952	     152.43530
       0.55050	     111.46545	     154.19006	     157.54700	      92.08679
       0.56361	     123.29102	      98.41919	     116.65344	     121.91772
       0.57672	     120.77332	     106.20117	     126.26648	     126.80054
       0.58982	     153.80859	     113.44910	      99.63989	     157.39441
       0.60293	     105.66711	     151.67236	     115.50903	      99.41101
       0.61604	     119.85779	     108.48999	     141.98303	     123.21472
       0.62915	     129.39453	     142.36450	     118.40820	      98.19031
       0.64225	      87.96692	     134.04846	     120.92590	     130.84412
       0.65536	     114.13574	     119.47632	     107.34558	     124.89319
       0.66847	     115.05127	     155.71594	     127.18201	     114.82239
       0.68157	     136.18469	     115.28015	     107.04041	      91.62903
       0.69468	     107.11670	     149.30725	     115.81421	     104.59900
       0.70779	     105.74341	     171.58508	     114.82239	     139.46533
       0.72090	      93.91785	     125.88501	      90.48462	      85.98328
       0.73400	     146.63696	     140.99121	     106.12488	     138.77869
       0.74711	     104.90417	     110.09216	     116.50085	      84.76257
