ALV-7004/USB-FAST
Date :	"3/14/2024"
Time :	"12:31:59 PM"
Samplename : 	""
SampMemo(0) : 	""
SampMemo(1) : 	""
SampMemo(2) : 	""
SampMemo(3) : 	""
SampMemo(4) : 	""
SampMemo(5) : 	""
SampMemo(6) : 	""
SampMemo(7) : 	""
SampMemo(8) : 	""
SampMemo(9) : 	""
Temperature [K] :	     298.16000
Viscosity [cp]  :	       0.89000
Refractive Index:	       1.33200
Wavelength [nm] :	       0.00000
Angle [°]       :	       0.00000
Duration [s]    :	         1
FloatDur [ms]   :	          944
Stop TP [ms]   :	      3200
Runs            :	         1
Mode            :	"A-CH0+1  A-CH2+3 "
MeanCR0 [kHz]   :	     148.75306
MeanCR1 [kHz]   :	     143.00241
MeanCR2 [kHz]   :	     143.72508
MeanCR3 [kHz]   :	     141.80925

"Correlation"
  3.12500E-006	 -1.00000E+000	 -1.00000E+000	 -1.00000E+000	 -1.00000E+000
  6.25000E-006	 -1.00000E+000	 -1.00000E+000	 -1.00000E+000	 -1.00000E+000
  9.37500E-006	 -1.00000E+000	 -1.00000E+000	 -1.00000E+000	 -1.00000E+000
  1.25000E-005	 -1.00000E+000	 -1.00000E+000	 -1.00000E+000	 -1.00000E+000
  1.56250E-005	 -1.00000E+000	 -1.00000E+000	 -1.00000E+000	 -1.00000E+000
  1.87500E-005	 -1.00000E+000	 -1.00000E+000	 -1.00000E+000	 -1.00000E+000
  2.18750E-005	 -8.77407E-001	 -3.20163E-001	 -1.46417E-001	 -9.49415E-001
  2.50000E-005	  5.52808E+000	  4.88639E+000	  5.20489E+000	  9.30243E+000
  2.81250E-005	  1.66640E+000	  1.30481E+000	  1.24886E+000	  3.82241E+000
  3.12500E-005	  9.30840E-001	  8.73697E-001	  1.13396E+000	  2.47349E+000
  3.43750E-005	  6.09033E-001	  5.58650E-001	  5.92261E-001	  2.33859E+000
  3.75000E-005	  7.92923E-001	  6.58139E-001	  7.07166E-001	  1.88333E+000
  4.06250E-005	  7.16302E-001	  7.24464E-001	  5.92261E-001	  1.54610E+000
  4.37500E-005	  7.77599E-001	  5.25488E-001	  6.74336E-001	  1.36062E+000
  4.68750E-005	  4.55792E-001	  5.42069E-001	  3.13205E-001	  1.24259E+000
  5.00000E-005	  7.77599E-001	  5.00615E-001	  4.52733E-001	  1.06554E+000
  5.62500E-005	  6.01371E-001	  5.83522E-001	  5.75846E-001	  1.09084E+000
  6.25000E-005	  3.63847E-001	  5.91813E-001	  7.31789E-001	  9.13790E-001
  6.87500E-005	  4.86440E-001	  4.84034E-001	  5.92261E-001	  8.46343E-001
  7.50000E-005	  6.47343E-001	  6.58139E-001	  5.59430E-001	  8.37913E-001
  8.12500E-005	  3.17875E-001	  4.92325E-001	  5.51223E-001	  7.78897E-001
  8.75000E-005	  7.16302E-001	  5.08906E-001	  5.59430E-001	  7.03020E-001
  9.37500E-005	  5.70723E-001	  3.26511E-001	  3.78865E-001	  6.35574E-001
  1.00000E-004	  4.86440E-001	  3.72110E-001	  4.65044E-001	  5.97635E-001
  1.12500E-004	  4.48130E-001	  5.33778E-001	  5.92260E-001	  6.44004E-001
  1.25000E-004	  4.25143E-001	  4.25999E-001	  4.77355E-001	  5.42835E-001
  1.37500E-004	  6.58836E-001	  5.33778E-001	  4.48629E-001	  5.17542E-001
  1.50000E-004	  6.05202E-001	  4.50871E-001	  5.51223E-001	  5.51266E-001
  1.62500E-004	  5.59230E-001	  4.55016E-001	  4.24006E-001	  5.00681E-001
  1.75000E-004	  5.09426E-001	  5.00615E-001	  4.48629E-001	  5.76558E-001
  1.87500E-004	  5.36243E-001	  4.63307E-001	  5.26600E-001	  4.37450E-001
  2.00000E-004	  5.43905E-001	  4.23926E-001	  4.50680E-001	  4.73280E-001
  2.25000E-004	  4.94102E-001	  5.21342E-001	  4.95822E-001	  4.81711E-001
  2.50000E-004	  5.95624E-001	  4.28071E-001	  4.97874E-001	  4.79604E-001
  2.75000E-004	  4.69200E-001	  4.11490E-001	  4.77355E-001	  4.50096E-001
  3.00000E-004	  4.46214E-001	  5.02688E-001	  4.21954E-001	  5.68127E-001
  3.25000E-004	  4.69200E-001	  5.17196E-001	  5.61482E-001	  4.92250E-001
  3.50000E-004	  4.05988E-001	  5.52432E-001	  5.04029E-001	  3.51034E-001
  3.75000E-004	  3.73424E-001	  4.28071E-001	  4.58888E-001	  4.41665E-001
  4.00000E-004	  3.92579E-001	  4.78851E-001	  4.26057E-001	  5.02788E-001
  4.50000E-004	  5.17087E-001	  4.18744E-001	  4.92743E-001	  4.94357E-001
  5.00000E-004	  5.10383E-001	  4.77815E-001	  4.59913E-001	  4.47987E-001
  5.50000E-004	  4.95059E-001	  5.06832E-001	  4.85562E-001	  4.66957E-001
  6.00000E-004	  4.89312E-001	  4.27034E-001	  4.72224E-001	  4.91195E-001
  6.50000E-004	  5.56355E-001	  4.72633E-001	  4.37342E-001	  4.57472E-001
  7.00000E-004	  5.08467E-001	  4.49834E-001	  5.08132E-001	  4.31126E-001
  7.50000E-004	  4.82608E-001	  5.17196E-001	  4.83510E-001	  5.03841E-001
  8.00000E-004	  4.51001E-001	  4.98540E-001	  5.08644E-001	  4.29544E-001
  9.00000E-004	  4.86438E-001	  4.94395E-001	  4.98898E-001	  5.21229E-001
  1.00000E-003	  4.82128E-001	  4.50351E-001	  4.68632E-001	  4.60106E-001
  1.10000E-003	  5.02241E-001	  4.74705E-001	  5.04027E-001	  4.49567E-001
  1.20000E-003	  4.96973E-001	  4.32215E-001	  4.49652E-001	  4.97517E-001
  1.30000E-003	  4.33761E-001	  4.53460E-001	  5.27111E-001	  4.76440E-001
  1.40000E-003	  4.74466E-001	  4.38951E-001	  5.07618E-001	  4.89613E-001
  1.50000E-003	  4.68240E-001	  4.79368E-001	  5.07618E-001	  4.29544E-001
  1.60000E-003	  4.88830E-001	  4.92320E-001	  4.78376E-001	  4.54043E-001
  1.80000E-003	  4.89787E-001	  4.99574E-001	  4.66834E-001	  5.04365E-001
  2.00000E-003	  4.85478E-001	  4.66152E-001	  4.82736E-001	  4.83551E-001
  2.20000E-003	  4.90266E-001	  4.45944E-001	  4.82224E-001	  4.29805E-001
  2.40000E-003	  4.53153E-001	  4.60194E-001	  5.14797E-001	  4.94880E-001
  2.60000E-003	  4.53872E-001	  4.59157E-001	  4.71719E-001	  4.81707E-001
  2.80000E-003	  4.92661E-001	  4.89988E-001	  4.59920E-001	  4.69061E-001
  3.00000E-003	  4.47646E-001	  4.48535E-001	  4.55303E-001	  4.57732E-001
  3.20000E-003	  4.56162E-001	  4.67054E-001	  4.72622E-001	  4.46936E-001
  3.60000E-003	  4.57120E-001	  4.75604E-001	  4.48384E-001	  4.55509E-001
  4.00000E-003	  4.69212E-001	  4.58505E-001	  4.43639E-001	  4.44180E-001
  4.40000E-003	  4.62039E-001	  4.62790E-001	  4.52231E-001	  4.64731E-001
  4.80000E-003	  4.64074E-001	  4.77817E-001	  4.76352E-001	  4.49977E-001
  5.20000E-003	  4.60842E-001	  4.49836E-001	  4.48651E-001	  4.57617E-001
  5.60000E-003	  4.67067E-001	  4.64086E-001	  4.48010E-001	  4.28241E-001
  6.00000E-003	  4.62877E-001	  4.81703E-001	  4.43906E-001	  4.29558E-001
  6.40000E-003	  4.41119E-001	  4.59801E-001	  4.51933E-001	  4.38198E-001
  7.20000E-003	  4.63567E-001	  4.66084E-001	  4.68413E-001	  4.35629E-001
  8.00000E-003	  4.59307E-001	  4.35188E-001	  4.56229E-001	  4.46026E-001
  8.80000E-003	  4.35302E-001	  4.52287E-001	  4.60194E-001	  4.35619E-001
  9.60000E-003	  4.45239E-001	  4.59736E-001	  4.57886E-001	  4.33445E-001
  1.04000E-002	  4.54458E-001	  4.45681E-001	  4.29426E-001	  4.36211E-001
  1.12000E-002	  4.28897E-001	  4.34799E-001	  4.30195E-001	  4.18559E-001
  1.20000E-002	  4.31840E-001	  4.38815E-001	  4.28528E-001	  4.39779E-001
  1.28000E-002	  4.30505E-001	  4.28659E-001	  4.35145E-001	  4.25960E-001
  1.44000E-002	  4.26834E-001	  4.28562E-001	  4.33446E-001	  4.17288E-001
  1.60000E-002	  4.14162E-001	  4.19494E-001	  4.21391E-001	  4.15871E-001
  1.76000E-002	  3.97550E-001	  4.26716E-001	  4.19371E-001	  4.00096E-001
  1.92000E-002	  4.02249E-001	  4.12078E-001	  4.14561E-001	  4.01644E-001
  2.08000E-002	  3.99695E-001	  4.12402E-001	  3.99140E-001	  3.96496E-001
  2.24000E-002	  3.96153E-001	  3.88146E-001	  4.02763E-001	  3.91369E-001
  2.40000E-002	  3.88461E-001	  4.01585E-001	  3.89874E-001	  3.87691E-001
  2.56000E-002	  3.94050E-001	  3.87179E-001	  3.79367E-001	  3.78611E-001
  2.88000E-002	  3.77447E-001	  3.79553E-001	  3.78934E-001	  3.69729E-001
  3.20000E-002	  3.65519E-001	  3.66761E-001	  3.54545E-001	  3.52077E-001
  3.52000E-002	  3.57463E-001	  3.46255E-001	  3.56501E-001	  3.42862E-001
  3.84000E-002	  3.40581E-001	  3.42612E-001	  3.45171E-001	  3.38508E-001
  4.16000E-002	  3.28563E-001	  3.37334E-001	  3.24885E-001	  3.17282E-001
  4.48000E-002	  3.36779E-001	  3.08058E-001	  3.19665E-001	  3.22552E-001
  4.80000E-002	  3.17634E-001	  3.15150E-001	  3.13211E-001	  3.12464E-001
  5.12000E-002	  3.10016E-001	  3.02236E-001	  3.06047E-001	  3.01983E-001
  5.76000E-002	  2.90081E-001	  2.84294E-001	  2.90033E-001	  2.82152E-001
  6.40000E-002	  2.71485E-001	  2.76222E-001	  2.66840E-001	  2.65486E-001
  7.04000E-002	  2.62868E-001	  2.59813E-001	  2.52121E-001	  2.53567E-001
  7.68000E-002	  2.47421E-001	  2.39308E-001	  2.39673E-001	  2.38532E-001
  8.32000E-002	  2.31499E-001	  2.31811E-001	  2.23169E-001	  2.25662E-001
  8.96000E-002	  2.23229E-001	  2.16137E-001	  2.15571E-001	  2.11811E-001
  9.60000E-002	  2.12463E-001	  1.99322E-001	  2.08052E-001	  1.99831E-001
  1.02400E-001	  1.97621E-001	  1.96096E-001	  2.00944E-001	  1.91262E-001
  1.15200E-001	  1.79941E-001	  1.76841E-001	  1.86803E-001	  1.70577E-001
  1.28000E-001	  1.66461E-001	  1.59395E-001	  1.66091E-001	  1.64031E-001
  1.40800E-001	  1.48796E-001	  1.47810E-001	  1.51489E-001	  1.47582E-001
  1.53600E-001	  1.34837E-001	  1.30473E-001	  1.40345E-001	  1.38359E-001
  1.66400E-001	  1.24671E-001	  1.19345E-001	  1.33873E-001	  1.30516E-001
  1.79200E-001	  1.15625E-001	  1.12654E-001	  1.25684E-001	  1.19136E-001
  1.92000E-001	  1.02630E-001	  1.01405E-001	  1.12285E-001	  1.12117E-001
  2.04800E-001	  9.61694E-002	  9.58787E-002	  1.05526E-001	  1.06791E-001
  2.30400E-001	  8.18601E-002	  8.53197E-002	  9.23098E-002	  8.92085E-002
  2.56000E-001	  6.98768E-002	  7.59003E-002	  7.86565E-002	  7.57642E-002
  2.81600E-001	  5.94666E-002	  6.70625E-002	  7.22213E-002	  6.59254E-002
  3.07200E-001	  5.19281E-002	  6.22100E-002	  5.93418E-002	  5.91696E-002
  3.32800E-001	  4.23501E-002	  5.07921E-002	  5.41227E-002	  5.44310E-002
  3.58400E-001	  4.15229E-002	  4.44607E-002	  4.69014E-002	  4.97641E-002
  3.84000E-001	  3.71119E-002	  3.98271E-002	  4.20882E-002	  4.34983E-002
  4.09600E-001	  3.63954E-002	  3.29639E-002	  3.58904E-002	  3.86725E-002
  4.60800E-001	  3.24892E-002	  2.32932E-002	  3.00679E-002	  3.29998E-002
  5.12000E-001	  3.18018E-002	  1.62602E-002	  2.17879E-002	  2.74964E-002
  5.63200E-001	  3.35097E-002	  9.19790E-003	  1.04695E-002	  2.38880E-002
  6.14400E-001	  2.83327E-002	  3.24162E-003	 -1.86071E-003	  2.19051E-002
  6.65600E-001	  2.51679E-002	 -1.12081E-003	 -2.09777E-003	  1.67373E-002
  7.16800E-001	  1.80557E-002	 -2.86563E-003	 -5.11240E-003	  1.37308E-002
  7.68000E-001	  1.46455E-002	 -2.33845E-003	 -1.51395E-003	  8.82354E-003
  8.19200E-001	  1.06846E-002	 -2.14766E-003	 -7.96823E-003	  1.18766E-002
  9.21600E-001	  9.54535E-003	 -8.58889E-004	 -7.00470E-003	  9.19536E-003
  1.02400E+000	  1.53751E-002	 -4.25886E-003	  9.43976E-004	 -2.03993E-003
  1.12640E+000	  9.51787E-003	 -1.68104E-003	 -8.85170E-004	 -8.35525E-003
  1.22880E+000	  4.30667E-003	 -2.10500E-004	 -1.72571E-004	 -2.27280E-003
  1.33120E+000	  2.46125E-003	  1.55174E-003	 -4.07535E-003	  8.77693E-004
  1.43360E+000	 -8.05426E-004	  9.74266E-004	 -4.18021E-003	  2.93996E-003
  1.53600E+000	 -1.90520E-003	  8.18652E-003	 -7.09127E-003	  3.86815E-003
  1.63840E+000	  2.47660E-003	  4.17960E-003	 -5.73621E-003	  2.25337E-003
  1.84320E+000	  4.35290E-003	  7.21172E-004	 -6.09343E-003	  2.94420E-003
  2.04800E+000	  9.50022E-003	  1.00638E-003	  3.13212E-003	  1.87935E-003
  2.25280E+000	  9.74386E-003	  8.56842E-004	  1.70653E-003	  6.69287E-004
  2.45760E+000	  7.60338E-003	  4.18877E-003	 -5.05636E-003	 -3.58424E-003
  2.66240E+000	  1.06873E-002	 -1.43182E-003	 -2.42371E-003	 -4.73793E-003
  2.86720E+000	  1.20447E-002	  1.75357E-003	 -4.44494E-003	 -3.33864E-003
  3.07200E+000	  9.41144E-003	  2.43317E-004	  1.74194E-003	 -6.02408E-003
  3.27680E+000	  6.44076E-003	  5.12197E-004	  5.49174E-003	 -7.38373E-003
  3.68640E+000	  1.26528E-002	  2.89318E-003	  9.83478E-003	 -2.88033E-003
  4.09600E+000	  4.51551E-003	 -2.88061E-003	  6.81663E-003	 -4.63628E-004
  4.50560E+000	 -5.91099E-003	  2.37957E-003	 -2.70775E-003	 -5.63084E-004
  4.91520E+000	 -5.64705E-003	 -2.94023E-004	 -1.21306E-003	  1.98768E-003
  5.32480E+000	 -8.95593E-003	 -1.75519E-003	  7.38896E-003	  4.66240E-003
  5.73440E+000	 -1.60836E-002	  1.92087E-003	 -1.42803E-003	  3.21557E-003
  6.14400E+000	 -9.13954E-003	  6.09680E-003	 -5.68773E-003	  3.32724E-003
  6.55360E+000	 -5.59291E-003	 -3.02398E-004	 -4.20605E-003	  5.80442E-004
  7.37280E+000	 -4.63796E-004	 -5.33848E-004	 -1.55456E-003	 -1.68287E-003
  8.19200E+000	 -1.18458E-003	  9.40658E-004	 -5.55383E-003	  4.55096E-003
  9.01120E+000	 -1.13903E-003	  9.49742E-004	 -1.18340E-003	  3.91042E-003
  9.83040E+000	 -2.25049E-003	  3.78578E-003	 -1.86215E-003	  8.58754E-003
  1.06496E+001	 -6.26637E-003	  7.52256E-003	  5.94006E-003	  2.95154E-003
  1.14688E+001	  1.51767E-003	 -3.22945E-003	 -7.36759E-003	 -1.23003E-003
  1.22880E+001	  3.70284E-003	 -6.50375E-003	 -9.19526E-003	  9.42080E-003
  1.31072E+001	 -1.56374E-003	 -4.44515E-003	 -4.07647E-004	  7.41718E-004
  1.47456E+001	  2.16267E-003	 -2.88108E-003	  4.66265E-003	 -2.80800E-003
  1.63840E+001	 -6.11308E-003	  6.10668E-004	 -5.56005E-003	 -5.86435E-004
  1.80224E+001	 -1.05104E-003	 -7.30915E-004	  3.99430E-003	  2.42898E-003
  1.96608E+001	 -4.15592E-003	 -3.05034E-003	 -1.05777E-003	 -4.50901E-004
  2.12992E+001	 -4.25781E-003	  1.83540E-003	  2.28779E-003	  7.84865E-004
  2.29376E+001	 -6.28280E-003	 -1.31230E-003	  1.74282E-003	 -1.76703E-003
  2.45760E+001	 -9.67172E-004	  2.28108E-003	 -4.06894E-003	  2.32062E-003
  2.62144E+001	 -2.57189E-003	  2.05502E-003	 -2.38307E-003	 -7.35784E-004
  2.94912E+001	 -2.13600E-005	  4.11610E-004	 -2.23230E-003	  1.84043E-003
  3.27680E+001	 -9.96616E-005	 -2.95058E-003	  1.28104E-003	 -4.38420E-005
  3.60448E+001	  1.05414E-003	 -1.53704E-003	  1.87365E-004	  2.62711E-003
  3.93216E+001	  7.20050E-003	 -1.53979E-003	 -5.72885E-004	 -1.27924E-003
  4.25984E+001	  3.41205E-003	 -2.70131E-003	 -3.36828E-004	  6.56649E-003
  4.58752E+001	 -5.16408E-003	 -2.25166E-003	 -8.29695E-004	 -2.47448E-003
  4.91520E+001	 -9.83838E-004	 -1.12861E-003	  1.88614E-003	  1.51145E-003
  5.24288E+001	 -3.67718E-004	 -4.69145E-003	  4.60396E-003	 -1.40749E-003
  5.89824E+001	 -3.67741E-003	 -1.23811E-004	  1.76858E-003	 -1.36123E-003
  6.55360E+001	  5.99509E-004	 -3.07227E-003	  4.56188E-004	 -2.72839E-003
  7.20896E+001	 -7.31277E-004	 -1.32914E-003	 -3.20047E-003	 -3.57690E-004
  7.86432E+001	  3.24354E-003	 -1.91013E-003	 -1.11674E-003	  1.16806E-003
  8.51968E+001	 -9.19024E-004	  1.21455E-003	  1.42201E-003	  1.51147E-003
  9.17504E+001	 -4.60941E-003	  1.94881E-004	  1.24018E-003	 -1.92229E-003
  9.83040E+001	 -3.06973E-003	  1.82087E-003	 -4.34755E-004	 -1.75672E-004
  1.04858E+002	 -4.99993E-004	  1.06400E-003	  1.44873E-003	  1.37616E-005
  1.17965E+002	  4.21143E-003	  1.99020E-003	 -3.04383E-003	  1.30002E-003
  1.31072E+002	 -1.85416E-003	  1.63379E-003	 -2.15139E-003	 -6.72812E-004
  1.44179E+002	 -6.57108E-004	 -1.62750E-003	 -1.79707E-004	 -6.68700E-004
  1.57286E+002	  5.30034E-003	 -1.25622E-003	  1.71233E-003	  1.34654E-003
  1.70394E+002	 -4.01600E-003	 -7.58972E-004	 -2.73869E-003	 -8.57960E-004
  1.83501E+002	 -4.78588E-004	  7.52219E-004	 -1.67865E-003	 -2.28604E-004
  1.96608E+002	  3.99427E-003	 -9.36705E-004	 -1.74953E-004	  8.49508E-004
  2.09715E+002	 -1.45972E-003	 -3.45780E-004	 -1.15187E-004	 -1.46653E-005
  2.35930E+002	 -1.32041E-003	  9.06113E-004	 -1.31959E-003	 -1.57841E-003
  2.62144E+002	 -7.53709E-004	 -1.07128E-003	 -8.72313E-005	 -2.61173E-003
  2.88358E+002	 -8.32036E-004	  1.89683E-004	 -8.73498E-004	 -4.19380E-004
  3.14573E+002	  1.25981E-003	 -6.16819E-005	  2.81049E-004	  1.31146E-003
  3.40787E+002	  6.11932E-004	 -1.91700E-003	 -1.36055E-003	 -4.47106E-004
  3.67002E+002	 -1.23907E-003	  1.43314E-003	  1.09536E-003	  1.44388E-004
  3.93216E+002	  2.83857E-005	  2.52683E-003	  1.07700E-004	  4.97442E-004

"Count Rate"
       0.01311	     147.24731	     133.66699	     135.57434	     148.39172
       0.02621	     181.04553	     136.26099	     146.40808	     151.13831
       0.03932	     168.22815	     145.49255	     151.90125	     144.27185
       0.05243	     129.16565	     118.17932	     157.69958	     149.30725
       0.06554	     188.44604	     139.54163	     142.28821	     120.01038
       0.07864	     130.00488	     120.31555	     141.06750	     123.44360
       0.09175	     136.03210	     135.87952	     127.18201	     121.84143
       0.10486	     135.19287	     139.16016	     150.37537	     119.93408
       0.11796	     138.85498	     137.93945	     146.56067	     134.58252
       0.13107	     146.25549	     147.32361	     130.99670	     136.94763
       0.14418	     187.30164	     147.85767	     139.84680	     123.82507
       0.15729	     136.03210	     147.32361	     136.94763	     134.81140
       0.17039	     130.08118	     158.46252	     119.01855	     144.04297
       0.18350	     171.35620	     168.07556	     142.74597	     143.43262
       0.19661	     120.92590	     123.97766	     130.38635	     140.60974
       0.20972	     149.61243	     143.66150	     141.29639	     153.27454
       0.22282	     171.50879	     129.39453	     142.13562	     141.37268
       0.23593	     120.92590	     134.50623	     142.13562	     146.33179
       0.24904	     119.55261	     145.56885	     155.71594	     124.20654
       0.26214	     173.03467	     133.13293	     131.98853	     130.84412
       0.27525	     156.86035	     158.15735	     146.40808	     164.03198
       0.28836	     155.63965	     156.47888	     147.47620	     135.04028
       0.30147	     159.45435	     151.90125	     129.16565	     128.32642
       0.31457	     114.59351	     125.42725	     126.34277	     160.06470
       0.32768	     137.78687	     129.77600	     163.11646	     158.38623
       0.34079	     158.46252	     144.42444	     146.10291	     154.34265
       0.35389	     116.88232	     149.23096	     127.25830	     141.52527
       0.36700	     128.55530	     136.56616	     130.61523	     142.28821
       0.38011	     144.95850	     163.42163	     164.10828	     133.66699
       0.39322	     150.07019	     135.95581	     157.16553	     150.83313
       0.40632	     164.87122	     122.45178	     120.77332	     142.74597
       0.41943	     146.25549	     140.45715	     160.52246	     131.22559
       0.43254	     131.45447	     135.19287	     175.01831	     138.62610
       0.44564	     146.40808	     111.16028	     136.03210	     126.87683
       0.45875	     174.10278	     147.62878	     132.90405	     126.26648
       0.47186	     125.80872	     147.85767	     166.09192	     161.59058
       0.48497	     142.89856	     156.02112	     168.38074	     143.58521
       0.49807	     145.03479	     120.01038	     143.35632	     138.39722
       0.51118	     133.81958	     149.07837	     133.59070	     172.19543
       0.52429	     138.70239	     138.16833	     136.56616	     104.82788
       0.53740	     148.62061	     134.35364	     129.92859	     108.64258
       0.55050	     133.51440	     151.97754	     155.48706	     112.76245
       0.56361	     182.87659	     131.83594	     116.95862	     136.41357
       0.57672	     147.01843	     144.80591	     154.03748	     105.43823
       0.58982	     146.02661	     150.83313	     127.33459	     165.10010
       0.60293	     175.70496	     124.20654	     113.60168	     142.74597
       0.61604	     143.73779	     136.94763	     109.10034	     131.22559
       0.62915	     143.73779	     130.38635	     148.16284	     148.23914
       0.64225	     167.46521	     158.99658	     155.48706	     143.50891
       0.65536	     144.88220	     150.22278	     124.28284	     138.93127
       0.66847	     161.43799	     151.97754	     121.45996	     150.52795
       0.68157	     129.39453	     121.15479	     138.01575	     138.39722
       0.69468	     133.05664	     152.43530	     126.11389	     153.04565
       0.70779	     140.68604	     143.28003	     165.10010	     143.50891
       0.72090	     149.30725	     124.66431	     125.57983	     140.60974
       0.73400	     145.26367	     135.57434	     154.95300	     140.22827
       0.74711	     137.40540	     126.64795	     150.83313	     127.63977
