ALV-7004/USB-FAST
Date :	"3/14/2024"
Time :	"12:35:35 PM"
Samplename : 	""
SampMemo(0) : 	""
SampMemo(1) : 	""
SampMemo(2) : 	""
SampMemo(3) : 	""
SampMemo(4) : 	""
SampMemo(5) : 	""
SampMemo(6) : 	""
SampMemo(7) : 	""
SampMemo(8) : 	""
SampMemo(9) : 	""
Temperature [K] :	     298.16000
Viscosity [cp]  :	       0.89000
Refractive Index:	       1.33200
Wavelength [nm] :	       0.00000
Angle [°]       :	       0.00000
Duration [s]    :	         1
FloatDur [ms]   :	          944
Stop TP [ms]   :	      3918
Runs            :	         1
Mode            :	"A-CH0+1  A-CH2+3 "
MeanCR0 [kHz]   :	     121.76408
MeanCR1 [kHz]   :	     118.83630
MeanCR2 [kHz]   :	     118.11045
MeanCR3 [kHz]   :	     113.29015

"Correlation"
  3.12500E-006	 -1.00000E+000	 -1.00000E+000	 -1.00000E+000	 -1.00000E+000
  6.25000E-006	 -1.00000E+000	 -1.00000E+000	 -1.00000E+000	 -1.00000E+000
  9.37500E-006	 -1.00000E+000	 -1.00000E+000	 -1.00000E+000	 -1.00000E+000
  1.25000E-005	 -1.00000E+000	 -1.00000E+000	 -1.00000E+000	 -1.00000E+000
  1.56250E-005	 -1.00000E+000	 -1.00000E+000	 -1.00000E+000	 -1.00000E+000
  1.87500E-005	 -1.00000E+000	 -1.00000E+000	 -1.00000E+000	 -1.00000E+000
  2.18750E-005	 -9.54260E-001	 -3.27699E-001	 -2.46484E-001	 -9.47161E-001
  2.50000E-005	  6.31845E+000	  5.89108E+000	  5.87887E+000	  1.17077E+001
  2.81250E-005	  1.90451E+000	  1.16097E+000	  1.69807E+000	  4.97079E+000
  3.12500E-005	  1.12692E+000	  1.32904E+000	  7.50102E-001	  2.69872E+000
  3.43750E-005	  9.66834E-001	  7.28773E-001	  7.01488E-001	  2.22317E+000
  3.75000E-005	  5.55171E-001	  5.12676E-001	  9.20251E-001	  2.14391E+000
  4.06250E-005	  9.66834E-001	  6.08719E-001	  6.77181E-001	  1.82688E+000
  4.37500E-005	  5.55171E-001	  8.72837E-001	  9.93172E-001	  2.30243E+000
  4.68750E-005	  7.38132E-001	  8.24816E-001	  4.34112E-001	  1.43059E+000
  5.00000E-005	  7.38132E-001	  3.20590E-001	  5.55646E-001	  1.19281E+000
  5.62500E-005	  4.52255E-001	  3.44601E-001	  5.19186E-001	  1.28528E+000
  6.25000E-005	  3.26469E-001	  5.24682E-001	  4.58418E-001	  6.51213E-001
  6.87500E-005	  7.03827E-001	  7.40778E-001	  6.40721E-001	  7.96520E-001
  7.50000E-005	  7.03827E-001	  3.32596E-001	  7.25795E-001	  9.15408E-001
  8.12500E-005	  4.75125E-001	  5.96714E-001	  7.01488E-001	  8.09730E-001
  8.75000E-005	  7.26697E-001	  6.92757E-001	  5.67800E-001	  8.88988E-001
  9.37500E-005	  4.63690E-001	  4.52649E-001	  6.89335E-001	  7.70101E-001
  1.00000E-004	  4.00797E-001	  5.06673E-001	  6.28567E-001	  7.56891E-001
  1.12500E-004	  5.72323E-001	  4.52649E-001	  3.67267E-001	  8.88988E-001
  1.25000E-004	  5.43735E-001	  5.36687E-001	  5.49569E-001	  6.51213E-001
  1.37500E-004	  5.09430E-001	  5.66700E-001	  5.19186E-001	  4.72882E-001
  1.50000E-004	  5.20865E-001	  7.04762E-001	  6.95411E-001	  4.92697E-001
  1.62500E-004	  5.20865E-001	  6.08719E-001	  5.00956E-001	  6.18189E-001
  1.75000E-004	  5.55171E-001	  4.46647E-001	  4.88802E-001	  4.72882E-001
  1.87500E-004	  5.03713E-001	  6.32730E-001	  7.37948E-001	  5.38931E-001
  2.00000E-004	  4.69407E-001	  5.42689E-001	  5.10070E-001	  5.35628E-001
  2.25000E-004	  5.15147E-001	  4.67656E-001	  4.85763E-001	  5.62047E-001
  2.50000E-004	  5.80899E-001	  4.07629E-001	  6.13375E-001	  5.71955E-001
  2.75000E-004	  4.66548E-001	  4.64654E-001	  5.00955E-001	  4.03531E-001
  3.00000E-004	  6.03769E-001	  4.97669E-001	  3.58152E-001	  4.13438E-001
  3.25000E-004	  5.26582E-001	  4.91666E-001	  4.67533E-001	  4.16741E-001
  3.50000E-004	  3.69350E-001	  5.60697E-001	  4.97917E-001	  4.03531E-001
  3.75000E-004	  5.43735E-001	  5.57696E-001	  3.91574E-001	  5.71955E-001
  4.00000E-004	  5.65175E-001	  5.08173E-001	  4.38668E-001	  6.46259E-001
  4.50000E-004	  5.73752E-001	  5.21679E-001	  4.05246E-001	  4.64625E-001
  5.00000E-004	  4.93706E-001	  5.90710E-001	  5.32857E-001	  5.00952E-001
  5.50000E-004	  5.79469E-001	  4.49647E-001	  5.93625E-001	  4.82789E-001
  6.00000E-004	  4.45107E-001	  4.46646E-001	  5.08550E-001	  4.58020E-001
  6.50000E-004	  5.66605E-001	  5.09674E-001	  4.70571E-001	  5.15813E-001
  7.00000E-004	  4.92277E-001	  4.31639E-001	  4.03727E-001	  3.90321E-001
  7.50000E-004	  4.86559E-001	  4.69156E-001	  4.72090E-001	  4.94347E-001
  8.00000E-004	  5.31583E-001	  5.75716E-001	  4.78166E-001	  5.05079E-001
  9.00000E-004	  5.18004E-001	  4.34652E-001	  5.22981E-001	  4.93520E-001
  1.00000E-003	  5.31583E-001	  4.78922E-001	  4.62214E-001	  4.48938E-001
  1.10000E-003	  4.28668E-001	  4.87176E-001	  4.91838E-001	  4.85264E-001
  1.20000E-003	  4.62258E-001	  4.68404E-001	  4.83483E-001	  4.35728E-001
  1.30000E-003	  5.11572E-001	  4.43643E-001	  4.60695E-001	  4.98474E-001
  1.40000E-003	  5.25866E-001	  5.08922E-001	  4.77406E-001	  4.73706E-001
  1.50000E-003	  5.08713E-001	  4.54148E-001	  4.72848E-001	  4.76182E-001
  1.60000E-003	  5.21932E-001	  4.83797E-001	  5.10825E-001	  5.33559E-001
  1.80000E-003	  5.22290E-001	  4.81921E-001	  4.94114E-001	  4.97233E-001
  2.00000E-003	  5.26935E-001	  4.90550E-001	  4.77024E-001	  4.67924E-001
  2.20000E-003	  5.14786E-001	  5.01805E-001	  4.91076E-001	  4.60081E-001
  2.40000E-003	  4.81552E-001	  5.01805E-001	  4.81961E-001	  4.23341E-001
  2.60000E-003	  4.70832E-001	  5.63722E-001	  4.91456E-001	  4.80721E-001
  2.80000E-003	  4.75835E-001	  4.80420E-001	  4.67529E-001	  4.88977E-001
  3.00000E-003	  4.99777E-001	  4.71416E-001	  5.32094E-001	  5.08791E-001
  3.20000E-003	  4.76200E-001	  4.30906E-001	  5.22594E-001	  5.05484E-001
  3.60000E-003	  5.15151E-001	  4.75363E-001	  4.73790E-001	  4.91449E-001
  4.00000E-003	  5.09969E-001	  4.88119E-001	  4.72651E-001	  4.80716E-001
  4.40000E-003	  5.11399E-001	  4.74426E-001	  4.88033E-001	  4.63172E-001
  4.80000E-003	  4.78344E-001	  4.98437E-001	  4.58599E-001	  4.89797E-001
  5.20000E-003	  4.94961E-001	  5.13443E-001	  4.92780E-001	  4.73492E-001
  5.60000E-003	  4.77272E-001	  4.79303E-001	  4.88412E-001	  4.73492E-001
  6.00000E-003	  4.79416E-001	  5.19620E-001	  4.79677E-001	  4.55535E-001
  6.40000E-003	  4.76229E-001	  4.88980E-001	  4.84984E-001	  4.50482E-001
  7.20000E-003	  5.09820E-001	  4.77725E-001	  4.84130E-001	  4.59357E-001
  8.00000E-003	  4.47628E-001	  4.96296E-001	  4.66564E-001	  4.59563E-001
  8.80000E-003	  4.86132E-001	  4.77912E-001	  4.69508E-001	  4.58944E-001
  9.60000E-003	  4.78628E-001	  4.72097E-001	  4.71786E-001	  4.88769E-001
  1.04000E-002	  4.96495E-001	  4.85322E-001	  4.71027E-001	  4.47386E-001
  1.12000E-002	  4.82827E-001	  4.62342E-001	  4.89162E-001	  4.90730E-001
  1.20000E-002	  4.70677E-001	  4.75567E-001	  4.74350E-001	  4.71122E-001
  1.28000E-002	  4.80504E-001	  4.57357E-001	  4.60304E-001	  4.61081E-001
  1.44000E-002	  4.68283E-001	  4.67286E-001	  4.59497E-001	  4.55508E-001
  1.60000E-002	  4.71410E-001	  4.76712E-001	  4.70084E-001	  4.49072E-001
  1.76000E-002	  4.79719E-001	  4.73041E-001	  4.55937E-001	  4.53909E-001
  1.92000E-002	  4.60243E-001	  4.68398E-001	  4.43498E-001	  4.53444E-001
  2.08000E-002	  4.57371E-001	  4.57940E-001	  4.56791E-001	  4.54476E-001
  2.24000E-002	  4.60721E-001	  4.69665E-001	  4.53610E-001	  4.51793E-001
  2.40000E-002	  4.41603E-001	  4.43027E-001	  4.52851E-001	  4.37138E-001
  2.56000E-002	  4.40436E-001	  4.43148E-001	  4.53399E-001	  4.35982E-001
  2.88000E-002	  4.40212E-001	  4.48529E-001	  4.40699E-001	  4.21777E-001
  3.20000E-002	  4.42500E-001	  4.41036E-001	  4.34385E-001	  4.23390E-001
  3.52000E-002	  4.23146E-001	  4.26403E-001	  4.21295E-001	  4.12089E-001
  3.84000E-002	  4.28350E-001	  4.30379E-001	  4.18386E-001	  4.15107E-001
  4.16000E-002	  4.13852E-001	  4.14210E-001	  3.99728E-001	  3.86106E-001
  4.48000E-002	  4.06057E-001	  4.04138E-001	  3.98826E-001	  3.83513E-001
  4.80000E-002	  3.97647E-001	  3.92484E-001	  3.77914E-001	  3.88390E-001
  5.12000E-002	  3.88798E-001	  3.99840E-001	  3.83831E-001	  3.80768E-001
  5.76000E-002	  3.77417E-001	  3.75640E-001	  3.76887E-001	  3.67827E-001
  6.40000E-002	  3.60754E-001	  3.70973E-001	  3.58702E-001	  3.48810E-001
  7.04000E-002	  3.56320E-001	  3.55613E-001	  3.47271E-001	  3.33677E-001
  7.68000E-002	  3.40729E-001	  3.44310E-001	  3.34724E-001	  3.28103E-001
  8.32000E-002	  3.20180E-001	  3.25314E-001	  3.23673E-001	  3.04262E-001
  8.96000E-002	  3.16851E-001	  3.12616E-001	  3.12669E-001	  3.10467E-001
  9.60000E-002	  2.97777E-001	  3.05124E-001	  3.03565E-001	  2.86291E-001
  1.02400E-001	  2.90284E-001	  2.92783E-001	  2.94456E-001	  2.78341E-001
  1.15200E-001	  2.67539E-001	  2.72044E-001	  2.69651E-001	  2.58702E-001
  1.28000E-001	  2.49474E-001	  2.52849E-001	  2.53424E-001	  2.39428E-001
  1.40800E-001	  2.35123E-001	  2.36441E-001	  2.34428E-001	  2.22808E-001
  1.53600E-001	  2.12524E-001	  2.19718E-001	  2.21394E-001	  2.09854E-001
  1.66400E-001	  2.00468E-001	  2.13563E-001	  2.05732E-001	  1.92364E-001
  1.79200E-001	  1.89969E-001	  1.97777E-001	  1.92036E-001	  1.81442E-001
  1.92000E-001	  1.78970E-001	  1.87570E-001	  1.81348E-001	  1.67648E-001
  2.04800E-001	  1.68038E-001	  1.77308E-001	  1.75403E-001	  1.54676E-001
  2.30400E-001	  1.44749E-001	  1.59605E-001	  1.58772E-001	  1.38685E-001
  2.56000E-001	  1.27366E-001	  1.37762E-001	  1.45437E-001	  1.24373E-001
  2.81600E-001	  1.15369E-001	  1.22726E-001	  1.32292E-001	  1.11615E-001
  3.07200E-001	  1.00800E-001	  1.12130E-001	  1.21730E-001	  1.02824E-001
  3.32800E-001	  8.89223E-002	  1.04517E-001	  1.16338E-001	  9.69411E-002
  3.58400E-001	  8.76383E-002	  9.12981E-002	  1.01496E-001	  8.83143E-002
  3.84000E-001	  7.96997E-002	  8.44388E-002	  9.07652E-002	  7.85288E-002
  4.09600E-001	  7.05057E-002	  7.86729E-002	  8.41523E-002	  7.81573E-002
  4.60800E-001	  5.91159E-002	  6.12326E-002	  7.09258E-002	  6.67134E-002
  5.12000E-001	  5.35523E-002	  5.21241E-002	  6.18183E-002	  5.81478E-002
  5.63200E-001	  4.94273E-002	  4.32513E-002	  5.49627E-002	  4.96200E-002
  6.14400E-001	  4.32068E-002	  3.49495E-002	  4.43813E-002	  4.15741E-002
  6.65600E-001	  3.76570E-002	  3.51673E-002	  3.48373E-002	  3.84815E-002
  7.16800E-001	  3.45271E-002	  2.83551E-002	  2.58665E-002	  3.67264E-002
  7.68000E-001	  2.86248E-002	  2.69963E-002	  2.06545E-002	  2.86703E-002
  8.19200E-001	  2.36123E-002	  2.28733E-002	  1.93700E-002	  2.20330E-002
  9.21600E-001	  1.51672E-002	  1.34608E-002	  1.19743E-002	  1.79365E-002
  1.02400E+000	  1.05896E-002	  8.94746E-003	  8.12142E-003	  1.11346E-002
  1.12640E+000	  9.24042E-003	  7.22364E-003	  7.73744E-003	  9.35222E-003
  1.22880E+000	  9.22907E-003	  6.42962E-003	  9.37509E-003	  3.68885E-003
  1.33120E+000	  6.68157E-003	  8.02577E-003	  1.39422E-002	 -1.46347E-004
  1.43360E+000	  4.24167E-004	  4.70430E-003	  1.51656E-002	  2.67808E-003
  1.53600E+000	  1.30279E-003	  1.55404E-003	  1.02601E-002	 -1.74323E-003
  1.63840E+000	 -2.06182E-003	  2.49538E-003	  5.72439E-003	  1.09665E-003
  1.84320E+000	 -3.09430E-003	 -7.92820E-003	 -4.96208E-003	  2.78071E-003
  2.04800E+000	 -6.54850E-003	 -4.29638E-003	 -9.63769E-003	 -3.66455E-003
  2.25280E+000	 -2.59700E-003	 -1.24556E-003	 -7.13845E-003	  2.24482E-003
  2.45760E+000	 -3.13489E-003	 -3.15005E-003	 -7.84472E-003	  8.33726E-003
  2.66240E+000	  2.20904E-003	 -2.35022E-003	 -5.80197E-003	  6.00093E-003
  2.86720E+000	  2.20207E-003	 -7.10367E-004	 -1.09961E-002	  4.92282E-003
  3.07200E+000	  1.15612E-002	  1.27493E-003	 -5.88808E-003	  4.51217E-003
  3.27680E+000	  6.21763E-003	  7.48236E-003	 -7.76845E-003	  1.46415E-003
  3.68640E+000	  2.24739E-003	  3.92169E-003	 -1.27264E-002	 -2.89461E-003
  4.09600E+000	 -5.06116E-003	 -7.80782E-004	 -2.53150E-003	 -4.25701E-003
  4.50560E+000	  1.89042E-003	  8.58776E-003	  4.57808E-003	  6.87380E-003
  4.91520E+000	  3.12468E-004	  7.40632E-003	  1.94044E-003	  5.27381E-003
  5.32480E+000	 -2.03378E-003	  7.03405E-003	 -4.66723E-003	 -2.09458E-003
  5.73440E+000	 -2.98676E-003	 -5.77701E-003	 -5.92844E-003	 -1.09379E-002
  6.14400E+000	 -2.42296E-003	 -1.10571E-002	  1.77996E-003	 -3.47347E-003
  6.55360E+000	  6.49974E-003	 -1.00577E-002	 -1.39468E-003	 -2.59575E-003
  7.37280E+000	  6.38029E-003	 -1.62272E-005	 -4.58170E-003	  6.24627E-003
  8.19200E+000	 -4.06539E-003	  3.11326E-003	  3.16444E-003	  1.42565E-002
  9.01120E+000	 -1.23977E-002	  2.57862E-003	 -2.68887E-003	  6.52745E-003
  9.83040E+000	  5.09572E-004	  7.44409E-004	 -1.08287E-002	  1.03080E-002
  1.06496E+001	  3.85348E-003	  2.33755E-003	 -7.89923E-003	  1.28777E-003
  1.14688E+001	 -1.24599E-002	  7.23273E-003	  4.80319E-004	  2.39769E-003
  1.22880E+001	 -1.35559E-002	  7.79907E-003	 -7.81127E-003	  1.02069E-002
  1.31072E+001	 -2.84955E-004	  5.29556E-003	 -6.88335E-003	  5.85872E-003
  1.47456E+001	  4.94036E-004	 -1.14612E-002	  1.81553E-003	 -1.81949E-004
  1.63840E+001	 -5.49831E-003	  2.07398E-003	 -7.29178E-003	  3.11725E-003
  1.80224E+001	 -3.72602E-003	 -1.15036E-004	 -9.34124E-003	  7.86536E-004
  1.96608E+001	 -2.44211E-004	 -2.27586E-003	  3.29754E-003	  5.31732E-003
  2.12992E+001	  8.05730E-003	 -5.53089E-005	 -8.02381E-004	  3.80603E-003
  2.29376E+001	  1.49425E-003	  1.37181E-003	  2.81561E-004	 -6.88472E-003
  2.45760E+001	  2.46177E-003	  1.42011E-003	 -2.80540E-003	 -1.18218E-002
  2.62144E+001	 -3.06789E-003	  5.03944E-003	  7.85161E-004	 -5.25277E-003
  2.94912E+001	  5.41894E-003	  7.27764E-004	  5.24078E-003	 -8.63370E-004
  3.27680E+001	 -1.69705E-003	 -1.50783E-003	 -1.33237E-003	 -2.84384E-003
  3.60448E+001	  2.86069E-003	 -5.03034E-003	  3.96501E-003	 -1.53528E-003
  3.93216E+001	  4.89129E-003	 -8.85526E-004	 -1.00686E-002	 -5.54870E-003
  4.25984E+001	  3.08127E-003	 -9.31883E-005	 -3.73585E-003	 -8.00687E-003
  4.58752E+001	  5.92427E-003	  2.18009E-003	 -3.15473E-003	  8.10673E-004
  4.91520E+001	  6.34032E-003	  1.14996E-003	  3.69861E-003	 -2.44753E-004
  5.24288E+001	  9.21103E-004	 -1.25190E-003	  3.85573E-003	 -4.39428E-003
  5.89824E+001	  1.06967E-003	  3.29775E-003	 -3.26252E-003	  6.96035E-005
  6.55360E+001	  1.18029E-003	  3.73016E-003	  6.25164E-004	  2.85967E-003
  7.20896E+001	  2.70831E-003	 -1.40800E-003	 -5.86655E-004	  2.27974E-004
  7.86432E+001	 -3.01628E-003	 -2.52320E-003	 -5.21424E-003	  8.37602E-003
  8.51968E+001	  2.20777E-004	 -1.39480E-003	 -2.29794E-004	  5.74369E-004
  9.17504E+001	  4.51221E-003	  1.35385E-003	  1.52639E-003	 -1.33904E-003
  9.83040E+001	 -4.61631E-003	  3.02785E-003	  5.25806E-004	  1.28104E-003
  1.04858E+002	  3.59863E-003	  1.99676E-003	 -5.93297E-004	 -4.72260E-003
  1.17965E+002	 -3.41455E-003	 -4.04318E-004	  4.15060E-003	 -6.24135E-003
  1.31072E+002	  4.31988E-003	  7.48298E-004	 -4.44610E-003	 -4.22268E-003
  1.44179E+002	 -5.93610E-003	 -1.77273E-003	  1.38700E-003	 -1.19352E-003
  1.57286E+002	  2.81828E-003	 -1.18088E-003	 -1.35383E-003	  1.72237E-003
  1.70394E+002	 -4.09551E-003	  2.56386E-003	 -1.30265E-003	  7.06968E-003
  1.83501E+002	 -2.74309E-003	 -2.06123E-003	 -1.56397E-003	  1.99338E-003
  1.96608E+002	  9.32941E-004	 -2.28948E-003	 -1.19634E-003	 -1.53495E-003
  2.09715E+002	 -1.59788E-004	 -6.71485E-004	  1.57559E-003	 -2.79971E-003
  2.35930E+002	 -2.11391E-003	 -2.49658E-003	  1.15368E-003	  5.53295E-003
  2.62144E+002	 -2.14559E-003	 -8.40954E-004	  1.76833E-003	 -2.31363E-003
  2.88358E+002	 -1.79016E-003	  1.73572E-004	 -7.11792E-004	 -1.73150E-003
  3.14573E+002	 -2.82833E-003	 -7.95253E-004	  1.35135E-004	  2.43570E-003
  3.40787E+002	  4.75735E-004	  5.27862E-004	 -4.67567E-004	  2.25219E-003
  3.67002E+002	  6.44778E-004	  5.84484E-004	  1.63803E-004	 -2.91009E-003
  3.93216E+002	  2.82927E-004	  6.78545E-004	 -1.35118E-003	  1.82098E-004

"Count Rate"
       0.01311	     107.65076	     131.53076	     135.34546	      94.22302
       0.02621	     132.59888	     108.26111	     130.53894	     111.99951
       0.03932	     131.68335	      93.46008	      94.90967	     124.74060
       0.05243	     124.13025	     121.68884	     131.83594	     120.31555
       0.06554	     123.59619	     120.08667	     125.57983	     120.31555
       0.07864	     104.75159	     111.08398	     120.16296	     110.24475
       0.09175	     135.34546	     138.47351	     117.87415	     108.18481
       0.10486	     130.15747	     115.12756	     149.53613	     124.35913
       0.11796	     113.98315	     121.76514	     106.96411	     114.74609
       0.13107	     118.56079	     135.34546	     104.44641	      94.68079
       0.14418	     117.34009	     128.25012	     111.54175	      99.18213
       0.15729	     110.70251	     143.20374	     114.82239	     129.31824
       0.17039	     108.87146	     113.37280	     107.80334	     129.24194
       0.18350	     118.25562	     109.02405	     125.19836	     133.28552
       0.19661	      96.05408	      95.13855	     100.70801	      98.72437
       0.20972	     138.77869	     123.44360	     114.97498	     109.93958
       0.22282	     107.42188	     147.62878	     103.83606	     113.67798
       0.23593	      93.07861	     121.23108	     114.44092	     109.78699
       0.24904	     132.75146	     102.92053	     125.57983	     117.26379
       0.26214	     118.86597	     116.04309	     106.04858	     104.37012
       0.27525	     112.53357	     113.52539	     119.32373	     112.76245
       0.28836	     104.44641	     108.26111	      95.44373	     113.29651
       0.30147	     143.05115	     113.98315	     134.50623	     108.26111
       0.31457	     128.17383	     115.73792	     104.29382	      90.78979
       0.32768	      92.92603	     129.85229	     130.99670	     131.91223
       0.34079	     174.25537	     118.40820	     113.29651	     107.72705
       0.35389	     103.14941	     123.13843	     136.03210	     137.10022
       0.36700	     138.16833	     138.85498	     123.51990	     115.43274
       0.38011	     110.70251	     114.51721	     117.11121	     107.34558
       0.39322	     105.81970	     148.23914	     132.67517	      87.89063
       0.40632	     155.33447	     106.65894	      93.61267	     110.70251
       0.41943	     122.75696	     127.63977	     117.03491	     121.84143
       0.43254	     108.64258	     101.69983	      95.90149	     115.96680
       0.44564	     148.84949	     131.30188	     136.03210	     112.60986
       0.45875	     122.60437	      90.40833	     137.02393	     124.66431
       0.47186	     135.19287	      90.86609	     103.98865	     110.39734
       0.48497	     107.95593	     115.28015	     114.66980	      90.10315
       0.49807	     119.32373	     127.71606	      96.51184	     129.31824
       0.51118	     101.92871	     116.19568	     145.03479	     142.51709
       0.52429	     124.13025	     100.86060	      82.09229	     124.89319
       0.53740	     137.17651	      87.81433	     100.55542	      99.25842
       0.55050	     124.66431	     139.69421	     115.12756	      94.07043
       0.56361	     103.53088	      89.64539	     155.18188	      85.67810
       0.57672	     131.53076	     116.04309	     113.83057	     119.24744
       0.58982	      95.67261	     108.10852	     124.35913	     115.58533
       0.60293	     109.32922	     121.53625	     111.84692	      99.41101
       0.61604	     101.92871	     120.08667	     130.84412	      76.52283
       0.62915	     119.78149	     101.54724	     115.73792	     101.47095
       0.64225	     122.68066	     109.48181	     108.87146	     114.51721
       0.65536	      96.89331	     107.49817	     114.36462	     133.97217
       0.66847	     103.07312	     113.29651	     123.82507	     132.98035
       0.68157	     121.84143	     120.54443	     110.85510	     131.07300
       0.69468	     106.96411	     122.37549	     115.89050	     107.34558
       0.70779	     105.51453	     108.71887	     116.57715	     117.11121
       0.72090	      94.52820	     162.73499	     109.10034	     108.94775
       0.73400	     119.70520	      93.46008	     125.73242	     110.32104
       0.74711	     116.34827	     108.48999	     109.93958	     129.31824
