ALV-7004/USB-FAST
Date :	"3/14/2024"
Time :	"12:37:45 PM"
Samplename : 	""
SampMemo(0) : 	""
SampMemo(1) : 	""
SampMemo(2) : 	""
SampMemo(3) : 	""
SampMemo(4) : 	""
SampMemo(5) : 	""
SampMemo(6) : 	""
SampMemo(7) : 	""
SampMemo(8) : 	""
SampMemo(9) : 	""
Temperature [K] :	     298.16000
Viscosity [cp]  :	       0.89000
Refractive Index:	       1.33200
Wavelength [nm] :	       0.00000
Angle [°]       :	       0.00000
Duration [s]    :	         1
FloatDur [ms]   :	          944
Stop TP [ms]   :	      4088
Runs            :	         1
Mode            :	"A-CH0+1  A-CH2+3 "
MeanCR0 [kHz]   :	     140.27595
MeanCR1 [kHz]   :	     139.68467
MeanCR2 [kHz]   :	     134.02409
MeanCR3 [kHz]   :	     138.57736

"Correlation"
  3.12500E-006	 -1.00000E+000	 -1.00000E+000	 -1.00000E+000	 -1.00000E+000
  6.25000E-006	 -1.00000E+000	 -1.00000E+000	 -1.00000E+000	 -1.00000E+000
  9.37500E-006	 -1.00000E+000	 -1.00000E+000	 -1.00000E+000	 -1.00000E+000
  1.25000E-005	 -1.00000E+000	 -1.00000E+000	 -1.00000E+000	 -1.00000E+000
  1.56250E-005	 -1.00000E+000	 -1.00000E+000	 -1.00000E+000	 -1.00000E+000
  1.87500E-005	 -1.00000E+000	 -1.00000E+000	 -1.00000E+000	 -1.00000E+000
  2.18750E-005	 -9.31071E-001	 -4.43891E-001	 -3.39292E-001	 -9.47028E-001
  2.50000E-005	  5.80672E+000	  5.44739E+000	  5.66372E+000	  9.52372E+000
  2.81250E-005	  1.70546E+000	  9.98517E-001	  1.18978E+000	  3.87340E+000
  3.12500E-005	  9.12776E-001	  9.46382E-001	  8.68861E-001	  2.19596E+000
  3.43750E-005	  1.05063E+000	  4.77165E-001	  8.31106E-001	  1.66624E+000
  3.75000E-005	  8.43847E-001	  7.03084E-001	  5.29068E-001	  1.84282E+000
  4.06250E-005	  5.50899E-001	  8.24733E-001	  5.47945E-001	  1.26013E+000
  4.37500E-005	  9.30008E-001	  3.72894E-001	  6.42332E-001	  1.33076E+000
  4.68750E-005	  6.02596E-001	  7.37841E-001	  3.59172E-001	  1.54264E+000
  5.00000E-005	  7.49070E-001	  5.98813E-001	  5.47945E-001	  1.43670E+000
  5.62500E-005	  6.11212E-001	  7.11773E-001	  3.87488E-001	  1.11004E+000
  6.25000E-005	  6.02596E-001	  5.03232E-001	  6.51771E-001	  6.06809E-001
  6.87500E-005	  5.93980E-001	  6.59638E-001	  3.59172E-001	  8.89325E-001
  7.50000E-005	  5.59515E-001	  4.33719E-001	  5.19629E-001	  8.62839E-001
  8.12500E-005	  4.13041E-001	  6.85706E-001	  5.66823E-001	  8.54011E-001
  8.75000E-005	  6.19828E-001	  4.94543E-001	  3.02539E-001	  6.06809E-001
  9.37500E-005	  4.81970E-001	  3.90273E-001	  4.25242E-001	  6.42124E-001
  1.00000E-004	  5.46591E-001	  4.46752E-001	  4.96032E-001	  6.64195E-001
  1.12500E-004	  4.73354E-001	  5.90124E-001	  5.52665E-001	  5.67080E-001
  1.25000E-004	  4.21657E-001	  5.42333E-001	  4.67716E-001	  5.31766E-001
  1.37500E-004	  5.46591E-001	  5.64057E-001	  5.38507E-001	  5.58252E-001
  1.50000E-004	  4.69046E-001	  6.11847E-001	  3.92207E-001	  5.09694E-001
  1.62500E-004	  5.68131E-001	  5.11921E-001	  5.43226E-001	  4.30237E-001
  1.75000E-004	  5.46591E-001	  4.46752E-001	  3.59171E-001	  4.65551E-001
  1.87500E-004	  3.74269E-001	  4.59786E-001	  5.85700E-001	  5.36180E-001
  2.00000E-004	  4.60430E-001	  4.90198E-001	  5.36147E-001	  5.11901E-001
  2.25000E-004	  5.68131E-001	  4.64130E-001	  4.88953E-001	  4.41272E-001
  2.50000E-004	  4.66892E-001	  4.72820E-001	  4.41760E-001	  4.85415E-001
  2.75000E-004	  6.13365E-001	  4.29374E-001	  4.70076E-001	  4.21408E-001
  3.00000E-004	  5.29358E-001	  4.90198E-001	  5.55024E-001	  4.50101E-001
  3.25000E-004	  5.09972E-001	  5.11921E-001	  5.14909E-001	  3.77265E-001
  3.50000E-004	  5.63823E-001	  4.48924E-001	  4.48839E-001	  5.07487E-001
  3.75000E-004	  4.51813E-001	  5.90124E-001	  4.60637E-001	  5.03073E-001
  4.00000E-004	  4.51813E-001	  5.23868E-001	  4.85413E-001	  5.30661E-001
  4.50000E-004	  5.49821E-001	  5.11920E-001	  4.55917E-001	  4.69965E-001
  5.00000E-004	  6.29520E-001	  5.01059E-001	  6.18734E-001	  5.27351E-001
  5.50000E-004	  4.80892E-001	  5.17351E-001	  4.99571E-001	  4.78793E-001
  6.00000E-004	  5.03509E-001	  4.34804E-001	  5.11369E-001	  5.36179E-001
  6.50000E-004	  5.00278E-001	  4.74991E-001	  4.16982E-001	  4.47893E-001
  7.00000E-004	  4.87354E-001	  5.24954E-001	  4.44119E-001	  5.29558E-001
  7.50000E-004	  5.02432E-001	  4.69560E-001	  5.09010E-001	  5.16315E-001
  8.00000E-004	  5.40127E-001	  5.15721E-001	  5.29066E-001	  5.05278E-001
  9.00000E-004	  5.14278E-001	  5.22781E-001	  4.44707E-001	  4.38511E-001
  1.00000E-003	  5.15894E-001	  4.91825E-001	  4.72433E-001	  5.48317E-001
  1.10000E-003	  4.99739E-001	  4.50009E-001	  4.73613E-001	  5.11899E-001
  1.20000E-003	  4.71198E-001	  4.24484E-001	  5.04289E-001	  5.19624E-001
  1.30000E-003	  4.62582E-001	  4.50009E-001	  4.69484E-001	  4.46788E-001
  1.40000E-003	  5.21279E-001	  4.86938E-001	  4.79512E-001	  4.15888E-001
  1.50000E-003	  4.76583E-001	  4.71732E-001	  5.24346E-001	  4.81551E-001
  1.60000E-003	  4.65003E-001	  4.70100E-001	  4.85999E-001	  4.76858E-001
  1.80000E-003	  5.42278E-001	  4.88564E-001	  4.70071E-001	  4.81273E-001
  2.00000E-003	  5.00813E-001	  4.76617E-001	  5.00747E-001	  4.78514E-001
  2.20000E-003	  5.07006E-001	  4.89922E-001	  4.93963E-001	  4.87066E-001
  2.40000E-003	  4.98121E-001	  4.71458E-001	  4.75097E-001	  4.32439E-001
  2.60000E-003	  4.81427E-001	  5.04042E-001	  4.47666E-001	  4.69409E-001
  2.80000E-003	  4.87620E-001	  4.51364E-001	  5.04003E-001	  5.19070E-001
  3.00000E-003	  4.98390E-001	  4.96439E-001	  4.62709E-001	  4.80445E-001
  3.20000E-003	  4.72144E-001	  4.91829E-001	  4.92052E-001	  4.82371E-001
  3.60000E-003	  5.10378E-001	  4.82201E-001	  4.77452E-001	  4.65128E-001
  4.00000E-003	  4.80895E-001	  4.82336E-001	  4.77894E-001	  4.91751E-001
  4.40000E-003	  5.07281E-001	  4.58441E-001	  4.74945E-001	  4.59058E-001
  4.80000E-003	  5.04723E-001	  4.63872E-001	  4.65359E-001	  4.48850E-001
  5.20000E-003	  4.61239E-001	  4.70253E-001	  4.58427E-001	  4.61817E-001
  5.60000E-003	  5.10109E-001	  4.72968E-001	  4.76272E-001	  4.54782E-001
  6.00000E-003	  4.80491E-001	  4.80300E-001	  4.86596E-001	  4.70370E-001
  6.40000E-003	  4.84059E-001	  4.61473E-001	  4.56721E-001	  4.54518E-001
  7.20000E-003	  4.80694E-001	  4.83469E-001	  4.74124E-001	  4.70037E-001
  8.00000E-003	  4.81423E-001	  4.68669E-001	  4.74714E-001	  4.65968E-001
  8.80000E-003	  4.82635E-001	  4.58272E-001	  4.73607E-001	  4.24101E-001
  9.60000E-003	  4.74422E-001	  4.53248E-001	  4.67413E-001	  4.44172E-001
  1.04000E-002	  4.70855E-001	  4.55703E-001	  4.72723E-001	  4.58174E-001
  1.12000E-002	  4.56315E-001	  4.55499E-001	  4.60113E-001	  4.27343E-001
  1.20000E-002	  4.71124E-001	  4.53531E-001	  4.51707E-001	  4.50794E-001
  1.28000E-002	  4.66279E-001	  4.51360E-001	  4.57697E-001	  4.47440E-001
  1.44000E-002	  4.58269E-001	  4.58013E-001	  4.49291E-001	  4.41474E-001
  1.60000E-002	  4.77117E-001	  4.43191E-001	  4.50212E-001	  4.33242E-001
  1.76000E-002	  4.50090E-001	  4.29817E-001	  4.43956E-001	  4.31863E-001
  1.92000E-002	  4.43572E-001	  4.29094E-001	  4.21245E-001	  4.16919E-001
  2.08000E-002	  4.44772E-001	  4.38734E-001	  4.41928E-001	  4.30404E-001
  2.24000E-002	  4.28920E-001	  4.34106E-001	  4.28471E-001	  4.25759E-001
  2.40000E-002	  4.30906E-001	  4.18866E-001	  4.33644E-001	  4.06019E-001
  2.56000E-002	  4.34965E-001	  4.20970E-001	  4.21265E-001	  4.05962E-001
  2.88000E-002	  4.25620E-001	  4.07827E-001	  4.15359E-001	  3.93081E-001
  3.20000E-002	  4.16017E-001	  4.02830E-001	  3.93422E-001	  3.98116E-001
  3.52000E-002	  4.09992E-001	  3.93631E-001	  3.91047E-001	  3.83738E-001
  3.84000E-002	  3.97663E-001	  3.87769E-001	  3.76318E-001	  3.83577E-001
  4.16000E-002	  3.94937E-001	  3.77826E-001	  3.81000E-001	  3.68033E-001
  4.48000E-002	  3.75718E-001	  3.67646E-001	  3.63250E-001	  3.69264E-001
  4.80000E-002	  3.74867E-001	  3.72388E-001	  3.78120E-001	  3.55986E-001
  5.12000E-002	  3.66912E-001	  3.55333E-001	  3.58936E-001	  3.45737E-001
  5.76000E-002	  3.53601E-001	  3.41274E-001	  3.46529E-001	  3.30197E-001
  6.40000E-002	  3.43435E-001	  3.30762E-001	  3.25248E-001	  3.17593E-001
  7.04000E-002	  3.24443E-001	  3.16589E-001	  3.17958E-001	  3.04780E-001
  7.68000E-002	  3.12090E-001	  3.02668E-001	  3.00648E-001	  2.99313E-001
  8.32000E-002	  3.08375E-001	  2.99157E-001	  2.96233E-001	  2.78843E-001
  8.96000E-002	  2.94422E-001	  2.82115E-001	  2.82720E-001	  2.71584E-001
  9.60000E-002	  2.84352E-001	  2.78913E-001	  2.70340E-001	  2.55220E-001
  1.02400E-001	  2.73245E-001	  2.69961E-001	  2.60773E-001	  2.46974E-001
  1.15200E-001	  2.49779E-001	  2.42871E-001	  2.40088E-001	  2.32109E-001
  1.28000E-001	  2.36104E-001	  2.31951E-001	  2.24390E-001	  2.09978E-001
  1.40800E-001	  2.18149E-001	  2.13786E-001	  2.05537E-001	  1.92676E-001
  1.53600E-001	  2.08666E-001	  1.94174E-001	  1.98748E-001	  1.74265E-001
  1.66400E-001	  1.89551E-001	  1.82121E-001	  1.82379E-001	  1.64011E-001
  1.79200E-001	  1.79504E-001	  1.67182E-001	  1.72778E-001	  1.57664E-001
  1.92000E-001	  1.70645E-001	  1.59381E-001	  1.57538E-001	  1.44850E-001
  2.04800E-001	  1.59247E-001	  1.49730E-001	  1.49289E-001	  1.37326E-001
  2.30400E-001	  1.39321E-001	  1.34592E-001	  1.36648E-001	  1.23866E-001
  2.56000E-001	  1.24080E-001	  1.22797E-001	  1.25550E-001	  1.09925E-001
  2.81600E-001	  1.08336E-001	  1.12699E-001	  1.13873E-001	  9.14807E-002
  3.07200E-001	  9.89166E-002	  1.01553E-001	  1.03325E-001	  8.76968E-002
  3.32800E-001	  9.02017E-002	  9.30506E-002	  1.02447E-001	  8.20119E-002
  3.58400E-001	  8.38303E-002	  8.74196E-002	  9.53680E-002	  7.45971E-002
  3.84000E-001	  7.40238E-002	  8.32302E-002	  9.23951E-002	  6.11798E-002
  4.09600E-001	  6.54780E-002	  7.50983E-002	  8.46239E-002	  5.53437E-002
  4.60800E-001	  5.08930E-002	  6.12872E-002	  6.83385E-002	  4.51151E-002
  5.12000E-001	  4.41177E-002	  5.35622E-002	  6.21953E-002	  3.59275E-002
  5.63200E-001	  3.77559E-002	  4.41254E-002	  5.34341E-002	  2.75842E-002
  6.14400E-001	  3.32297E-002	  3.69090E-002	  4.81083E-002	  2.63659E-002
  6.65600E-001	  3.08570E-002	  3.61609E-002	  4.55063E-002	  2.53781E-002
  7.16800E-001	  3.03742E-002	  3.19240E-002	  3.71996E-002	  1.85785E-002
  7.68000E-001	  2.55012E-002	  2.79666E-002	  3.35270E-002	  1.68974E-002
  8.19200E-001	  2.14363E-002	  2.28053E-002	  2.49249E-002	  1.63186E-002
  9.21600E-001	  1.54426E-002	  1.60777E-002	  1.76672E-002	  1.65721E-002
  1.02400E+000	  1.60017E-002	  1.08463E-002	  1.05753E-002	  1.66967E-002
  1.12640E+000	  1.43193E-002	  3.45766E-003	  8.55503E-003	  1.67994E-002
  1.22880E+000	  1.62176E-002	  1.15410E-003	  2.04572E-003	  1.85134E-002
  1.33120E+000	  1.67491E-002	  1.55839E-003	 -1.94771E-003	  2.20380E-002
  1.43360E+000	  2.00817E-002	 -1.17324E-003	  2.16128E-003	  2.30853E-002
  1.53600E+000	  1.45985E-002	 -1.63417E-003	  5.41162E-003	  2.12224E-002
  1.63840E+000	  7.87935E-003	 -1.52033E-003	  8.44223E-003	  1.76936E-002
  1.84320E+000	  5.14153E-003	 -4.38447E-003	  5.68540E-003	  1.80643E-002
  2.04800E+000	  5.48845E-003	 -1.32556E-003	  4.50740E-003	  1.69153E-002
  2.25280E+000	  8.25046E-003	 -6.49743E-003	  4.85274E-003	  1.88752E-002
  2.45760E+000	  1.21592E-002	  3.13322E-004	  2.85015E-003	  1.38555E-002
  2.66240E+000	  5.66334E-003	  4.99929E-004	  1.29585E-003	  1.45268E-002
  2.86720E+000	  2.71100E-003	 -5.49226E-003	 -3.41527E-003	  1.15407E-002
  3.07200E+000	  1.99562E-003	 -5.10271E-003	 -6.96669E-003	  1.10338E-002
  3.27680E+000	  4.32058E-003	 -1.40156E-003	 -9.35796E-003	  6.03565E-003
  3.68640E+000	  4.96973E-003	  1.84271E-003	 -1.28470E-002	  3.33505E-003
  4.09600E+000	  5.65719E-003	 -1.20717E-003	 -6.91407E-003	 -4.35286E-003
  4.50560E+000	  9.88897E-003	  9.11004E-003	 -7.59619E-003	  6.91563E-003
  4.91520E+000	  3.90940E-003	 -2.49431E-003	  4.46018E-003	  5.55704E-003
  5.32480E+000	  9.44628E-003	 -4.83195E-003	  6.35407E-003	  5.51232E-003
  5.73440E+000	  7.99633E-004	 -1.42301E-003	  3.79840E-003	  6.99937E-003
  6.14400E+000	 -8.60106E-003	 -4.34065E-003	  1.87705E-003	  2.65783E-003
  6.55360E+000	  1.72154E-003	  7.48680E-004	  3.54398E-003	  2.20079E-003
  7.37280E+000	  1.96108E-003	  7.69998E-004	  1.36063E-003	 -5.36325E-005
  8.19200E+000	  2.74611E-003	 -1.59442E-003	 -2.53995E-003	 -2.70008E-003
  9.01120E+000	  5.65445E-003	 -3.44474E-003	  3.66597E-004	 -9.78241E-004
  9.83040E+000	  9.15374E-003	  1.06903E-002	 -3.43261E-003	  6.13250E-003
  1.06496E+001	  5.37888E-003	  6.78903E-003	  2.21258E-003	  9.22254E-004
  1.14688E+001	 -1.11030E-003	  1.08665E-002	 -6.13375E-004	  6.83535E-006
  1.22880E+001	 -7.38457E-003	  7.79471E-003	  5.58052E-004	 -3.70447E-003
  1.31072E+001	 -9.46149E-003	 -2.06140E-003	  1.41437E-003	 -6.16062E-003
  1.47456E+001	  7.60219E-003	  1.02619E-002	  5.49787E-003	 -8.43587E-003
  1.63840E+001	  4.70489E-003	  2.82927E-003	 -2.65778E-004	 -3.94992E-003
  1.80224E+001	 -2.43820E-003	  9.32866E-004	 -7.42528E-003	 -9.80682E-003
  1.96608E+001	  2.43592E-003	  4.09891E-004	 -4.15424E-003	 -1.54722E-002
  2.12992E+001	 -5.48246E-003	  2.85541E-004	 -9.49498E-003	 -3.98957E-003
  2.29376E+001	 -1.14408E-002	  3.99126E-004	  3.09995E-003	 -5.09633E-003
  2.45760E+001	 -1.27039E-003	  2.33148E-003	 -3.06907E-003	 -7.31259E-004
  2.62144E+001	  7.17488E-003	  2.50334E-003	  2.68985E-003	 -7.64716E-004
  2.94912E+001	  3.18934E-003	  7.96162E-003	 -1.26879E-003	 -5.11690E-004
  3.27680E+001	 -4.42381E-003	 -3.75998E-003	 -5.83275E-003	  1.02904E-003
  3.60448E+001	  3.43231E-003	  4.85665E-003	  1.29687E-003	  3.49488E-003
  3.93216E+001	 -3.86140E-003	  1.52473E-003	  2.27403E-004	  3.50667E-003
  4.25984E+001	 -3.76957E-003	  3.08647E-003	  1.85220E-003	  7.13098E-003
  4.58752E+001	 -5.20540E-003	 -2.18077E-004	  8.28140E-003	  8.44171E-004
  4.91520E+001	  7.89759E-004	  1.65857E-003	  2.73960E-003	 -5.36402E-003
  5.24288E+001	 -8.69933E-004	  1.10945E-003	  1.00724E-003	  2.97860E-003
  5.89824E+001	 -5.31984E-003	  2.49915E-003	 -2.80688E-003	 -6.53068E-003
  6.55360E+001	  2.85923E-003	  1.04479E-003	 -2.76756E-003	 -5.13343E-003
  7.20896E+001	  3.77302E-003	  4.01971E-003	 -1.48905E-003	 -2.17145E-003
  7.86432E+001	  2.15539E-003	  6.03919E-004	 -1.50891E-003	  5.76458E-003
  8.51968E+001	  3.63704E-006	  6.96573E-003	 -2.31702E-003	  3.99624E-003
  9.17504E+001	 -2.61714E-003	 -1.38587E-003	  5.36934E-003	 -8.50859E-005
  9.83040E+001	 -4.07428E-003	  4.33089E-003	 -3.35841E-003	 -3.09747E-003
  1.04858E+002	 -7.03457E-004	  2.53064E-003	  2.88857E-004	 -2.77298E-003
  1.17965E+002	  1.34901E-003	 -5.86614E-004	 -2.46117E-003	 -1.13370E-003
  1.31072E+002	 -5.14514E-003	  3.34608E-003	  1.82430E-003	 -6.25557E-004
  1.44179E+002	  9.51820E-005	 -2.55448E-004	 -5.12960E-004	  7.20746E-004
  1.57286E+002	 -1.87591E-003	 -1.75507E-003	  2.31807E-003	 -3.68210E-003
  1.70394E+002	 -2.63654E-003	  3.12446E-003	 -5.07140E-003	  2.45707E-003
  1.83501E+002	 -1.77263E-003	  1.54978E-003	 -2.24855E-003	  4.53883E-003
  1.96608E+002	 -3.71412E-003	  7.97067E-005	  3.79739E-003	  2.04196E-003
  2.09715E+002	 -1.74293E-003	  7.13761E-004	  6.35014E-004	 -1.04358E-003
  2.35930E+002	  6.46848E-003	  7.68897E-004	 -1.13979E-004	  5.93615E-004
  2.62144E+002	  1.42122E-003	  3.99457E-003	 -6.91175E-004	  1.26953E-003
  2.88358E+002	 -2.50626E-003	 -1.81126E-003	 -8.34520E-004	 -1.72434E-003
  3.14573E+002	  2.34389E-003	  2.15668E-003	  1.21600E-003	 -1.34705E-003
  3.40787E+002	  1.48411E-003	 -1.69229E-003	  1.91398E-003	 -4.93307E-004
  3.67002E+002	 -2.96027E-004	  1.21658E-003	  3.48621E-004	  1.76398E-003
  3.93216E+002	  1.43222E-003	  3.40712E-004	  7.73098E-004	  7.16888E-004

"Count Rate"
       0.01311	     133.20923	     116.65344	     132.44629	     121.91772
       0.02621	     126.72424	     142.28821	     139.00757	     155.41077
       0.03932	     131.45447	     171.43250	     123.74878	     102.92053
       0.05243	     122.52808	     119.32373	     127.71606	     143.96667
       0.06554	     134.12476	     124.05396	     108.18481	     117.49268
       0.07864	     149.91760	     147.01843	     146.86584	     140.45715
       0.09175	     157.54700	     137.10022	     139.46533	     118.94226
       0.10486	     134.12476	     126.34277	     124.96948	     110.16846
       0.11796	     142.82227	     119.55261	     130.46265	     139.16016
       0.13107	     175.09460	     116.50085	     182.11365	     173.41614
       0.14418	     137.93945	     146.48438	     109.17664	     129.62341
       0.15729	     139.31274	     117.03491	      99.33472	     166.54968
       0.17039	     111.46545	     121.84143	     157.39441	     142.36450
       0.18350	     138.32092	     127.48718	     118.86597	     139.00757
       0.19661	     119.62891	     126.11389	     130.76782	     132.82776
       0.20972	     139.46533	     125.04578	     104.14124	     161.36169
       0.22282	     146.48438	     113.37280	     140.76233	     116.42456
       0.23593	     156.09741	     111.84692	     108.48999	     140.68604
       0.24904	     146.02661	     156.78406	     132.98035	     142.21191
       0.26214	     125.35095	     147.55249	     129.08936	     127.86865
       0.27525	     153.42712	     121.45996	     137.02393	     143.81409
       0.28836	      98.64807	     134.12476	     109.93958	     118.63708
       0.30147	     164.10828	     125.27466	     125.73242	     134.12476
       0.31457	     116.19568	     125.04578	     125.57983	     147.24731
       0.32768	     125.57983	     132.52258	     176.16272	     150.22278
       0.34079	     125.04578	     143.96667	     112.30469	     131.75964
       0.35389	     145.18738	     132.06482	     130.46265	     153.96118
       0.36700	     114.21204	     110.09216	     141.75415	     109.71069
       0.38011	     160.75134	     121.91772	     158.69141	     118.94226
       0.39322	     121.30737	     128.93677	     131.07300	     163.04016
       0.40632	     121.23108	     108.71887	     113.98315	     168.15186
       0.41943	     156.17371	     162.04834	     134.35364	     101.01318
       0.43254	     127.86865	     125.80872	     127.79236	     130.23376
       0.44564	     119.62891	     130.99670	     132.37000	     132.06482
       0.45875	     160.75134	     140.45715	     139.16016	     116.04309
       0.47186	     134.88770	     135.42175	     119.78149	     128.47900
       0.48497	     158.76770	     124.96948	     142.97485	     134.65881
       0.49807	     175.17090	     126.41907	     104.14124	     132.90405
       0.51118	     127.94495	     133.97217	     121.76514	     129.85229
       0.52429	     131.75964	     181.42700	     115.28015	     150.90942
       0.53740	     114.44092	     140.53345	     114.66980	     150.98572
       0.55050	     139.23645	     141.52527	     140.76233	     134.73511
       0.56361	     137.86316	     149.45984	     136.10840	     133.66699
       0.57672	     147.24731	     129.47083	     146.86584	     193.55774
       0.58982	     106.27747	     132.37000	     143.89038	     133.28552
       0.60293	     128.93677	     134.35364	     131.83594	     148.62061
       0.61604	     139.84680	     147.01843	     115.35645	     117.41638
       0.62915	     123.67249	     127.86865	     133.59070	     143.28003
       0.64225	     129.16565	     176.62048	     144.34814	     133.59070
       0.65536	     110.47363	     150.14648	     121.84143	     140.91492
       0.66847	     113.83057	     126.26648	     121.61255	     150.22278
       0.68157	     125.73242	     107.11670	     139.46533	     132.52258
       0.69468	     128.55530	     134.12476	     132.67517	      99.63989
       0.70779	     168.22815	     138.47351	     163.34534	     152.13013
       0.72090	     148.54431	     151.74866	     148.31543	     155.48706
       0.73400	     193.48145	     125.50354	     151.74866	     117.79785
       0.74711	     142.21191	     160.52246	     137.40540	     158.23364
