ALV-7004/USB-FAST
Date :	"3/14/2024"
Time :	"12:33:43 PM"
Samplename : 	""
SampMemo(0) : 	""
SampMemo(1) : 	""
SampMemo(2) : 	""
SampMemo(3) : 	""
SampMemo(4) : 	""
SampMemo(5) : 	""
SampMemo(6) : 	""
SampMemo(7) : 	""
SampMemo(8) : 	""
SampMemo(9) : 	""
Temperature [K] :	     298.16000
Viscosity [cp]  :	       0.89000
Refractive Index:	       1.33200
Wavelength [nm] :	       0.00000
Angle [°]       :	       0.00000
Duration [s]    :	         1
FloatDur [ms]   :	          944
Stop TP [ms]   :	      3327
Runs            :	         1
Mode            :	"A-CH0+1  A-CH2+3 "
MeanCR0 [kHz]   :	     118.00236
MeanCR1 [kHz]   :	     120.23820
MeanCR2 [kHz]   :	     112.81226
MeanCR3 [kHz]   :	     115.21445

"Correlation"
  3.12500E-006	 -1.00000E+000	 -1.00000E+000	 -1.00000E+000	 -1.00000E+000
  6.25000E-006	 -1.00000E+000	 -1.00000E+000	 -1.00000E+000	 -1.00000E+000
  9.37500E-006	 -1.00000E+000	 -1.00000E+000	 -1.00000E+000	 -1.00000E+000
  1.25000E-005	 -1.00000E+000	 -1.00000E+000	 -1.00000E+000	 -1.00000E+000
  1.56250E-005	 -1.00000E+000	 -1.00000E+000	 -1.00000E+000	 -1.00000E+000
  1.87500E-005	 -1.00000E+000	 -1.00000E+000	 -1.00000E+000	 -1.00000E+000
  2.18750E-005	 -9.02594E-001	 -6.18277E-002	 -4.67125E-001	 -9.23367E-001
  2.50000E-005	  5.94018E+000	  6.22393E+000	  6.40696E+000	  1.11846E+001
  2.81250E-005	  1.65432E+000	  1.29852E+000	  1.69102E+000	  4.41539E+000
  3.12500E-005	  1.09423E+000	  8.76345E-001	  9.98280E-001	  2.72946E+000
  3.43750E-005	  9.48122E-001	  6.41802E-001	  8.11773E-001	  2.67838E+000
  3.75000E-005	  9.48122E-001	  6.18347E-001	  9.18348E-001	  1.88650E+000
  4.06250E-005	  1.11858E+000	  6.65256E-001	  8.11773E-001	  1.73324E+000
  4.37500E-005	  4.36740E-001	  6.41802E-001	  7.31842E-001	  1.47779E+000
  4.68750E-005	  6.80255E-001	  4.30713E-001	  7.05199E-001	  1.47779E+000
  5.00000E-005	  4.48916E-001	  5.01076E-001	  5.45336E-001	  1.35007E+000
  5.62500E-005	  3.02806E-001	  6.18347E-001	  7.45164E-001	  7.49783E-001
  6.25000E-005	  5.58497E-001	  5.47984E-001	  4.78727E-001	  7.88099E-001
  6.87500E-005	  5.46322E-001	  5.94893E-001	  5.18692E-001	  9.66909E-001
  7.50000E-005	  5.34146E-001	  6.18347E-001	  7.05198E-001	  9.03048E-001
  8.12500E-005	  3.51509E-001	  5.12803E-001	  5.98624E-001	  8.39188E-001
  8.75000E-005	  6.07200E-001	  5.01076E-001	  3.72152E-001	  6.73150E-001
  9.37500E-005	  4.36740E-001	  5.12803E-001	  8.65061E-001	  5.58201E-001
  1.00000E-004	  4.91531E-001	  5.71438E-001	  4.25439E-001	  5.19884E-001
  1.12500E-004	  4.30652E-001	  6.18347E-001	  3.65491E-001	  7.11466E-001
  1.25000E-004	  4.97618E-001	  6.59392E-001	  5.78641E-001	  5.90131E-001
  1.37500E-004	  6.07200E-001	  6.06620E-001	  7.11859E-001	  6.66764E-001
  1.50000E-004	  5.40234E-001	  6.53528E-001	  4.78727E-001	  6.02903E-001
  1.62500E-004	  6.55903E-001	  4.95212E-001	  2.98882E-001	  3.60233E-001
  1.75000E-004	  4.67179E-001	  8.29436E-001	  5.58658E-001	  3.60233E-001
  1.87500E-004	  2.96718E-001	  4.24849E-001	  4.78727E-001	  6.09289E-001
  2.00000E-004	  5.03706E-001	  4.80553E-001	  6.18606E-001	  5.55007E-001
  2.25000E-004	  5.06750E-001	  5.74370E-001	  6.45250E-001	  5.74165E-001
  2.50000E-004	  4.51959E-001	  4.62962E-001	  4.95379E-001	  4.46444E-001
  2.75000E-004	  5.25014E-001	  6.12483E-001	  4.62074E-001	  5.07112E-001
  3.00000E-004	  4.27608E-001	  5.33325E-001	  4.08787E-001	  5.64586E-001
  3.25000E-004	  5.95024E-001	  4.98143E-001	  4.92048E-001	  5.10305E-001
  3.50000E-004	  5.40233E-001	  5.18666E-001	  4.18778E-001	  4.24093E-001
  3.75000E-004	  4.42827E-001	  5.24529E-001	  4.85387E-001	  4.68795E-001
  4.00000E-004	  4.86964E-001	  5.90494E-001	  4.95378E-001	  5.07111E-001
  4.50000E-004	  4.61090E-001	  5.91960E-001	  4.42091E-001	  4.92742E-001
  5.00000E-004	  3.89558E-001	  5.58244E-001	  4.90382E-001	  4.89549E-001
  5.50000E-004	  5.14359E-001	  5.12802E-001	  4.55412E-001	  4.11320E-001
  6.00000E-004	  3.92602E-001	  4.98143E-001	  4.33764E-001	  4.27285E-001
  6.50000E-004	  4.67178E-001	  5.50915E-001	  4.97043E-001	  4.38461E-001
  7.00000E-004	  4.39783E-001	  5.89028E-001	  4.53747E-001	  4.57619E-001
  7.50000E-004	  4.64134E-001	  5.23063E-001	  4.92048E-001	  4.78374E-001
  8.00000E-004	  4.93811E-001	  4.83483E-001	  5.03703E-001	  4.99127E-001
  9.00000E-004	  5.31860E-001	  5.44317E-001	  4.91214E-001	  4.66399E-001
  1.00000E-003	  4.82397E-001	  5.47982E-001	  5.27016E-001	  4.60013E-001
  1.10000E-003	  4.59567E-001	  5.97089E-001	  5.23686E-001	  4.94338E-001
  1.20000E-003	  4.54240E-001	  5.19397E-001	  4.62072E-001	  4.14512E-001
  1.30000E-003	  4.87723E-001	  5.61908E-001	  4.54579E-001	  4.66399E-001
  1.40000E-003	  4.88484E-001	  4.89346E-001	  4.72064E-001	  4.80767E-001
  1.50000E-003	  4.81636E-001	  5.43584E-001	  4.62072E-001	  4.08924E-001
  1.60000E-003	  4.37889E-001	  5.39917E-001	  4.39173E-001	  4.57615E-001
  1.80000E-003	  4.35607E-001	  5.15730E-001	  4.55409E-001	  4.08523E-001
  2.00000E-003	  4.48924E-001	  5.21227E-001	  4.60821E-001	  4.36861E-001
  2.20000E-003	  4.54631E-001	  5.42116E-001	  4.73726E-001	  5.05112E-001
  2.40000E-003	  5.14369E-001	  5.32954E-001	  4.98288E-001	  4.49234E-001
  2.60000E-003	  4.79363E-001	  5.25258E-001	  4.60404E-001	  4.24887E-001
  2.80000E-003	  4.99910E-001	  5.72533E-001	  4.89962E-001	  4.63203E-001
  3.00000E-003	  4.78602E-001	  5.30755E-001	  4.37508E-001	  5.09502E-001
  3.20000E-003	  4.51989E-001	  5.25253E-001	  4.78509E-001	  4.65793E-001
  3.60000E-003	  4.83000E-001	  5.53851E-001	  4.77468E-001	  4.53420E-001
  4.00000E-003	  4.62072E-001	  5.62463E-001	  4.33340E-001	  4.37654E-001
  4.40000E-003	  4.65674E-001	  5.44153E-001	  4.98089E-001	  4.64795E-001
  4.80000E-003	  4.77279E-001	  5.47268E-001	  4.73735E-001	  4.64396E-001
  5.20000E-003	  4.32571E-001	  5.34441E-001	  4.68739E-001	  4.48830E-001
  5.60000E-003	  4.60537E-001	  5.72555E-001	  4.65409E-001	  4.58608E-001
  6.00000E-003	  4.61108E-001	  5.38106E-001	  4.55626E-001	  4.14704E-001
  6.40000E-003	  4.75147E-001	  5.52036E-001	  4.71331E-001	  4.44030E-001
  7.20000E-003	  4.62590E-001	  5.30230E-001	  4.78422E-001	  4.54408E-001
  8.00000E-003	  4.27203E-001	  5.22901E-001	  4.79567E-001	  4.40139E-001
  8.80000E-003	  4.50224E-001	  5.16487E-001	  4.71033E-001	  4.38343E-001
  9.60000E-003	  4.41377E-001	  5.37285E-001	  4.40330E-001	  4.48421E-001
  1.04000E-002	  4.59641E-001	  5.15021E-001	  4.75508E-001	  4.31159E-001
  1.12000E-002	  4.68095E-001	  5.14746E-001	  4.51987E-001	  4.62490E-001
  1.20000E-002	  4.65812E-001	  5.42415E-001	  4.59793E-001	  4.45727E-001
  1.28000E-002	  4.68540E-001	  5.21193E-001	  4.63547E-001	  4.51408E-001
  1.44000E-002	  4.51307E-001	  5.36022E-001	  4.43824E-001	  4.29905E-001
  1.60000E-002	  4.47822E-001	  5.24478E-001	  4.45489E-001	  4.31901E-001
  1.76000E-002	  4.44350E-001	  5.20277E-001	  4.50485E-001	  4.48863E-001
  1.92000E-002	  4.54611E-001	  5.27286E-001	  4.51734E-001	  4.22621E-001
  2.08000E-002	  4.51316E-001	  5.31958E-001	  4.39401E-001	  4.22970E-001
  2.24000E-002	  4.43895E-001	  5.11265E-001	  4.57406E-001	  4.35892E-001
  2.40000E-002	  4.57819E-001	  5.04943E-001	  4.36174E-001	  4.32499E-001
  2.56000E-002	  4.42386E-001	  5.14135E-001	  4.46001E-001	  4.24405E-001
  2.88000E-002	  4.44442E-001	  5.05984E-001	  4.42176E-001	  4.29344E-001
  3.20000E-002	  4.40135E-001	  5.02397E-001	  4.44895E-001	  4.20364E-001
  3.52000E-002	  4.36340E-001	  5.07414E-001	  4.25912E-001	  4.15524E-001
  3.84000E-002	  4.37387E-001	  4.94331E-001	  4.38662E-001	  4.07804E-001
  4.16000E-002	  4.12864E-001	  4.96140E-001	  4.22634E-001	  4.11646E-001
  4.48000E-002	  4.19082E-001	  4.82822E-001	  4.14802E-001	  4.07929E-001
  4.80000E-002	  4.20021E-001	  4.89808E-001	  4.06189E-001	  4.16535E-001
  5.12000E-002	  4.20335E-001	  4.84901E-001	  4.15951E-001	  4.06867E-001
  5.76000E-002	  4.08940E-001	  4.75773E-001	  4.01444E-001	  4.04149E-001
  6.40000E-002	  4.06061E-001	  4.77227E-001	  4.05607E-001	  3.96965E-001
  7.04000E-002	  3.98520E-001	  4.68901E-001	  3.99739E-001	  3.90043E-001
  7.68000E-002	  3.83747E-001	  4.60619E-001	  3.93936E-001	  3.80876E-001
  8.32000E-002	  3.84506E-001	  4.53141E-001	  3.83880E-001	  3.70400E-001
  8.96000E-002	  3.77084E-001	  4.56975E-001	  3.76646E-001	  3.74167E-001
  9.60000E-002	  3.70649E-001	  4.46669E-001	  3.73719E-001	  3.72869E-001
  1.02400E-001	  3.68127E-001	  4.41077E-001	  3.68994E-001	  3.62476E-001
  1.15200E-001	  3.59625E-001	  4.26683E-001	  3.62834E-001	  3.49437E-001
  1.28000E-001	  3.44396E-001	  4.15356E-001	  3.40983E-001	  3.39460E-001
  1.40800E-001	  3.35349E-001	  4.09130E-001	  3.38101E-001	  3.33093E-001
  1.53600E-001	  3.25694E-001	  3.94917E-001	  3.23352E-001	  3.23508E-001
  1.66400E-001	  3.18741E-001	  3.89372E-001	  3.14676E-001	  3.08828E-001
  1.79200E-001	  3.07654E-001	  3.73822E-001	  3.01914E-001	  2.99754E-001
  1.92000E-001	  2.96021E-001	  3.67906E-001	  2.91579E-001	  2.92906E-001
  2.04800E-001	  2.86386E-001	  3.55686E-001	  2.84125E-001	  2.83469E-001
  2.30400E-001	  2.63122E-001	  3.34709E-001	  2.68429E-001	  2.62646E-001
  2.56000E-001	  2.43802E-001	  3.17105E-001	  2.50183E-001	  2.44138E-001
  2.81600E-001	  2.24172E-001	  2.97622E-001	  2.28669E-001	  2.30136E-001
  3.07200E-001	  2.13443E-001	  2.86320E-001	  2.17368E-001	  2.15071E-001
  3.32800E-001	  1.94403E-001	  2.66161E-001	  2.07429E-001	  1.99544E-001
  3.58400E-001	  1.84570E-001	  2.53391E-001	  1.95191E-001	  1.81455E-001
  3.84000E-001	  1.69462E-001	  2.32877E-001	  1.82964E-001	  1.69951E-001
  4.09600E-001	  1.54888E-001	  2.24110E-001	  1.72790E-001	  1.55437E-001
  4.60800E-001	  1.34712E-001	  1.99678E-001	  1.51685E-001	  1.29795E-001
  5.12000E-001	  1.15390E-001	  1.75397E-001	  1.32853E-001	  1.15953E-001
  5.63200E-001	  1.01097E-001	  1.54718E-001	  1.18236E-001	  9.84754E-002
  6.14400E-001	  8.91128E-002	  1.41500E-001	  1.02333E-001	  8.54818E-002
  6.65600E-001	  8.00603E-002	  1.29528E-001	  9.30534E-002	  7.18262E-002
  7.16800E-001	  6.93278E-002	  1.17203E-001	  7.99704E-002	  6.06867E-002
  7.68000E-001	  6.09128E-002	  1.08599E-001	  6.93235E-002	  5.13981E-002
  8.19200E-001	  5.40269E-002	  1.00590E-001	  6.15379E-002	  4.39646E-002
  9.21600E-001	  4.27925E-002	  8.30078E-002	  4.61007E-002	  3.07340E-002
  1.02400E+000	  3.07478E-002	  7.06668E-002	  3.43157E-002	  2.30352E-002
  1.12640E+000	  1.96986E-002	  5.86235E-002	  2.79463E-002	  1.61267E-002
  1.22880E+000	  1.21364E-002	  5.08455E-002	  2.40408E-002	  1.15807E-002
  1.33120E+000	  1.17092E-002	  4.81416E-002	  1.92409E-002	  9.08254E-003
  1.43360E+000	  9.84861E-003	  4.55275E-002	  1.88622E-002	  3.55200E-003
  1.53600E+000	  8.18701E-003	  4.17668E-002	  1.64519E-002	  1.19362E-003
  1.63840E+000	  4.32163E-003	  3.81664E-002	  1.78853E-002	 -2.79189E-003
  1.84320E+000	  1.11835E-003	  3.02512E-002	  2.10892E-002	 -7.89912E-003
  2.04800E+000	 -6.15382E-004	  2.56722E-002	  2.51625E-002	 -6.53305E-003
  2.25280E+000	 -4.74110E-003	  1.52717E-002	  2.37919E-002	  3.15591E-004
  2.45760E+000	 -7.12966E-003	  1.05961E-002	  1.86718E-002	 -1.80141E-003
  2.66240E+000	 -6.31764E-003	  1.04547E-002	  1.18678E-002	 -3.03656E-003
  2.86720E+000	 -1.31223E-003	  1.76164E-002	  3.46009E-003	 -9.83462E-003
  3.07200E+000	 -7.98883E-003	  2.32772E-002	  4.62618E-003	 -1.14585E-002
  3.27680E+000	 -1.26940E-002	  2.54616E-002	  4.26868E-003	 -1.49289E-002
  3.68640E+000	  9.74473E-004	  1.83330E-002	 -4.17059E-003	 -1.23904E-002
  4.09600E+000	  4.62661E-003	  9.29210E-003	 -1.09912E-002	  5.98509E-003
  4.50560E+000	  7.90181E-003	  5.54758E-003	 -1.39905E-002	  6.06773E-003
  4.91520E+000	 -1.15343E-003	  2.93506E-003	 -6.09181E-003	  1.77081E-003
  5.32480E+000	 -1.13484E-002	 -8.09926E-003	  1.93296E-003	  4.31948E-003
  5.73440E+000	 -2.29389E-002	 -1.08053E-002	  5.66371E-003	  6.03467E-003
  6.14400E+000	 -1.23997E-002	 -8.72700E-003	  2.24779E-003	  2.19760E-003
  6.55360E+000	  1.43492E-003	 -1.14907E-002	  5.60147E-003	  3.43871E-003
  7.37280E+000	  1.09892E-002	 -3.31384E-005	  9.03000E-004	  6.45211E-003
  8.19200E+000	  8.91499E-003	  1.66192E-002	 -5.23394E-003	  8.40168E-003
  9.01120E+000	 -3.42973E-003	  1.07182E-002	 -5.76917E-003	  9.81928E-003
  9.83040E+000	 -7.91552E-003	 -8.77905E-004	 -4.67339E-003	 -1.00777E-002
  1.06496E+001	 -2.97986E-003	 -1.34427E-003	  1.00921E-002	 -6.95977E-003
  1.14688E+001	  1.50271E-002	  3.76567E-003	  4.66024E-003	  2.12240E-003
  1.22880E+001	  6.54253E-003	 -1.14127E-002	 -9.49358E-003	  1.13365E-002
  1.31072E+001	  4.71392E-003	 -8.68487E-003	 -3.72150E-003	  4.03409E-003
  1.47456E+001	  4.14290E-003	 -1.52776E-002	 -6.25493E-003	 -9.72854E-003
  1.63840E+001	 -9.05165E-003	 -2.85098E-003	 -5.58360E-003	  6.64732E-003
  1.80224E+001	 -1.08834E-002	  3.08810E-003	 -7.89591E-003	  1.73031E-002
  1.96608E+001	 -3.92745E-003	  2.44793E-003	 -9.83233E-003	  1.85424E-003
  2.12992E+001	 -7.62446E-003	 -1.42433E-003	  9.45083E-006	  1.51870E-002
  2.29376E+001	 -5.73460E-003	 -1.26811E-002	  1.62084E-002	  3.01480E-003
  2.45760E+001	 -4.91921E-003	 -1.73421E-002	  8.59159E-003	 -8.77381E-003
  2.62144E+001	  2.64924E-003	  5.97321E-003	  4.72412E-003	 -1.36937E-002
  2.94912E+001	  2.04083E-003	  1.39965E-002	  4.38153E-004	  4.33422E-003
  3.27680E+001	 -6.83481E-003	  1.15893E-003	 -6.09797E-003	  7.79785E-003
  3.60448E+001	 -1.32051E-003	 -3.21094E-003	  3.06560E-003	  5.46835E-004
  3.93216E+001	  8.81050E-003	  5.83256E-003	  2.64220E-003	 -2.69573E-003
  4.25984E+001	  3.56282E-003	  7.88054E-003	  3.56175E-003	 -1.18937E-004
  4.58752E+001	 -7.00287E-003	  4.76339E-003	  6.88013E-003	 -2.16133E-003
  4.91520E+001	  9.13867E-003	 -8.52384E-003	  5.74105E-003	 -3.44162E-003
  5.24288E+001	 -2.78687E-003	 -6.99519E-003	  2.21510E-003	  6.06750E-003
  5.89824E+001	  2.30579E-003	 -3.75571E-003	 -7.41460E-003	 -3.10201E-003
  6.55360E+001	 -1.90723E-003	  3.22450E-003	 -5.33840E-003	 -4.37186E-003
  7.20896E+001	 -5.21548E-003	  9.35110E-003	 -7.48415E-003	  4.33727E-003
  7.86432E+001	 -1.49447E-003	  6.94972E-004	 -3.76367E-003	 -5.43565E-003
  8.51968E+001	  3.15567E-003	  6.32369E-003	 -7.53787E-003	 -1.00892E-003
  9.17504E+001	 -1.43833E-003	  2.44010E-004	 -5.51309E-005	  1.05282E-002
  9.83040E+001	 -7.97914E-003	 -5.18799E-003	 -3.89218E-003	  1.37132E-003
  1.04858E+002	  1.21334E-003	 -5.98059E-003	  1.43321E-003	 -3.73824E-004
  1.17965E+002	  1.83148E-003	 -3.38645E-003	 -7.22940E-003	  3.66388E-003
  1.31072E+002	  9.01350E-003	 -1.95266E-003	 -1.13663E-003	  9.07201E-004
  1.44179E+002	 -8.96000E-004	 -8.33930E-003	  9.64554E-004	 -3.40760E-003
  1.57286E+002	  1.29474E-003	  2.44435E-003	 -3.26777E-003	 -7.53479E-004
  1.70394E+002	  6.77067E-004	  1.31353E-003	  6.96173E-003	 -2.85101E-003
  1.83501E+002	 -2.66173E-003	 -1.05037E-002	 -2.63538E-004	 -1.71274E-003
  1.96608E+002	 -4.47875E-004	  8.72130E-003	  1.93644E-004	 -2.16825E-003
  2.09715E+002	  1.79440E-004	 -1.12216E-003	 -2.59167E-003	  1.92599E-003
  2.35930E+002	  1.30348E-003	 -6.08571E-004	 -8.65585E-004	 -1.30629E-003
  2.62144E+002	  2.06122E-003	  2.87460E-003	  4.29357E-004	 -1.66631E-003
  2.88358E+002	 -7.56310E-004	  3.04000E-003	 -2.65575E-003	  7.44991E-003
  3.14573E+002	 -8.72851E-004	 -1.53655E-003	 -3.55009E-003	  5.37212E-003
  3.40787E+002	  1.99407E-003	  7.32811E-003	 -8.47766E-004	 -8.78209E-004
  3.67002E+002	  1.22634E-003	 -6.32600E-003	  3.87761E-003	 -1.28661E-003
  3.93216E+002	  1.17709E-003	 -2.94512E-003	  4.38932E-003	  4.91293E-003

"Count Rate"
       0.01311	     138.47351	     137.63428	     110.32104	     123.82507
       0.02621	     108.87146	     111.92322	     129.24194	     140.53345
       0.03932	      84.30481	     128.17383	     100.55542	     124.13025
       0.05243	     129.92859	     139.08386	     148.77319	     101.08948
       0.06554	     118.86597	     120.62073	     125.35095	      92.39197
       0.07864	      75.37842	     133.36182	     104.90417	      84.83887
       0.09175	      95.82520	     119.24744	     103.07312	     116.65344
       0.10486	     104.67529	     117.34009	      95.44373	     129.85229
       0.11796	     100.17395	     148.01025	     143.20374	     116.95862
       0.13107	     107.57446	     158.61511	      75.98877	     137.17651
       0.14418	     114.82239	      76.52283	      74.23401	     103.60718
       0.15729	     103.75977	      98.03772	     136.03210	      90.63721
       0.17039	     122.60437	     181.12183	      96.13037	      75.14954
       0.18350	      99.56360	     103.22571	      78.88794	     104.98047
       0.19661	      96.51184	     162.88757	     107.95593	     106.96411
       0.20972	     137.71057	     127.94495	     128.78418	     135.72693
       0.22282	     143.05115	     133.13293	     123.51990	     113.75427
       0.23593	     127.18201	      94.68079	     119.93408	     105.74341
       0.24904	      99.25842	      95.59631	     125.27466	     110.01587
       0.26214	     110.09216	      67.97791	     155.10559	     121.15479
       0.27525	     107.57446	     117.64526	      97.88513	     103.37830
       0.28836	      94.90967	     135.49805	      98.03772	      80.79529
       0.30147	     116.19568	     110.39734	      91.78162	      83.46558
       0.31457	     119.17114	      94.29932	      85.06775	     106.58264
       0.32768	     113.60168	     148.54431	     126.57166	     105.36194
       0.34079	     109.48181	      94.29932	     102.84424	     116.72974
       0.35389	     138.93127	      97.96143	     118.33191	     103.37830
       0.36700	     110.47363	     151.51978	      94.68079	     108.79517
       0.38011	     158.30994	     113.37280	     124.28284	     111.92322
       0.39322	     109.32922	     122.45178	      98.34290	     103.45459
       0.40632	     135.19287	     159.53064	     109.10034	     101.92871
       0.41943	     108.48999	     140.60974	     102.84424	      92.46826
       0.43254	     111.54175	      95.13855	     132.21741	     146.48438
       0.44564	     110.16846	     108.56628	      95.67261	     100.32654
       0.45875	      96.28296	     145.33997	      98.11401	      82.32117
       0.47186	     119.55261	     103.60718	     123.51990	     130.76782
       0.48497	     134.42993	     103.91235	     117.18750	     118.33191
       0.49807	     123.51990	     104.90417	     102.08130	     109.86328
       0.51118	     133.13293	     120.84961	     138.77869	     108.87146
       0.52429	     124.35913	     120.46814	      98.34290	     154.19006
       0.53740	     123.29102	     136.94763	      92.39197	     126.49536
       0.55050	     101.31836	     104.59900	     109.40552	     127.48718
       0.56361	     112.38098	     115.89050	     113.44910	     110.39734
       0.57672	     116.72974	      92.77344	     113.52539	      99.86877
       0.58982	     122.75696	     109.25293	     145.03479	     111.77063
       0.60293	     118.02673	     130.00488	     114.44092	     119.62891
       0.61604	     115.43274	     128.78418	     173.26355	     119.78149
       0.62915	     142.36450	     104.82788	      96.74072	     106.58264
       0.64225	     156.32629	      84.22852	     150.98572	      98.72437
       0.65536	      99.10583	     130.92041	      99.48730	     112.22839
       0.66847	     125.57983	     144.88220	     129.69971	      93.61267
       0.68157	      93.61267	     139.00757	     116.95862	     117.64526
       0.69468	      89.87427	     133.81958	      91.55273	      99.86877
       0.70779	     122.60437	     120.62073	     102.92053	      99.18213
       0.72090	     127.18201	     106.96411	      98.11401	     132.75146
       0.73400	     134.12476	     101.16577	      71.10596	     130.38635
       0.74711	      93.91785	     103.07312	      99.02954	     127.79236
