ALV-7004/USB-FAST
Date :	"3/14/2024"
Time :	"12:37:48 PM"
Samplename : 	""
SampMemo(0) : 	""
SampMemo(1) : 	""
SampMemo(2) : 	""
SampMemo(3) : 	""
SampMemo(4) : 	""
SampMemo(5) : 	""
SampMemo(6) : 	""
SampMemo(7) : 	""
SampMemo(8) : 	""
SampMemo(9) : 	""
Temperature [K] :	     298.16000
Viscosity [cp]  :	       0.89000
Refractive Index:	       1.33200
Wavelength [nm] :	       0.00000
Angle [°]       :	       0.00000
Duration [s]    :	         1
FloatDur [ms]   :	          944
Stop TP [ms]   :	      4089
Runs            :	         1
Mode            :	"A-CH0+1  A-CH2+3 "
MeanCR0 [kHz]   :	     141.32923
MeanCR1 [kHz]   :	     133.88528
MeanCR2 [kHz]   :	     134.48080
MeanCR3 [kHz]   :	     138.11111

"Correlation"
  3.12500E-006	 -1.00000E+000	 -1.00000E+000	 -1.00000E+000	 -1.00000E+000
  6.25000E-006	 -1.00000E+000	 -1.00000E+000	 -1.00000E+000	 -1.00000E+000
  9.37500E-006	 -1.00000E+000	 -1.00000E+000	 -1.00000E+000	 -1.00000E+000
  1.25000E-005	 -1.00000E+000	 -1.00000E+000	 -1.00000E+000	 -1.00000E+000
  1.56250E-005	 -1.00000E+000	 -1.00000E+000	 -1.00000E+000	 -1.00000E+000
  1.87500E-005	 -1.00000E+000	 -1.00000E+000	 -1.00000E+000	 -1.00000E+000
  2.18750E-005	 -9.66047E-001	 -4.89253E-001	 -5.50015E-001	 -9.28893E-001
  2.50000E-005	  5.50193E+000	  5.07221E+000	  5.31854E+000	  9.45268E+000
  2.81250E-005	  1.56342E+000	  1.02407E+000	  1.06243E+000	  4.35078E+000
  3.12500E-005	  1.05413E+000	  7.97072E-001	  7.62442E-001	  2.05759E+000
  3.43750E-005	  8.33442E-001	  7.97072E-001	  6.12447E-001	  1.95093E+000
  3.75000E-005	  9.86229E-001	  6.26823E-001	  7.06194E-001	  1.43540E+000
  4.06250E-005	  8.50419E-001	  6.45740E-001	  8.93688E-001	  1.73761E+000
  4.37500E-005	  5.44845E-001	  6.83573E-001	  8.37440E-001	  1.87982E+000
  4.68750E-005	  8.16466E-001	  7.21406E-001	  4.62452E-001	  1.04432E+000
  5.00000E-005	  4.76940E-001	  7.97072E-001	  6.31196E-001	  1.11542E+000
  5.62500E-005	  6.80655E-001	  5.22782E-001	  5.56199E-001	  1.23986E+000
  6.25000E-005	  6.12750E-001	  5.41699E-001	  6.96819E-001	  6.88783E-001
  6.87500E-005	  5.70309E-001	  5.13324E-001	  7.81191E-001	  9.82098E-001
  7.50000E-005	  6.89144E-001	  5.79532E-001	  6.96819E-001	  7.95443E-001
  8.12500E-005	  5.87286E-001	  5.70073E-001	  3.03082E-001	  8.13220E-001
  8.75000E-005	  4.93916E-001	  4.56574E-001	  6.40571E-001	  6.71006E-001
  9.37500E-005	  5.78798E-001	  4.75491E-001	  6.21822E-001	  4.04356E-001
  1.00000E-004	  5.23624E-001	  6.41010E-001	  5.65573E-001	  5.15460E-001
  1.12500E-004	  5.49089E-001	  4.80220E-001	  4.10891E-001	  7.55445E-001
  1.25000E-004	  5.83041E-001	  4.42387E-001	  4.06204E-001	  4.44354E-001
  1.37500E-004	  5.06648E-001	  4.09283E-001	  5.14013E-001	  5.33237E-001
  1.50000E-004	  5.53333E-001	  5.36969E-001	  6.78070E-001	  4.17689E-001
  1.62500E-004	  3.79326E-001	  4.18741E-001	  4.24953E-001	  4.04356E-001
  1.75000E-004	  6.04262E-001	  6.07906E-001	  5.14013E-001	  6.17676E-001
  1.87500E-004	  6.89143E-001	  4.42387E-001	  4.15578E-001	  5.02128E-001
  2.00000E-004	  5.15136E-001	  4.25834E-001	  4.50733E-001	  4.15466E-001
  2.25000E-004	  5.15136E-001	  4.42386E-001	  5.04637E-001	  4.31021E-001
  2.50000E-004	  5.06648E-001	  6.05541E-001	  4.20265E-001	  3.93246E-001
  2.75000E-004	  6.10628E-001	  5.60615E-001	  4.24953E-001	  5.11016E-001
  3.00000E-004	  7.42194E-001	  5.06230E-001	  5.11669E-001	  4.99905E-001
  3.25000E-004	  5.32112E-001	  4.92042E-001	  5.06981E-001	  5.37681E-001
  3.50000E-004	  4.72695E-001	  5.72437E-001	  5.67917E-001	  4.93239E-001
  3.75000E-004	  5.72431E-001	  5.62979E-001	  4.20265E-001	  4.88795E-001
  4.00000E-004	  5.18318E-001	  5.33421E-001	  4.81200E-001	  5.04349E-001
  4.50000E-004	  5.24684E-001	  4.95588E-001	  4.70654E-001	  4.38798E-001
  5.00000E-004	  5.16196E-001	  4.51844E-001	  4.96434E-001	  4.64352E-001
  5.50000E-004	  4.91793E-001	  4.92042E-001	  4.95262E-001	  4.49908E-001
  6.00000E-004	  4.82244E-001	  5.86624E-001	  4.85887E-001	  4.92128E-001
  6.50000E-004	  4.84366E-001	  6.13817E-001	  4.06203E-001	  5.09904E-001
  7.00000E-004	  4.83305E-001	  5.22781E-001	  4.81200E-001	  4.61018E-001
  7.50000E-004	  4.84366E-001	  5.20416E-001	  5.35105E-001	  5.21015E-001
  8.00000E-004	  5.07176E-001	  5.09183E-001	  4.98776E-001	  4.81016E-001
  9.00000E-004	  4.73224E-001	  4.55981E-001	  4.61864E-001	  4.49351E-001
  1.00000E-003	  5.09298E-001	  5.53519E-001	  4.17334E-001	  5.18236E-001
  1.10000E-003	  5.31049E-001	  4.86720E-001	  4.61278E-001	  4.88249E-001
  1.20000E-003	  4.85956E-001	  4.84355E-001	  4.90574E-001	  4.46585E-001
  1.30000E-003	  4.97097E-001	  4.81400E-001	  4.59520E-001	  4.59362E-001
  1.40000E-003	  4.71102E-001	  5.32829E-001	  4.78269E-001	  4.14920E-001
  1.50000E-003	  5.11951E-001	  4.97361E-001	  4.69481E-001	  4.77694E-001
  1.60000E-003	  5.11683E-001	  4.94107E-001	  4.80318E-001	  4.57971E-001
  1.80000E-003	  4.91524E-001	  4.98836E-001	  4.56588E-001	  4.89358E-001
  2.00000E-003	  4.97625E-001	  4.45042E-001	  4.70064E-001	  4.82414E-001
  2.20000E-003	  5.09561E-001	  4.91447E-001	  4.56588E-001	  4.85747E-001
  2.40000E-003	  5.06378E-001	  4.84944E-001	  4.16746E-001	  4.89635E-001
  2.60000E-003	  4.73752E-001	  4.71348E-001	  5.05219E-001	  4.53526E-001
  2.80000E-003	  4.94707E-001	  5.04747E-001	  4.55709E-001	  4.80191E-001
  3.00000E-003	  4.89413E-001	  4.43860E-001	  4.67134E-001	  4.47693E-001
  3.20000E-003	  4.90204E-001	  4.85701E-001	  4.37845E-001	  4.56577E-001
  3.60000E-003	  4.91397E-001	  4.45208E-001	  4.49270E-001	  4.68521E-001
  4.00000E-003	  4.67535E-001	  4.64272E-001	  4.58352E-001	  4.77687E-001
  4.40000E-003	  4.95785E-001	  4.75061E-001	  4.73000E-001	  4.69365E-001
  4.80000E-003	  4.81329E-001	  4.67819E-001	  4.66702E-001	  4.83114E-001
  5.20000E-003	  4.67933E-001	  4.48903E-001	  4.17924E-001	  4.46033E-001
  5.60000E-003	  4.77217E-001	  4.70479E-001	  4.92775E-001	  4.55894E-001
  6.00000E-003	  5.03212E-001	  4.75061E-001	  4.19682E-001	  4.31173E-001
  6.40000E-003	  4.85099E-001	  4.91922E-001	  4.30241E-001	  4.35063E-001
  7.20000E-003	  4.76478E-001	  4.82537E-001	  4.57255E-001	  4.69158E-001
  8.00000E-003	  4.78202E-001	  4.66946E-001	  4.52275E-001	  4.51520E-001
  8.80000E-003	  4.74621E-001	  4.66491E-001	  4.57914E-001	  4.60964E-001
  9.60000E-003	  4.82910E-001	  4.51922E-001	  4.57328E-001	  4.59784E-001
  1.04000E-002	  4.81396E-001	  4.35444E-001	  4.72343E-001	  4.45548E-001
  1.12000E-002	  4.76422E-001	  4.64041E-001	  4.40996E-001	  4.29368E-001
  1.20000E-002	  4.48173E-001	  4.59681E-001	  4.42754E-001	  4.35896E-001
  1.28000E-002	  4.55713E-001	  4.57294E-001	  4.41915E-001	  4.38978E-001
  1.44000E-002	  4.55779E-001	  4.55817E-001	  4.42647E-001	  4.39591E-001
  1.60000E-002	  4.48617E-001	  4.39117E-001	  4.45357E-001	  4.31849E-001
  1.76000E-002	  4.48949E-001	  4.32983E-001	  4.28427E-001	  4.29419E-001
  1.92000E-002	  4.51977E-001	  4.37269E-001	  4.25681E-001	  4.29638E-001
  2.08000E-002	  4.40548E-001	  4.28328E-001	  4.09008E-001	  4.25228E-001
  2.24000E-002	  4.43499E-001	  4.23133E-001	  4.13805E-001	  4.23735E-001
  2.40000E-002	  4.34680E-001	  4.23539E-001	  4.23985E-001	  4.05611E-001
  2.56000E-002	  4.32767E-001	  4.39051E-001	  4.08179E-001	  4.04768E-001
  2.88000E-002	  4.27015E-001	  4.13290E-001	  3.96992E-001	  4.04213E-001
  3.20000E-002	  4.04004E-001	  4.05753E-001	  4.03290E-001	  4.03206E-001
  3.52000E-002	  4.13852E-001	  4.06385E-001	  3.90913E-001	  3.92790E-001
  3.84000E-002	  4.15918E-001	  3.95836E-001	  3.94666E-001	  3.87235E-001
  4.16000E-002	  3.93067E-001	  3.92336E-001	  3.80440E-001	  3.75448E-001
  4.48000E-002	  3.88657E-001	  3.82046E-001	  3.71860E-001	  3.75413E-001
  4.80000E-002	  3.82987E-001	  3.75236E-001	  3.56725E-001	  3.58942E-001
  5.12000E-002	  3.78465E-001	  3.66515E-001	  3.56589E-001	  3.49786E-001
  5.76000E-002	  3.58365E-001	  3.49145E-001	  3.44148E-001	  3.46097E-001
  6.40000E-002	  3.44796E-001	  3.39331E-001	  3.35755E-001	  3.29189E-001
  7.04000E-002	  3.34907E-001	  3.27205E-001	  3.18801E-001	  3.12467E-001
  7.68000E-002	  3.24816E-001	  3.16290E-001	  3.09564E-001	  3.07904E-001
  8.32000E-002	  3.08730E-001	  3.12927E-001	  3.01517E-001	  2.97160E-001
  8.96000E-002	  2.99489E-001	  2.93464E-001	  2.90175E-001	  2.83943E-001
  9.60000E-002	  2.85166E-001	  2.82859E-001	  2.79337E-001	  2.73891E-001
  1.02400E-001	  2.75498E-001	  2.66508E-001	  2.68852E-001	  2.68082E-001
  1.15200E-001	  2.51173E-001	  2.46912E-001	  2.49040E-001	  2.43503E-001
  1.28000E-001	  2.36372E-001	  2.37982E-001	  2.36979E-001	  2.27455E-001
  1.40800E-001	  2.20372E-001	  2.20093E-001	  2.21984E-001	  2.17319E-001
  1.53600E-001	  2.08527E-001	  2.06869E-001	  2.03467E-001	  2.00457E-001
  1.66400E-001	  1.95961E-001	  1.90955E-001	  1.89854E-001	  1.85193E-001
  1.79200E-001	  1.78444E-001	  1.80445E-001	  1.80246E-001	  1.73366E-001
  1.92000E-001	  1.71126E-001	  1.72861E-001	  1.70930E-001	  1.60627E-001
  2.04800E-001	  1.59134E-001	  1.61188E-001	  1.63473E-001	  1.48906E-001
  2.30400E-001	  1.42237E-001	  1.37284E-001	  1.41068E-001	  1.35007E-001
  2.56000E-001	  1.30399E-001	  1.24361E-001	  1.23714E-001	  1.21693E-001
  2.81600E-001	  1.14621E-001	  1.14112E-001	  1.11995E-001	  1.08318E-001
  3.07200E-001	  1.01075E-001	  9.99308E-002	  9.77484E-002	  1.02956E-001
  3.32800E-001	  9.20530E-002	  8.68370E-002	  8.89587E-002	  9.22329E-002
  3.58400E-001	  8.08321E-002	  8.27623E-002	  8.29144E-002	  8.37588E-002
  3.84000E-001	  7.52832E-002	  7.06443E-002	  7.40360E-002	  7.64211E-002
  4.09600E-001	  6.83263E-002	  6.40980E-002	  6.78094E-002	  6.96441E-002
  4.60800E-001	  6.06488E-002	  5.56715E-002	  5.61874E-002	  5.94051E-002
  5.12000E-001	  5.00815E-002	  4.70636E-002	  5.08410E-002	  4.78540E-002
  5.63200E-001	  4.39366E-002	  4.04231E-002	  4.86748E-002	  3.95131E-002
  6.14400E-001	  4.19249E-002	  3.33303E-002	  4.80271E-002	  3.06841E-002
  6.65600E-001	  3.84473E-002	  2.62963E-002	  4.31455E-002	  2.84629E-002
  7.16800E-001	  3.45941E-002	  1.87865E-002	  3.81675E-002	  2.55745E-002
  7.68000E-001	  2.94110E-002	  1.57345E-002	  3.66843E-002	  1.85492E-002
  8.19200E-001	  2.32340E-002	  1.36290E-002	  3.31013E-002	  1.62517E-002
  9.21600E-001	  2.02461E-002	  1.59155E-002	  2.56864E-002	  1.63777E-002
  1.02400E+000	  1.53779E-002	  2.03272E-002	  2.26768E-002	  1.66266E-002
  1.12640E+000	  9.44091E-003	  1.90520E-002	  2.37739E-002	  1.85905E-002
  1.22880E+000	  6.17913E-003	  1.95379E-002	  2.12389E-002	  1.66606E-002
  1.33120E+000	  7.85056E-003	  1.90131E-002	  2.01396E-002	  1.10552E-002
  1.43360E+000	  1.15476E-002	  2.05900E-002	  1.86149E-002	  1.01709E-002
  1.53600E+000	  1.24176E-002	  2.10398E-002	  1.61100E-002	  1.07765E-002
  1.63840E+000	  1.28569E-002	  1.51145E-002	  1.39427E-002	  1.02550E-002
  1.84320E+000	  1.05210E-002	  5.14376E-003	  5.85260E-003	  1.19215E-002
  2.04800E+000	  5.78276E-003	 -1.56128E-003	 -1.48780E-003	  1.10996E-002
  2.25280E+000	  2.03509E-003	  8.05087E-004	 -9.05609E-004	  6.94302E-003
  2.45760E+000	 -8.48619E-004	  3.36702E-003	  5.26402E-003	  3.78577E-003
  2.66240E+000	 -1.51020E-003	  7.51341E-003	  7.64936E-003	  2.52982E-003
  2.86720E+000	 -2.97959E-003	  4.86201E-003	 -6.93501E-004	 -7.33317E-003
  3.07200E+000	 -3.22234E-003	  1.30050E-003	 -3.58579E-003	 -5.73275E-003
  3.27680E+000	 -9.99561E-004	 -6.18540E-004	 -6.30470E-003	 -7.18478E-003
  3.68640E+000	  1.77549E-003	 -3.10661E-003	 -1.93678E-003	 -5.55147E-003
  4.09600E+000	  9.87953E-003	 -5.28030E-003	 -9.35503E-004	 -4.77167E-003
  4.50560E+000	  2.27909E-002	 -1.43407E-002	  3.59201E-003	 -1.35814E-003
  4.91520E+000	  1.48274E-002	 -1.72144E-003	  6.61515E-003	 -1.88343E-003
  5.32480E+000	  7.35609E-003	 -7.06620E-003	 -5.20067E-003	 -5.78868E-004
  5.73440E+000	  6.69614E-003	 -1.16969E-002	 -8.69449E-003	 -9.56922E-003
  6.14400E+000	  3.28556E-003	  5.20770E-003	 -8.43301E-003	 -3.81043E-003
  6.55360E+000	  1.85559E-003	  3.51849E-003	 -6.14072E-003	  2.33735E-003
  7.37280E+000	  5.92419E-004	  5.02748E-004	 -4.72733E-003	  2.17743E-003
  8.19200E+000	 -8.76347E-003	 -6.03322E-003	 -2.50949E-003	  9.44188E-003
  9.01120E+000	  1.43899E-003	 -5.01117E-003	 -3.58538E-003	  5.69604E-003
  9.83040E+000	 -5.36445E-003	 -3.41183E-003	  1.01202E-004	 -5.59323E-003
  1.06496E+001	 -6.44442E-003	  3.23904E-005	  3.91646E-004	 -4.45026E-003
  1.14688E+001	 -6.74514E-003	 -6.83722E-003	 -7.63773E-004	 -3.53224E-003
  1.22880E+001	 -8.00298E-003	 -2.60437E-003	 -1.71267E-002	  8.89299E-004
  1.31072E+001	 -5.70468E-003	 -3.55141E-003	 -1.00264E-002	 -5.89470E-003
  1.47456E+001	 -3.54144E-003	  3.59813E-003	  2.16960E-003	  1.77225E-003
  1.63840E+001	 -5.18460E-003	  6.70696E-003	 -6.80811E-003	  7.16648E-003
  1.80224E+001	 -7.70211E-003	 -5.88246E-003	 -4.58265E-003	  6.91896E-003
  1.96608E+001	  1.01957E-003	 -7.12223E-003	 -8.51053E-003	  2.87938E-003
  2.12992E+001	  2.43479E-003	 -3.17663E-003	  3.04707E-003	  6.52384E-004
  2.29376E+001	 -1.80056E-003	  3.06258E-003	 -6.90142E-003	 -7.81961E-003
  2.45760E+001	  1.90824E-004	 -3.49755E-004	 -3.05718E-003	 -6.78074E-003
  2.62144E+001	  5.41026E-004	  1.23098E-003	 -6.65030E-003	  3.93279E-003
  2.94912E+001	 -5.05298E-003	  1.91795E-003	 -2.27156E-003	 -3.84174E-003
  3.27680E+001	 -6.00724E-004	  6.90992E-003	  2.60804E-005	 -2.19532E-003
  3.60448E+001	  6.27651E-003	 -3.81481E-003	  3.55185E-003	  2.12989E-005
  3.93216E+001	  2.08546E-003	 -6.81798E-004	  4.30046E-004	 -3.34158E-003
  4.25984E+001	  2.12905E-003	 -2.10683E-003	 -3.80500E-003	  4.10447E-003
  4.58752E+001	 -3.14283E-003	 -2.03836E-003	 -1.71094E-004	  2.63820E-004
  4.91520E+001	 -1.26002E-003	  4.93776E-004	  7.64997E-003	 -7.95445E-003
  5.24288E+001	 -2.01364E-003	  3.84509E-003	  1.51023E-003	 -4.20487E-003
  5.89824E+001	 -4.48279E-003	 -1.10246E-004	  2.53587E-003	  1.18018E-003
  6.55360E+001	  2.56515E-003	 -4.25679E-003	 -3.88274E-003	 -5.80132E-003
  7.20896E+001	 -7.05059E-004	 -2.31763E-003	 -6.08201E-003	 -2.62499E-003
  7.86432E+001	 -4.27312E-004	 -1.82871E-004	 -1.02835E-003	  3.42341E-003
  8.51968E+001	  9.63893E-004	 -9.84260E-004	  2.56560E-003	  8.03131E-003
  9.17504E+001	 -4.71263E-003	  1.23259E-003	  3.30993E-003	 -3.16628E-004
  9.83040E+001	 -6.47712E-003	 -7.09115E-004	  3.83493E-003	  3.17507E-004
  1.04858E+002	 -3.93312E-003	  1.19533E-003	 -3.07996E-003	  4.77660E-003
  1.17965E+002	 -4.09061E-003	  1.22914E-005	 -3.57372E-003	  3.29646E-003
  1.31072E+002	  7.52389E-004	 -2.12866E-003	  3.43432E-003	 -2.23845E-003
  1.44179E+002	 -1.63558E-003	 -3.68938E-004	  3.78108E-003	 -3.48088E-003
  1.57286E+002	  1.15433E-003	  1.75593E-003	 -1.67833E-003	  1.90350E-003
  1.70394E+002	  2.90950E-003	 -1.56164E-003	 -1.09214E-003	  7.67596E-004
  1.83501E+002	  2.05491E-004	 -1.63680E-003	  1.64992E-003	 -5.65615E-004
  1.96608E+002	 -6.34242E-004	 -1.46271E-003	 -3.83530E-003	 -1.25805E-003
  2.09715E+002	  5.88312E-003	 -6.97681E-005	 -1.48965E-003	 -4.20923E-004
  2.35930E+002	 -1.60343E-003	  1.92206E-003	  1.32002E-003	 -3.42476E-003
  2.62144E+002	 -4.63898E-004	 -2.64891E-003	 -1.36722E-003	  2.29791E-003
  2.88358E+002	 -3.21755E-003	  1.26125E-003	 -7.18551E-004	 -2.08054E-003
  3.14573E+002	 -1.90301E-003	  2.46047E-003	  8.16635E-004	 -5.65804E-004
  3.40787E+002	  1.10672E-003	 -8.02595E-004	 -9.51339E-004	  3.57813E-004
  3.67002E+002	 -1.07024E-003	 -7.60645E-004	  2.07502E-004	 -3.55318E-003
  3.93216E+002	  4.40343E-003	 -2.04854E-003	  1.29411E-003	 -4.06763E-003

"Count Rate"
       0.01311	     132.29370	     135.42175	     141.83044	     119.55261
       0.02621	     134.88770	     114.36462	     124.66431	     119.55261
       0.03932	     111.61804	     131.83594	     126.26648	     134.27734
       0.05243	     153.57971	     111.92322	     121.91772	     148.08655
       0.06554	     135.95581	     134.50623	     162.27722	     147.78137
       0.07864	     141.14380	     135.26917	      92.62085	     147.85767
       0.09175	     162.35352	     138.70239	     116.50085	     130.15747
       0.10486	     117.64526	     120.01038	     133.13293	     126.80054
       0.11796	     138.54980	     196.07544	     162.12463	     129.01306
       0.13107	     148.54431	     117.56897	     106.20117	     109.93958
       0.14418	     126.11389	     129.16565	     137.40540	     141.83044
       0.15729	     139.23645	     117.56897	     143.43262	     133.20923
       0.17039	     113.60168	     112.45728	     123.97766	     133.81958
       0.18350	     148.01025	     110.09216	     125.57983	     138.39722
       0.19661	     155.02930	     134.88770	     133.20923	     138.39722
       0.20972	     154.19006	     131.30188	     124.89319	     142.66968
       0.22282	     156.02112	     142.89856	     119.93408	     145.56885
       0.23593	     181.50330	     150.29907	     124.89319	     115.05127
       0.24904	     105.89600	     123.36731	     132.52258	     121.07849
       0.26214	     142.74597	     131.07300	     129.85229	     147.24731
       0.27525	     116.11938	     127.79236	     161.20911	     142.36450
       0.28836	     126.87683	     141.90674	     148.69690	     132.67517
       0.30147	     172.95837	     158.23364	     125.12207	     155.18188
       0.31457	     113.37280	     116.27197	     130.15747	     130.15747
       0.32768	     137.55798	     137.78687	     132.59888	     165.25269
       0.34079	     121.00220	     121.07849	     138.01575	     150.98572
       0.35389	     109.32922	     178.45154	     147.24731	     129.08936
       0.36700	     167.00745	     132.21741	     122.98584	     116.57715
       0.38011	     124.05396	     125.42725	     168.99109	     195.69397
       0.39322	     152.89307	     160.06470	     132.06482	     144.57703
       0.40632	     134.04846	     129.92859	     120.23926	     141.37268
       0.41943	     187.07275	     100.17395	     140.15198	     119.70520
       0.43254	     127.10571	     144.80591	     137.17651	     136.10840
       0.44564	     174.71313	     147.17102	     117.03491	     113.14392
       0.45875	     140.15198	     133.74329	     119.78149	     138.32092
       0.47186	     113.44910	     111.16028	     161.28540	     149.00208
       0.48497	     149.00208	     134.88770	     137.86316	     186.08093
       0.49807	     140.60974	     131.91223	     122.90955	     178.45154
       0.51118	      96.74072	     136.64246	     131.91223	     136.10840
       0.52429	     139.84680	     125.96130	     160.21729	     125.50354
       0.53740	     143.05115	     142.36450	     124.58801	     109.71069
       0.55050	     150.98572	     143.96667	     125.73242	     131.07300
       0.56361	     148.23914	     136.94763	     154.72412	     132.06482
       0.57672	     143.35632	     137.02393	     100.17395	     134.12476
       0.58982	     140.99121	     145.64514	     108.41370	     157.16553
       0.60293	     127.63977	     158.69141	     138.32092	     162.73499
       0.61604	     187.60681	     122.14661	     157.01294	     112.53357
       0.62915	     147.24731	     129.39453	     134.50623	     150.37537
       0.64225	     120.08667	     122.14661	     125.50354	     132.37000
       0.65536	     151.06201	     127.10571	     117.87415	     152.20642
       0.66847	     112.15210	     142.28821	     143.58521	     127.33459
       0.68157	     111.92322	     147.24731	     140.83862	     132.21741
       0.69468	     165.40527	     116.57715	     152.20642	     108.26111
       0.70779	     133.66699	     144.42444	     117.11121	     131.14929
       0.72090	     116.65344	     132.29370	     108.71887	     128.32642
       0.73400	     102.00500	     123.51990	     107.72705	     113.90686
       0.74711	     124.05396	     114.28833	     164.10828	     140.15198
