ALV-7004/USB-FAST
Date :	"3/14/2024"
Time :	"12:32:25 PM"
Samplename : 	""
SampMemo(0) : 	""
SampMemo(1) : 	""
SampMemo(2) : 	""
SampMemo(3) : 	""
SampMemo(4) : 	""
SampMemo(5) : 	""
SampMemo(6) : 	""
SampMemo(7) : 	""
SampMemo(8) : 	""
SampMemo(9) : 	""
Temperature [K] :	     298.16000
Viscosity [cp]  :	       0.89000
Refractive Index:	       1.33200
Wavelength [nm] :	       0.00000
Angle [°]       :	       0.00000
Duration [s]    :	         1
FloatDur [ms]   :	          944
Stop TP [ms]   :	      3210
Runs            :	         1
Mode            :	"A-CH0+1  A-CH2+3 "
MeanCR0 [kHz]   :	     150.76214
MeanCR1 [kHz]   :	     143.55447
MeanCR2 [kHz]   :	     137.12459
MeanCR3 [kHz]   :	     139.70058

"Correlation"
  3.12500E-006	 -1.00000E+000	 -1.00000E+000	 -1.00000E+000	 -1.00000E+000
  6.25000E-006	 -1.00000E+000	 -1.00000E+000	 -1.00000E+000	 -1.00000E+000
  9.37500E-006	 -1.00000E+000	 -1.00000E+000	 -1.00000E+000	 -1.00000E+000
  1.25000E-005	 -1.00000E+000	 -1.00000E+000	 -1.00000E+000	 -1.00000E+000
  1.56250E-005	 -1.00000E+000	 -1.00000E+000	 -1.00000E+000	 -1.00000E+000
  1.87500E-005	 -1.00000E+000	 -1.00000E+000	 -1.00000E+000	 -1.00000E+000
  2.18750E-005	 -9.55245E-001	 -3.08928E-001	 -4.04899E-001	 -9.13128E-001
  2.50000E-005	  5.07180E+000	  5.72973E+000	  5.22151E+000	  9.72004E+000
  2.81250E-005	  1.81958E+000	  1.64911E+000	  1.12794E+000	  4.82044E+000
  3.12500E-005	  1.08858E+000	  6.94772E-001	  6.95137E-001	  2.24902E+000
  3.43750E-005	  1.01399E+000	  1.12258E+000	  1.27220E+000	  2.19690E+000
  3.75000E-005	  5.36598E-001	  7.27680E-001	  6.41036E-001	  1.62354E+000
  4.06250E-005	  6.85782E-001	  6.28956E-001	  6.95137E-001	  1.50192E+000
  4.37500E-005	  8.20048E-001	  3.16328E-001	  5.50870E-001	  1.25868E+000
  4.68750E-005	  8.79722E-001	  8.59313E-001	  8.21370E-001	  1.43242E+000
  5.00000E-005	  7.75293E-001	  6.70091E-001	  7.76287E-001	  1.24130E+000
  5.62500E-005	  8.87181E-001	  7.52361E-001	  3.79553E-001	  1.04150E+000
  6.25000E-005	  6.41027E-001	  6.20728E-001	  5.14803E-001	  8.85128E-001
  6.87500E-005	  5.21679E-001	  7.60588E-001	  7.67270E-001	  1.05887E+000
  7.50000E-005	  5.88812E-001	  4.80869E-001	  6.50053E-001	  8.33005E-001
  8.12500E-005	  4.24710E-001	  4.72642E-001	  4.33653E-001	  6.76635E-001
  8.75000E-005	  5.58975E-001	  2.99874E-001	  3.43486E-001	  6.76635E-001
  9.37500E-005	  5.29139E-001	  6.04274E-001	  6.32020E-001	  7.98256E-001
  1.00000E-004	  5.62705E-001	  6.74204E-001	  5.68903E-001	  7.33101E-001
  1.12500E-004	  5.96271E-001	  6.49523E-001	  5.01278E-001	  5.11577E-001
  1.25000E-004	  5.73894E-001	  5.30231E-001	  5.37344E-001	  5.76731E-001
  1.37500E-004	  5.66434E-001	  5.17890E-001	  4.47178E-001	  5.15921E-001
  1.50000E-004	  4.17250E-001	  4.97323E-001	  5.73411E-001	  4.24705E-001
  1.62500E-004	  4.54546E-001	  6.41296E-001	  4.33653E-001	  5.72388E-001
  1.75000E-004	  4.54546E-001	  5.63139E-001	  3.93077E-001	  4.89859E-001
  1.87500E-004	  3.94873E-001	  6.86545E-001	  5.55378E-001	  5.72388E-001
  2.00000E-004	  4.99301E-001	  5.50798E-001	  4.78736E-001	  6.04965E-001
  2.25000E-004	  5.73893E-001	  5.32287E-001	  4.20127E-001	  5.68044E-001
  2.50000E-004	  4.75059E-001	  5.11720E-001	  5.05786E-001	  4.94202E-001
  2.75000E-004	  5.16084E-001	  5.65195E-001	  4.80990E-001	  5.65872E-001
  3.00000E-004	  4.88112E-001	  5.09663E-001	  4.51686E-001	  4.81172E-001
  3.25000E-004	  5.23544E-001	  5.52855E-001	  5.03531E-001	  5.26780E-001
  3.50000E-004	  5.38462E-001	  5.13776E-001	  5.32836E-001	  5.91934E-001
  3.75000E-004	  4.88112E-001	  5.77536E-001	  4.74227E-001	  4.96374E-001
  4.00000E-004	  5.12354E-001	  6.32039E-001	  5.17056E-001	  4.89858E-001
  4.50000E-004	  5.23543E-001	  4.32534E-001	  4.88879E-001	  5.26779E-001
  5.00000E-004	  5.13287E-001	  4.82924E-001	  4.26889E-001	  4.37735E-001
  5.50000E-004	  5.36597E-001	  4.98350E-001	  4.42668E-001	  4.93116E-001
  6.00000E-004	  4.46154E-001	  4.47959E-001	  4.70845E-001	  5.34380E-001
  6.50000E-004	  5.26340E-001	  5.81649E-001	  4.57320E-001	  4.68140E-001
  7.00000E-004	  4.83450E-001	  4.89095E-001	  4.96768E-001	  4.65968E-001
  7.50000E-004	  4.88112E-001	  4.83953E-001	  4.11110E-001	  4.72484E-001
  8.00000E-004	  5.14684E-001	  5.10689E-001	  4.74789E-001	  5.01802E-001
  9.00000E-004	  5.02563E-001	  5.18402E-001	  4.99585E-001	  5.17547E-001
  1.00000E-003	  5.40791E-001	  5.45654E-001	  4.19562E-001	  4.93658E-001
  1.10000E-003	  4.77388E-001	  4.98863E-001	  4.99021E-001	  4.45335E-001
  1.20000E-003	  5.21677E-001	  5.01948E-001	  4.74225E-001	  5.00173E-001
  1.30000E-003	  4.73192E-001	  5.06576E-001	  4.93386E-001	  4.94755E-001
  1.40000E-003	  5.03029E-001	  4.61327E-001	  4.61264E-001	  5.08329E-001
  1.50000E-003	  4.92306E-001	  4.72639E-001	  4.75352E-001	  4.95298E-001
  1.60000E-003	  5.12350E-001	  5.26627E-001	  4.80704E-001	  5.28687E-001
  1.80000E-003	  4.85311E-001	  4.87034E-001	  4.58444E-001	  4.62175E-001
  2.00000E-003	  4.81348E-001	  5.29198E-001	  4.83803E-001	  4.68148E-001
  2.20000E-003	  4.84378E-001	  5.04516E-001	  4.55063E-001	  5.14842E-001
  2.40000E-003	  4.56873E-001	  4.99889E-001	  4.63516E-001	  4.90952E-001
  2.60000E-003	  5.00695E-001	  4.69295E-001	  4.81831E-001	  4.72491E-001
  2.80000E-003	  4.67828E-001	  5.13515E-001	  4.51681E-001	  4.75749E-001
  3.00000E-003	  4.58737E-001	  4.98346E-001	  4.81549E-001	  4.98825E-001
  3.20000E-003	  4.81110E-001	  4.97335E-001	  4.71541E-001	  4.79816E-001
  3.60000E-003	  4.95562E-001	  5.09676E-001	  4.66469E-001	  5.02620E-001
  4.00000E-003	  5.17940E-001	  5.09290E-001	  4.67174E-001	  5.03842E-001
  4.40000E-003	  4.99525E-001	  4.84994E-001	  4.40828E-001	  4.98955E-001
  4.80000E-003	  4.84140E-001	  4.58899E-001	  4.88306E-001	  4.84567E-001
  5.20000E-003	  4.91599E-001	  5.06719E-001	  4.69569E-001	  4.55383E-001
  5.60000E-003	  5.03487E-001	  5.01448E-001	  4.73091E-001	  4.62577E-001
  6.00000E-003	  4.82275E-001	  4.77281E-001	  4.45618E-001	  4.93661E-001
  6.40000E-003	  4.85433E-001	  4.85542E-001	  4.64698E-001	  4.62975E-001
  7.20000E-003	  4.76342E-001	  4.86892E-001	  4.70968E-001	  4.85236E-001
  8.00000E-003	  4.87006E-001	  4.96329E-001	  4.65684E-001	  4.85575E-001
  8.80000E-003	  4.79547E-001	  4.99854E-001	  4.45397E-001	  4.89443E-001
  9.60000E-003	  4.83160E-001	  4.85263E-001	  4.41664E-001	  4.67261E-001
  1.04000E-002	  4.66785E-001	  4.65274E-001	  4.67939E-001	  4.46980E-001
  1.12000E-002	  4.75177E-001	  5.02489E-001	  4.37860E-001	  4.61436E-001
  1.20000E-002	  4.81062E-001	  4.73051E-001	  4.69981E-001	  4.71616E-001
  1.28000E-002	  4.71061E-001	  4.91093E-001	  4.52585E-001	  4.68972E-001
  1.44000E-002	  4.73974E-001	  4.86336E-001	  4.55026E-001	  4.64266E-001
  1.60000E-002	  4.68496E-001	  4.74456E-001	  4.38825E-001	  4.61721E-001
  1.76000E-002	  4.55724E-001	  4.60391E-001	  4.40914E-001	  4.53949E-001
  1.92000E-002	  4.62619E-001	  4.57905E-001	  4.36639E-001	  4.52795E-001
  2.08000E-002	  4.52537E-001	  4.64161E-001	  4.31567E-001	  4.40679E-001
  2.24000E-002	  4.35842E-001	  4.55838E-001	  4.21423E-001	  4.30633E-001
  2.40000E-002	  4.43301E-001	  4.52067E-001	  4.24981E-001	  4.30010E-001
  2.56000E-002	  4.40745E-001	  4.50019E-001	  4.15987E-001	  4.36056E-001
  2.88000E-002	  4.38210E-001	  4.38063E-001	  4.15434E-001	  4.37773E-001
  3.20000E-002	  4.22825E-001	  4.29385E-001	  3.94882E-001	  4.28224E-001
  3.52000E-002	  4.10426E-001	  4.29851E-001	  3.90479E-001	  4.12939E-001
  3.84000E-002	  4.16113E-001	  4.13605E-001	  3.82378E-001	  4.08650E-001
  4.16000E-002	  4.08867E-001	  3.99512E-001	  3.65922E-001	  3.97777E-001
  4.48000E-002	  3.92924E-001	  3.91402E-001	  3.78031E-001	  3.98188E-001
  4.80000E-002	  3.93895E-001	  3.88548E-001	  3.58986E-001	  3.86319E-001
  5.12000E-002	  3.84013E-001	  3.84147E-001	  3.57825E-001	  3.76515E-001
  5.76000E-002	  3.69452E-001	  3.76776E-001	  3.39941E-001	  3.59109E-001
  6.40000E-002	  3.51137E-001	  3.58026E-001	  3.20057E-001	  3.45329E-001
  7.04000E-002	  3.39814E-001	  3.43882E-001	  3.12283E-001	  3.36280E-001
  7.68000E-002	  3.25885E-001	  3.30203E-001	  3.04726E-001	  3.22203E-001
  8.32000E-002	  3.13633E-001	  3.20565E-001	  2.91916E-001	  3.11951E-001
  8.96000E-002	  3.02556E-001	  3.03562E-001	  2.82346E-001	  2.94087E-001
  9.60000E-002	  2.94576E-001	  2.94811E-001	  2.71919E-001	  2.86360E-001
  1.02400E-001	  2.87243E-001	  2.83823E-001	  2.58039E-001	  2.75600E-001
  1.15200E-001	  2.69416E-001	  2.68909E-001	  2.41851E-001	  2.55170E-001
  1.28000E-001	  2.48549E-001	  2.55477E-001	  2.21408E-001	  2.43907E-001
  1.40800E-001	  2.36326E-001	  2.36754E-001	  2.07722E-001	  2.29582E-001
  1.53600E-001	  2.21228E-001	  2.25543E-001	  1.98004E-001	  2.10628E-001
  1.66400E-001	  2.07240E-001	  2.13507E-001	  1.81022E-001	  1.98980E-001
  1.79200E-001	  1.95654E-001	  1.99931E-001	  1.69185E-001	  1.84159E-001
  1.92000E-001	  1.83272E-001	  1.85420E-001	  1.53460E-001	  1.75991E-001
  2.04800E-001	  1.76906E-001	  1.75872E-001	  1.48479E-001	  1.71693E-001
  2.30400E-001	  1.59148E-001	  1.59786E-001	  1.34230E-001	  1.46077E-001
  2.56000E-001	  1.45018E-001	  1.44178E-001	  1.17786E-001	  1.35835E-001
  2.81600E-001	  1.35220E-001	  1.31453E-001	  1.07090E-001	  1.22631E-001
  3.07200E-001	  1.22989E-001	  1.21390E-001	  9.49957E-002	  1.09484E-001
  3.32800E-001	  1.13258E-001	  1.11178E-001	  8.82388E-002	  9.66437E-002
  3.58400E-001	  1.02440E-001	  9.86018E-002	  7.91860E-002	  8.82919E-002
  3.84000E-001	  9.42972E-002	  9.16528E-002	  7.48898E-002	  7.89964E-002
  4.09600E-001	  8.73136E-002	  8.43877E-002	  6.81872E-002	  7.04948E-002
  4.60800E-001	  7.35414E-002	  7.48779E-002	  6.05983E-002	  5.56675E-002
  5.12000E-001	  6.64701E-002	  6.64635E-002	  5.39017E-002	  4.79978E-002
  5.63200E-001	  5.77492E-002	  5.88921E-002	  4.68390E-002	  4.44163E-002
  6.14400E-001	  5.12323E-002	  5.12625E-002	  4.41930E-002	  3.70261E-002
  6.65600E-001	  4.59528E-002	  4.23451E-002	  3.73714E-002	  3.66639E-002
  7.16800E-001	  3.73563E-002	  3.71785E-002	  3.36284E-002	  3.01009E-002
  7.68000E-001	  2.93891E-002	  3.40157E-002	  3.68351E-002	  2.49170E-002
  8.19200E-001	  2.43816E-002	  2.76920E-002	  3.69094E-002	  2.21493E-002
  9.21600E-001	  1.99720E-002	  2.37081E-002	  3.55334E-002	  2.46860E-002
  1.02400E+000	  1.83190E-002	  1.50116E-002	  2.50351E-002	  2.07156E-002
  1.12640E+000	  2.22253E-002	  9.59272E-003	  2.07969E-002	  2.01872E-002
  1.22880E+000	  2.02741E-002	  7.12858E-003	  2.37071E-002	  1.71895E-002
  1.33120E+000	  1.70413E-002	  1.29502E-002	  2.68520E-002	  1.79075E-002
  1.43360E+000	  1.24824E-002	  1.54376E-002	  2.64861E-002	  1.67427E-002
  1.53600E+000	  1.06244E-002	  1.09146E-002	  2.10947E-002	  1.12429E-002
  1.63840E+000	  8.16913E-003	  8.63460E-003	  1.05674E-002	  7.26166E-003
  1.84320E+000	  6.04266E-003	 -9.76170E-004	 -1.69049E-003	  2.18126E-003
  2.04800E+000	  1.35647E-003	 -1.93104E-002	 -8.87580E-003	 -3.74847E-003
  2.25280E+000	  7.92878E-003	 -1.67881E-002	 -1.11272E-002	 -6.71900E-003
  2.45760E+000	  6.58609E-003	 -1.25772E-002	 -1.55548E-002	 -4.47933E-003
  2.66240E+000	  4.04887E-003	 -8.35915E-003	 -2.06077E-002	 -1.73055E-004
  2.86720E+000	  6.09095E-003	 -2.29087E-003	 -1.49244E-002	 -6.87526E-004
  3.07200E+000	  5.31933E-003	  2.89526E-003	 -8.76254E-003	 -7.63396E-005
  3.27680E+000	  1.04495E-003	  7.53489E-003	 -2.75667E-003	 -2.52158E-004
  3.68640E+000	 -1.81339E-003	 -5.17467E-003	 -9.97214E-003	 -3.45071E-003
  4.09600E+000	  1.19734E-002	 -9.29233E-003	 -1.17679E-002	 -6.21017E-003
  4.50560E+000	  1.14212E-002	 -4.38595E-003	 -1.04024E-002	 -5.75611E-003
  4.91520E+000	  3.61008E-003	 -3.90096E-003	 -5.00907E-003	 -7.27014E-003
  5.32480E+000	  9.68425E-003	 -8.58136E-003	 -1.58509E-003	 -6.38248E-003
  5.73440E+000	  1.18300E-002	 -7.21202E-004	 -1.69905E-003	  8.10967E-003
  6.14400E+000	  6.57906E-003	  8.33372E-004	  8.48800E-003	  1.17836E-002
  6.55360E+000	 -5.94763E-004	  2.79611E-003	  9.34874E-003	  2.10823E-003
  7.37280E+000	  4.50468E-003	  5.98947E-003	  1.04347E-002	 -3.64363E-003
  8.19200E+000	 -6.25704E-003	  1.34098E-002	  1.09235E-002	 -3.64793E-003
  9.01120E+000	 -7.59529E-003	  7.32408E-004	  5.47038E-004	 -4.10716E-003
  9.83040E+000	 -7.48079E-003	  1.60844E-003	  3.22522E-003	 -1.01590E-002
  1.06496E+001	 -1.04780E-002	  1.43680E-002	 -6.50400E-003	 -5.75676E-003
  1.14688E+001	 -5.57896E-003	  4.94815E-003	 -1.08861E-002	  4.40099E-004
  1.22880E+001	 -5.61161E-003	 -1.36997E-002	 -2.19829E-003	  1.04569E-003
  1.31072E+001	 -9.67656E-003	 -4.24660E-003	 -3.65238E-003	 -5.28332E-003
  1.47456E+001	 -2.54708E-003	  5.12234E-004	  4.92507E-003	 -3.06415E-003
  1.63840E+001	 -2.49447E-003	  2.49615E-003	  3.39600E-003	  1.95654E-003
  1.80224E+001	 -5.15153E-003	  8.30653E-003	 -3.66231E-003	 -7.37186E-003
  1.96608E+001	 -1.45117E-003	  2.55168E-003	 -3.21333E-003	 -1.92374E-003
  2.12992E+001	  1.14120E-003	  5.09007E-003	 -6.17697E-003	 -2.19016E-004
  2.29376E+001	  1.41360E-003	 -9.81513E-003	 -8.74928E-003	 -1.21971E-002
  2.45760E+001	  4.32411E-003	 -3.46988E-003	 -9.75806E-003	 -2.37978E-003
  2.62144E+001	  2.49068E-003	  6.99623E-003	 -3.67457E-003	  3.18790E-003
  2.94912E+001	 -4.42189E-003	  4.41753E-003	 -1.17851E-003	  6.31894E-003
  3.27680E+001	 -1.04274E-002	 -3.04032E-003	 -7.13910E-004	  1.69598E-004
  3.60448E+001	  3.45024E-003	 -5.72667E-003	  8.60840E-004	  2.22866E-003
  3.93216E+001	  3.43164E-004	 -4.16986E-003	 -2.29580E-003	 -7.09285E-003
  4.25984E+001	  1.99119E-003	  3.48806E-003	  8.17579E-003	 -1.86550E-003
  4.58752E+001	 -3.52351E-003	 -9.46204E-005	  1.27104E-003	 -5.08431E-003
  4.91520E+001	 -4.25694E-003	 -8.98876E-004	  5.97285E-003	  1.21174E-003
  5.24288E+001	 -3.34261E-003	 -2.93123E-003	  3.59114E-003	  5.90451E-003
  5.89824E+001	 -5.32101E-003	  2.74908E-003	  2.77393E-003	 -2.02077E-003
  6.55360E+001	  2.62945E-003	  1.41339E-003	 -1.11798E-003	 -4.49665E-003
  7.20896E+001	  9.00421E-004	  3.42569E-003	 -7.20656E-003	 -2.32526E-003
  7.86432E+001	  2.24849E-003	  6.54194E-004	 -9.30583E-004	  3.06168E-003
  8.51968E+001	 -4.27977E-003	 -2.01712E-003	 -6.20785E-004	  2.55918E-003
  9.17504E+001	  5.79094E-003	 -1.56939E-003	  1.96778E-003	  1.06257E-004
  9.83040E+001	  5.79599E-003	 -1.92680E-003	 -1.12987E-003	 -2.45162E-003
  1.04858E+002	  1.93841E-003	  4.03176E-004	  2.40077E-003	 -9.22281E-006
  1.17965E+002	 -6.21547E-004	 -1.45126E-004	 -2.14639E-004	 -3.31257E-003
  1.31072E+002	  1.46875E-003	 -3.28508E-004	 -4.11420E-003	  4.43880E-003
  1.44179E+002	 -2.54328E-003	 -4.51669E-004	  1.14682E-003	 -3.74153E-003
  1.57286E+002	 -7.40690E-005	 -2.41138E-005	  1.98188E-003	 -6.71707E-004
  1.70394E+002	 -2.91291E-003	 -2.26007E-003	 -1.28423E-003	 -4.99776E-003
  1.83501E+002	  2.11840E-003	 -3.91580E-003	 -2.34401E-003	  2.07662E-003
  1.96608E+002	 -3.34546E-003	 -3.67594E-003	  4.15588E-003	 -2.83750E-003
  2.09715E+002	  5.72386E-004	 -1.09134E-003	  1.24700E-003	 -6.09999E-004
  2.35930E+002	 -1.26149E-003	 -1.48871E-004	 -9.91870E-004	 -1.50201E-003
  2.62144E+002	  5.56520E-004	 -7.91542E-004	  1.84126E-003	  2.19776E-003
  2.88358E+002	 -1.21372E-003	  5.52641E-004	 -2.07487E-003	 -3.73713E-004
  3.14573E+002	 -2.42765E-003	 -8.31249E-004	  3.75546E-004	  7.72606E-004
  3.40787E+002	  2.46207E-003	 -2.70269E-005	 -1.55060E-003	  2.42206E-004
  3.67002E+002	  1.65266E-003	 -3.35645E-003	  1.66025E-003	  5.50209E-004
  3.93216E+002	 -9.32701E-004	  1.93203E-003	 -4.71404E-004	  9.73686E-004

"Count Rate"
       0.01311	     168.76221	     147.24731	     152.96936	     139.23645
       0.02621	     254.97437	     124.13025	     112.53357	     145.95032
       0.03932	     109.78699	     114.36462	     147.78137	     132.44629
       0.05243	     162.42981	     128.93677	     123.36731	     129.24194
       0.06554	     151.74866	     140.53345	     130.31006	     129.47083
       0.07864	     148.69690	     137.17651	     159.14917	     146.33179
       0.09175	     155.48706	     158.23364	     167.16003	     125.12207
       0.10486	     120.77332	     182.11365	     115.96680	     194.09180
       0.11796	     173.87390	     165.25269	     127.56348	     107.26929
       0.13107	     121.45996	     165.71045	     174.02649	     156.17371
       0.14418	     165.55786	     131.30188	     103.30200	     132.75146
       0.15729	     133.05664	     160.98022	     121.91772	     118.78967
       0.17039	     180.05371	     129.08936	     116.72974	     124.96948
       0.18350	     143.50891	     136.79504	     147.01843	     148.62061
       0.19661	     147.01843	     137.32910	     131.83594	     151.74866
       0.20972	     146.63696	     139.31274	     150.60425	     122.37549
       0.22282	     123.29102	     175.47607	     132.14111	     164.79492
       0.23593	     131.30188	     147.55249	     164.33716	     138.93127
       0.24904	     121.00220	     144.04297	     141.52527	     112.07581
       0.26214	     157.01294	     127.94495	     116.80603	     134.58252
       0.27525	     160.29358	     141.52527	     139.92310	     139.00757
       0.28836	     130.31006	     173.41614	     153.35083	     132.44629
       0.30147	     165.55786	     152.58789	     119.62891	     110.93140
       0.31457	     128.78418	     126.49536	     136.03210	     145.95032
       0.32768	     138.47351	     124.89319	     165.10010	     148.46802
       0.34079	     156.09741	     126.72424	     127.25830	     143.89038
       0.35389	     158.46252	     158.46252	     112.53357	     134.81140
       0.36700	     128.02124	     137.86316	     145.79773	     145.33997
       0.38011	     147.62878	     182.87659	     155.02930	     132.90405
       0.39322	     144.80591	     138.62610	     120.46814	     138.32092
       0.40632	     190.65857	     127.41089	     131.14929	     128.09753
       0.41943	     151.21460	     139.54163	     140.22827	     163.04016
       0.43254	     155.10559	     139.77051	     129.16565	     123.29102
       0.44564	     119.40002	     137.63428	     121.07849	     153.19824
       0.45875	     148.31543	     121.45996	     118.78967	     109.78699
       0.47186	     148.01025	     110.85510	     160.21729	     173.64502
       0.48497	     162.73499	     117.87415	     163.87939	     140.38086
       0.49807	     152.81677	     128.25012	     115.05127	     138.54980
       0.51118	     134.27734	     150.60425	     146.33179	     124.58801
       0.52429	     157.62329	     150.45166	     123.29102	     158.30994
       0.53740	     154.87671	     111.23657	     159.45435	     116.65344
       0.55050	     147.78137	     138.85498	     133.36182	     159.22546
       0.56361	     162.20093	     151.90125	     126.19019	     113.90686
       0.57672	     157.01294	     113.67798	     123.06213	     129.69971
       0.58982	     135.04028	     143.12744	     148.08655	     139.16016
       0.60293	     122.68066	     150.37537	     134.88770	     139.54163
       0.61604	     133.97217	     163.04016	     119.93408	     119.40002
       0.62915	     142.97485	     171.12732	     130.76782	     132.82776
       0.64225	     149.84131	     158.84399	     136.48987	     113.67798
       0.65536	     152.74048	     136.26099	     167.99927	     118.71338
       0.66847	     138.70239	     173.56873	     132.29370	     123.82507
       0.68157	     156.78406	     129.24194	     135.19287	     170.82214
       0.69468	     111.08398	     137.55798	     119.78149	     147.09473
       0.70779	     138.39722	     148.69690	     154.49524	     120.69702
       0.72090	     133.66699	     167.23633	     126.80054	     126.26648
       0.73400	     139.08386	     136.03210	     144.65332	     154.03748
       0.74711	     197.75391	     142.59338	     152.74048	     119.85779
