ALV-7004/USB-FAST
Date :	"3/14/2024"
Time :	"12:37:20 PM"
Samplename : 	""
SampMemo(0) : 	""
SampMemo(1) : 	""
SampMemo(2) : 	""
SampMemo(3) : 	""
SampMemo(4) : 	""
SampMemo(5) : 	""
SampMemo(6) : 	""
SampMemo(7) : 	""
SampMemo(8) : 	""
SampMemo(9) : 	""
Temperature [K] :	     298.16000
Viscosity [cp]  :	       0.89000
Refractive Index:	       1.33200
Wavelength [nm] :	       0.00000
Angle [°]       :	       0.00000
Duration [s]    :	         1
FloatDur [ms]   :	          944
Stop TP [ms]   :	      4071
Runs            :	         1
Mode            :	"A-CH0+1  A-CH2+3 "
MeanCR0 [kHz]   :	     136.07448
MeanCR1 [kHz]   :	     137.06208
MeanCR2 [kHz]   :	     142.20873
MeanCR3 [kHz]   :	     140.32788

"Correlation"
  3.12500E-006	 -1.00000E+000	 -1.00000E+000	 -1.00000E+000	 -1.00000E+000
  6.25000E-006	 -1.00000E+000	 -1.00000E+000	 -1.00000E+000	 -1.00000E+000
  9.37500E-006	 -1.00000E+000	 -1.00000E+000	 -1.00000E+000	 -1.00000E+000
  1.25000E-005	 -1.00000E+000	 -1.00000E+000	 -1.00000E+000	 -1.00000E+000
  1.56250E-005	 -1.00000E+000	 -1.00000E+000	 -1.00000E+000	 -1.00000E+000
  1.87500E-005	 -1.00000E+000	 -1.00000E+000	 -1.00000E+000	 -1.00000E+000
  2.18750E-005	 -9.45062E-001	 -4.76555E-001	 -3.29321E-001	 -9.48342E-001
  2.50000E-005	  5.18972E+000	  6.05748E+000	  5.17025E+000	  9.76217E+000
  2.81250E-005	  2.05823E+000	  1.77967E+000	  1.17971E+000	  3.99364E+000
  3.12500E-005	  8.31277E-001	  1.03963E+000	  8.44368E-001	  2.09950E+000
  3.43750E-005	  1.08766E+000	  4.80085E-001	  7.60533E-001	  1.75511E+000
  3.75000E-005	  7.03088E-001	  1.07573E+000	  3.74893E-001	  1.61736E+000
  4.06250E-005	  5.74898E-001	  7.14733E-001	  5.76097E-001	  1.47960E+000
  4.37500E-005	  7.03088E-001	  5.34235E-001	  5.25796E-001	  1.44516E+000
  4.68750E-005	  4.65022E-001	  5.16185E-001	  5.76097E-001	  1.06634E+000
  5.00000E-005	  8.95372E-001	  6.69609E-001	  5.17412E-001	  9.63019E-001
  5.62500E-005	  6.75619E-001	  4.62036E-001	  5.42563E-001	  9.19970E-001
  6.25000E-005	  5.84055E-001	  6.78633E-001	  5.09029E-001	  1.17826E+000
  6.87500E-005	  5.19960E-001	  6.42534E-001	  5.50946E-001	  7.21946E-001
  7.50000E-005	  6.75619E-001	  4.43986E-001	  1.23388E-001	  7.82214E-001
  8.12500E-005	  4.37553E-001	  6.87658E-001	  5.17412E-001	  7.04727E-001
  8.75000E-005	  5.65742E-001	  4.34961E-001	  5.25796E-001	  4.03386E-001
  9.37500E-005	  5.29116E-001	  6.87658E-001	  5.34179E-001	  5.15313E-001
  1.00000E-004	  6.52727E-001	  6.42534E-001	  6.64123E-001	  6.40154E-001
  1.12500E-004	  5.84055E-001	  4.98135E-001	  6.01247E-001	  6.57373E-001
  1.25000E-004	  5.79476E-001	  4.48498E-001	  5.00645E-001	  6.18629E-001
  1.37500E-004	  5.01647E-001	  4.48498E-001	  6.30589E-001	  7.04727E-001
  1.50000E-004	  5.56585E-001	  6.65096E-001	  5.46754E-001	  4.20606E-001
  1.62500E-004	  4.19240E-001	  4.62035E-001	  5.38371E-001	  5.66971E-001
  1.75000E-004	  6.20680E-001	  4.16911E-001	  4.71303E-001	  5.58361E-001
  1.87500E-004	  5.61164E-001	  4.80085E-001	  5.17412E-001	  5.36837E-001
  2.00000E-004	  5.03936E-001	  5.07160E-001	  5.38370E-001	  5.11007E-001
  2.25000E-004	  5.03936E-001	  4.98135E-001	  5.11124E-001	  5.19617E-001
  2.50000E-004	  4.19239E-001	  4.32704E-001	  5.21603E-001	  5.56208E-001
  2.75000E-004	  5.38272E-001	  5.68078E-001	  4.92261E-001	  4.74416E-001
  3.00000E-004	  4.48998E-001	  6.56071E-001	  4.52440E-001	  5.08855E-001
  3.25000E-004	  5.56585E-001	  5.29722E-001	  5.09028E-001	  6.05714E-001
  3.50000E-004	  5.13092E-001	  4.12398E-001	  5.02741E-001	  5.08855E-001
  3.75000E-004	  4.69599E-001	  5.59053E-001	  4.27289E-001	  4.63654E-001
  4.00000E-004	  5.14236E-001	  4.86853E-001	  5.04836E-001	  4.95940E-001
  4.50000E-004	  5.48573E-001	  4.75572E-001	  4.99596E-001	  4.48586E-001
  5.00000E-004	  4.70743E-001	  5.09415E-001	  4.50343E-001	  4.33519E-001
  5.50000E-004	  5.01646E-001	  5.26337E-001	  4.77589E-001	  4.89482E-001
  6.00000E-004	  5.06224E-001	  4.59778E-001	  4.71302E-001	  3.99080E-001
  6.50000E-004	  5.01646E-001	  4.80084E-001	  5.46753E-001	  4.53967E-001
  7.00000E-004	  4.74177E-001	  4.92494E-001	  4.62918E-001	  4.52891E-001
  7.50000E-004	  4.95923E-001	  5.36490E-001	  4.40912E-001	  4.71187E-001
  8.00000E-004	  4.58724E-001	  5.33104E-001	  4.35671E-001	  4.76028E-001
  9.00000E-004	  5.31403E-001	  4.68238E-001	  5.05882E-001	  4.69033E-001
  1.00000E-003	  4.61013E-001	  4.80083E-001	  4.66061E-001	  4.07689E-001
  1.10000E-003	  4.69598E-001	  5.03773E-001	  4.54010E-001	  4.55042E-001
  1.20000E-003	  4.70742E-001	  5.25772E-001	  5.11122E-001	  4.56657E-001
  1.30000E-003	  4.97639E-001	  4.86288E-001	  5.07454E-001	  4.58271E-001
  1.40000E-003	  4.93061E-001	  5.00389E-001	  4.96451E-001	  4.99167E-001
  1.50000E-003	  5.01073E-001	  5.32540E-001	  4.54010E-001	  4.24370E-001
  1.60000E-003	  4.85058E-001	  5.05181E-001	  4.98806E-001	  4.25444E-001
  1.80000E-003	  4.71896E-001	  5.31128E-001	  4.84921E-001	  4.60421E-001
  2.00000E-003	  4.84772E-001	  4.97848E-001	  4.69988E-001	  4.68762E-001
  2.20000E-003	  5.02238E-001	  5.11950E-001	  4.83087E-001	  4.80600E-001
  2.40000E-003	  5.01105E-001	  4.99540E-001	  4.89899E-001	  4.70645E-001
  2.60000E-003	  5.03680E-001	  4.81209E-001	  4.67106E-001	  4.77909E-001
  2.80000E-003	  5.04539E-001	  5.22960E-001	  4.91995E-001	  4.32977E-001
  3.00000E-003	  4.73635E-001	  5.01244E-001	  4.74453E-001	  4.98357E-001
  3.20000E-003	  4.72927E-001	  5.09994E-001	  5.02873E-001	  4.69440E-001
  3.60000E-003	  4.82655E-001	  4.92508E-001	  4.67243E-001	  4.69844E-001
  4.00000E-003	  4.59335E-001	  5.22544E-001	  4.80997E-001	  4.52086E-001
  4.40000E-003	  4.93827E-001	  5.17044E-001	  4.80866E-001	  4.52490E-001
  4.80000E-003	  4.57761E-001	  4.93072E-001	  4.72614E-001	  4.47512E-001
  5.20000E-003	  4.53183E-001	  4.83060E-001	  4.80997E-001	  4.69575E-001
  5.60000E-003	  4.68921E-001	  4.95046E-001	  4.54013E-001	  4.32445E-001
  6.00000E-003	  4.97249E-001	  4.87995E-001	  4.71828E-001	  4.48869E-001
  6.40000E-003	  4.78222E-001	  5.03179E-001	  4.68019E-001	  4.54711E-001
  7.20000E-003	  4.67849E-001	  4.87244E-001	  4.76468E-001	  4.57065E-001
  8.00000E-003	  4.73143E-001	  4.94154E-001	  4.78630E-001	  4.34464E-001
  8.80000E-003	  4.58692E-001	  4.84847E-001	  4.67954E-001	  4.33264E-001
  9.60000E-003	  4.62484E-001	  4.98584E-001	  4.81642E-001	  4.54789E-001
  1.04000E-002	  4.57845E-001	  4.89641E-001	  4.54855E-001	  4.54587E-001
  1.12000E-002	  4.56475E-001	  4.99947E-001	  4.64221E-001	  4.48533E-001
  1.20000E-002	  4.63199E-001	  4.72519E-001	  4.68543E-001	  4.50282E-001
  1.28000E-002	  4.53245E-001	  4.81593E-001	  4.61494E-001	  4.53849E-001
  1.44000E-002	  4.62092E-001	  4.89243E-001	  4.70139E-001	  4.52414E-001
  1.60000E-002	  4.48106E-001	  4.88609E-001	  4.50458E-001	  4.38288E-001
  1.76000E-002	  4.57156E-001	  4.77891E-001	  4.57171E-001	  4.39902E-001
  1.92000E-002	  4.53304E-001	  4.85460E-001	  4.62017E-001	  4.44140E-001
  2.08000E-002	  4.32283E-001	  4.73555E-001	  4.44170E-001	  4.27727E-001
  2.24000E-002	  4.40724E-001	  4.71157E-001	  4.50239E-001	  4.35978E-001
  2.40000E-002	  4.36135E-001	  4.62778E-001	  4.42674E-001	  4.19228E-001
  2.56000E-002	  4.32096E-001	  4.55426E-001	  4.38422E-001	  4.32391E-001
  2.88000E-002	  4.28734E-001	  4.56814E-001	  4.42073E-001	  4.22356E-001
  3.20000E-002	  4.17641E-001	  4.51437E-001	  4.23456E-001	  4.14093E-001
  3.52000E-002	  4.20632E-001	  4.50609E-001	  4.22981E-001	  4.07820E-001
  3.84000E-002	  4.07633E-001	  4.35877E-001	  4.20165E-001	  4.02675E-001
  4.16000E-002	  3.97081E-001	  4.30066E-001	  4.05816E-001	  4.02288E-001
  4.48000E-002	  3.90374E-001	  4.21187E-001	  4.02066E-001	  3.87449E-001
  4.80000E-002	  4.02039E-001	  4.18483E-001	  4.08518E-001	  3.77688E-001
  5.12000E-002	  3.90341E-001	  4.16307E-001	  3.91316E-001	  3.75419E-001
  5.76000E-002	  3.77416E-001	  4.02530E-001	  3.79617E-001	  3.72976E-001
  6.40000E-002	  3.63883E-001	  3.90439E-001	  3.71375E-001	  3.61279E-001
  7.04000E-002	  3.49871E-001	  3.81900E-001	  3.67251E-001	  3.53153E-001
  7.68000E-002	  3.42308E-001	  3.75405E-001	  3.52336E-001	  3.45419E-001
  8.32000E-002	  3.33468E-001	  3.55427E-001	  3.44724E-001	  3.29109E-001
  8.96000E-002	  3.20206E-001	  3.51892E-001	  3.26908E-001	  3.13546E-001
  9.60000E-002	  3.16550E-001	  3.48666E-001	  3.33539E-001	  3.12715E-001
  1.02400E-001	  3.06857E-001	  3.38870E-001	  3.17785E-001	  3.05962E-001
  1.15200E-001	  2.85420E-001	  3.19984E-001	  3.00926E-001	  2.90744E-001
  1.28000E-001	  2.70959E-001	  3.03533E-001	  2.83143E-001	  2.77119E-001
  1.40800E-001	  2.58673E-001	  2.87415E-001	  2.67147E-001	  2.65950E-001
  1.53600E-001	  2.45781E-001	  2.76307E-001	  2.57319E-001	  2.48598E-001
  1.66400E-001	  2.32315E-001	  2.58047E-001	  2.46492E-001	  2.40300E-001
  1.79200E-001	  2.18950E-001	  2.49929E-001	  2.36349E-001	  2.27263E-001
  1.92000E-001	  2.14804E-001	  2.40284E-001	  2.22750E-001	  2.14060E-001
  2.04800E-001	  2.07602E-001	  2.27912E-001	  2.17709E-001	  2.08901E-001
  2.30400E-001	  1.81956E-001	  2.14483E-001	  2.01471E-001	  1.88059E-001
  2.56000E-001	  1.68206E-001	  1.95720E-001	  1.86435E-001	  1.74093E-001
  2.81600E-001	  1.49906E-001	  1.84531E-001	  1.71555E-001	  1.58620E-001
  3.07200E-001	  1.37433E-001	  1.73593E-001	  1.62182E-001	  1.50281E-001
  3.32800E-001	  1.26684E-001	  1.62521E-001	  1.47652E-001	  1.43708E-001
  3.58400E-001	  1.13226E-001	  1.51091E-001	  1.36428E-001	  1.35378E-001
  3.84000E-001	  9.85811E-002	  1.45046E-001	  1.26304E-001	  1.26606E-001
  4.09600E-001	  9.07612E-002	  1.37345E-001	  1.17726E-001	  1.18583E-001
  4.60800E-001	  8.42205E-002	  1.23943E-001	  1.03111E-001	  1.00767E-001
  5.12000E-001	  7.08889E-002	  1.10180E-001	  8.55423E-002	  8.96239E-002
  5.63200E-001	  6.69680E-002	  9.95137E-002	  7.38084E-002	  7.98648E-002
  6.14400E-001	  6.10992E-002	  9.07817E-002	  5.69332E-002	  7.39042E-002
  6.65600E-001	  5.75777E-002	  8.04656E-002	  4.75569E-002	  6.93207E-002
  7.16800E-001	  4.89743E-002	  7.43198E-002	  3.91941E-002	  6.09086E-002
  7.68000E-001	  4.67001E-002	  6.68506E-002	  3.14882E-002	  5.28234E-002
  8.19200E-001	  4.00240E-002	  6.23328E-002	  2.96289E-002	  4.67665E-002
  9.21600E-001	  3.19589E-002	  5.52960E-002	  2.72791E-002	  4.00241E-002
  1.02400E+000	  2.43561E-002	  4.57627E-002	  2.05439E-002	  3.55058E-002
  1.12640E+000	  1.64172E-002	  3.89634E-002	  8.10417E-003	  3.10702E-002
  1.22880E+000	  7.73712E-003	  3.76992E-002	  2.84632E-003	  2.26398E-002
  1.33120E+000	  2.40530E-003	  3.17992E-002	 -4.17489E-003	  1.47425E-002
  1.43360E+000	 -9.54419E-003	  3.02486E-002	 -7.08219E-003	  1.08798E-002
  1.53600E+000	 -7.89067E-003	  2.97104E-002	 -4.65497E-003	  7.02325E-003
  1.63840E+000	 -5.74563E-003	  2.83362E-002	 -1.07241E-002	  4.01055E-003
  1.84320E+000	 -3.60755E-003	  1.91588E-002	 -1.56355E-002	  2.20426E-003
  2.04800E+000	 -9.22013E-003	  1.22207E-002	 -1.38933E-002	  1.75757E-004
  2.25280E+000	 -8.78892E-003	  2.24146E-003	 -1.67855E-002	  5.50591E-004
  2.45760E+000	 -4.23669E-003	 -3.35011E-003	 -1.00803E-002	 -6.20973E-004
  2.66240E+000	 -8.76702E-003	 -3.45140E-003	 -4.38504E-003	 -5.28755E-004
  2.86720E+000	 -6.67346E-003	 -5.78268E-004	  1.52522E-003	 -6.58248E-003
  3.07200E+000	  5.05801E-004	  1.19910E-003	  8.04026E-003	 -5.76113E-003
  3.27680E+000	  9.32863E-003	  6.05221E-003	  4.74747E-003	  3.81568E-004
  3.68640E+000	  1.91253E-002	  1.28390E-002	 -2.25639E-003	 -1.22186E-003
  4.09600E+000	  1.97701E-002	  1.97731E-002	 -1.90991E-003	 -1.19540E-002
  4.50560E+000	  1.42934E-002	  1.96178E-002	 -2.22302E-003	 -6.69556E-003
  4.91520E+000	  8.05975E-003	  1.86996E-002	  4.83804E-003	 -2.80752E-003
  5.32480E+000	  2.63015E-004	  1.18865E-002	  3.18412E-003	 -9.36064E-003
  5.73440E+000	  5.08127E-003	  1.50967E-002	  4.24351E-003	 -6.58067E-003
  6.14400E+000	  8.51977E-004	  8.64733E-003	 -2.41319E-003	 -1.07071E-002
  6.55360E+000	  5.40267E-003	  1.44124E-003	 -1.39382E-003	 -1.17135E-002
  7.37280E+000	 -7.77490E-003	 -7.13997E-003	  8.76810E-004	  4.46248E-003
  8.19200E+000	 -6.21186E-003	 -3.99190E-003	 -3.28407E-003	  8.33357E-003
  9.01120E+000	  4.06115E-003	 -6.39525E-004	  1.39051E-003	  8.01852E-003
  9.83040E+000	  5.78373E-003	  6.90101E-003	  7.94554E-003	  4.23399E-003
  1.06496E+001	 -2.15177E-003	  2.35099E-003	  3.15441E-003	 -2.79918E-003
  1.14688E+001	  5.80340E-003	 -2.86381E-003	  4.73003E-003	 -6.76540E-003
  1.22880E+001	  2.11611E-003	 -3.60529E-003	  7.93308E-003	  1.63396E-003
  1.31072E+001	  3.43396E-004	  2.10297E-003	  4.53505E-003	  1.06128E-003
  1.47456E+001	 -3.68611E-003	 -7.52825E-004	 -1.02135E-003	  5.29322E-003
  1.63840E+001	 -3.58031E-003	  1.24286E-003	 -4.50023E-003	  4.78160E-003
  1.80224E+001	 -1.15946E-003	  2.38390E-003	 -2.68761E-003	 -5.03517E-003
  1.96608E+001	  3.94053E-003	  3.26433E-003	  9.83743E-003	 -6.19483E-003
  2.12992E+001	  8.88882E-003	  7.47963E-003	  3.78285E-003	 -3.90846E-003
  2.29376E+001	  5.28022E-003	  2.34800E-003	  2.04473E-003	 -7.29316E-003
  2.45760E+001	  3.59690E-003	 -4.46736E-003	  7.98966E-003	 -3.32452E-003
  2.62144E+001	  1.99644E-003	 -9.04903E-003	  2.02519E-003	 -4.78031E-003
  2.94912E+001	 -9.34100E-004	 -1.08465E-002	  2.74030E-003	  3.10914E-003
  3.27680E+001	 -5.48518E-003	  4.46163E-003	  1.58697E-004	 -3.02468E-003
  3.60448E+001	  7.99753E-004	  4.59509E-003	  2.29429E-003	  4.87167E-003
  3.93216E+001	  1.14952E-003	 -4.65152E-003	  7.84899E-003	 -4.36732E-003
  4.25984E+001	  2.21061E-003	 -6.14639E-003	  5.30736E-003	  7.30790E-004
  4.58752E+001	 -1.21624E-003	  2.58165E-004	 -5.17072E-004	  4.00340E-003
  4.91520E+001	 -4.64049E-003	  6.31009E-003	  1.19021E-003	  5.68022E-003
  5.24288E+001	 -5.89687E-003	  1.43978E-003	  6.99468E-004	  5.29278E-003
  5.89824E+001	  2.57309E-003	 -3.96993E-003	  6.36960E-004	  6.37620E-003
  6.55360E+001	 -3.87341E-003	 -8.35755E-003	  1.85536E-003	  4.60904E-003
  7.20896E+001	 -6.20747E-003	 -5.03053E-003	  3.96340E-003	 -2.95024E-003
  7.86432E+001	  2.11044E-004	 -1.83518E-003	 -1.66751E-003	 -6.69535E-003
  8.51968E+001	 -3.71209E-003	  5.52154E-003	 -8.38858E-005	  1.10339E-003
  9.17504E+001	 -3.99050E-003	 -7.04977E-003	 -1.66684E-003	 -6.50015E-003
  9.83040E+001	 -1.77467E-003	  9.64639E-003	  2.11158E-003	  3.50150E-003
  1.04858E+002	  1.17314E-003	  3.36223E-003	 -2.04012E-003	  2.44381E-003
  1.17965E+002	  1.87271E-003	 -7.04219E-003	  2.77826E-004	  4.53283E-003
  1.31072E+002	  3.49437E-004	 -1.45929E-003	 -1.40376E-003	 -5.69595E-003
  1.44179E+002	 -1.61496E-003	  2.25343E-004	 -6.32564E-004	  2.74290E-003
  1.57286E+002	  2.72790E-003	 -2.71678E-003	 -1.05956E-003	  3.88610E-003
  1.70394E+002	  1.60094E-003	 -4.33450E-003	 -1.80405E-003	  7.42217E-004
  1.83501E+002	 -7.83651E-004	 -1.55782E-003	  1.59368E-003	  3.10874E-004
  1.96608E+002	 -5.82324E-003	  1.10874E-003	  3.55877E-004	  1.45801E-003
  2.09715E+002	  1.31229E-003	  5.76609E-005	 -1.52016E-004	  2.95745E-003
  2.35930E+002	  4.36644E-004	  3.82817E-003	  5.55237E-004	 -3.92068E-003
  2.62144E+002	  2.18831E-004	 -3.86578E-003	  3.13690E-003	  3.15963E-003
  2.88358E+002	 -2.33574E-003	 -1.18095E-003	  4.14342E-003	 -6.84713E-004
  3.14573E+002	 -1.85483E-003	 -1.54056E-003	  1.46145E-003	  1.22140E-003
  3.40787E+002	 -2.31983E-005	  4.06405E-003	 -1.09953E-003	 -1.79910E-003
  3.67002E+002	  8.41430E-005	  1.90679E-003	 -1.89641E-003	  9.73243E-004
  3.93216E+002	  2.75936E-003	 -1.42161E-003	 -4.89115E-003	 -2.46723E-003

"Count Rate"
       0.01311	     111.99951	     112.60986	     133.74329	     113.52539
       0.02621	     131.68335	     129.31824	     110.32104	     173.33984
       0.03932	     119.47632	     128.93677	     140.53345	     139.16016
       0.05243	      87.50916	     148.92578	     146.25549	     147.47620
       0.06554	     126.19019	     117.26379	     113.44910	     136.18469
       0.07864	     126.03760	     144.04297	     125.57983	     170.21179
       0.09175	     142.13562	     104.59900	     124.28284	     189.89563
       0.10486	     164.64233	     115.43274	     142.51709	     155.02930
       0.11796	     147.85767	     129.08936	     155.63965	     157.77588
       0.13107	     156.09741	     140.38086	     139.54163	     126.49536
       0.14418	     139.00757	     142.89856	     160.29358	     156.63147
       0.15729	     172.65320	     175.39978	     125.73242	     132.14111
       0.17039	     122.29919	     157.24182	     126.19019	     164.03198
       0.18350	     123.90137	     115.81421	     145.49255	     122.29919
       0.19661	     125.80872	     135.26917	     150.98572	     133.20923
       0.20972	     137.02393	     121.84143	     160.52246	     111.99951
       0.22282	     142.05933	     115.96680	     132.21741	     138.24463
       0.23593	     122.45178	     153.19824	     157.92847	     174.86572
       0.24904	     158.76770	     176.23901	     111.46545	     118.56079
       0.26214	     125.12207	     136.94763	     139.77051	     139.08386
       0.27525	     138.54980	      94.07043	     132.37000	     139.46533
       0.28836	     157.69958	     168.91479	     150.14648	     190.96375
       0.30147	     142.66968	     119.09485	     108.10852	     157.77588
       0.31457	     128.55530	     125.35095	     122.83325	     110.54993
       0.32768	     127.56348	     120.23926	     165.17639	     153.65601
       0.34079	     116.95862	     140.30457	     139.69421	     166.09192
       0.35389	     117.18750	     125.42725	     114.36462	     129.31824
       0.36700	     144.65332	     107.80334	      99.56360	      99.18213
       0.38011	     159.30176	     113.90686	     140.38086	     108.10852
       0.39322	     135.57434	     164.26086	     151.74866	     131.83594
       0.40632	     132.82776	     122.37549	     126.80054	     149.00208
       0.41943	     147.01843	      98.41919	     138.93127	     105.89600
       0.43254	     120.62073	     146.78955	     164.87122	     121.91772
       0.44564	     124.58801	     127.41089	     137.93945	     136.87134
       0.45875	     144.34814	     122.52808	     161.97205	     151.29089
       0.47186	     121.68884	     143.96667	     172.80579	     131.75964
       0.48497	     141.06750	     130.99670	     130.84412	     128.55530
       0.49807	     116.80603	     132.21741	     154.11377	     110.01587
       0.51118	     128.86047	     126.49536	     138.70239	     159.53064
       0.52429	     127.41089	     123.36731	     122.90955	     119.85779
       0.53740	     172.19543	     126.19019	     123.97766	     121.00220
       0.55050	     143.28003	     123.29102	     110.62622	     184.78394
       0.56361	     123.21472	     135.80322	     125.27466	     113.83057
       0.57672	     103.75977	     155.86853	     107.34558	     122.45178
       0.58982	     156.02112	     160.90393	     154.41895	     154.34265
       0.60293	     129.77600	     180.05371	     139.16016	     148.92578
       0.61604	     124.81689	     129.47083	     145.72144	     134.20105
       0.62915	     144.27185	     205.23071	     150.98572	     131.83594
       0.64225	     154.72412	     111.38916	     149.15466	     126.26648
       0.65536	     114.36462	     116.34827	     135.42175	     138.39722
       0.66847	     145.79773	     152.13013	     162.35352	     153.19824
       0.68157	     104.14124	     142.51709	     155.71594	     114.59351
       0.69468	     123.59619	     123.90137	     155.79224	     125.73242
       0.70779	     167.54150	     139.54163	     156.40259	     136.41357
       0.72090	     131.91223	     107.42188	     148.62061	     135.87952
       0.73400	     140.68604	     142.82227	     136.79504	     139.69421
       0.74711	     177.07825	     120.08667	     215.37781	     151.82495
