ALV-7004/USB-FAST
Date :	"3/14/2024"
Time :	"12:36:04 PM"
Samplename : 	""
SampMemo(0) : 	""
SampMemo(1) : 	""
SampMemo(2) : 	""
SampMemo(3) : 	""
SampMemo(4) : 	""
SampMemo(5) : 	""
SampMemo(6) : 	""
SampMemo(7) : 	""
SampMemo(8) : 	""
SampMemo(9) : 	""
Temperature [K] :	     298.16000
Viscosity [cp]  :	       0.89000
Refractive Index:	       1.33200
Wavelength [nm] :	       0.00000
Angle [°]       :	       0.00000
Duration [s]    :	         1
FloatDur [ms]   :	          944
Stop TP [ms]   :	      3945
Runs            :	         1
Mode            :	"A-CH0+1  A-CH2+3 "
MeanCR0 [kHz]   :	     131.93131
MeanCR1 [kHz]   :	     130.27615
MeanCR2 [kHz]   :	     124.60391
MeanCR3 [kHz]   :	     123.14691

"Correlation"
  3.12500E-006	 -1.00000E+000	 -1.00000E+000	 -1.00000E+000	 -1.00000E+000
  6.25000E-006	 -1.00000E+000	 -1.00000E+000	 -1.00000E+000	 -1.00000E+000
  9.37500E-006	 -1.00000E+000	 -1.00000E+000	 -1.00000E+000	 -1.00000E+000
  1.25000E-005	 -1.00000E+000	 -1.00000E+000	 -1.00000E+000	 -1.00000E+000
  1.56250E-005	 -1.00000E+000	 -1.00000E+000	 -1.00000E+000	 -1.00000E+000
  1.87500E-005	 -1.00000E+000	 -1.00000E+000	 -1.00000E+000	 -1.00000E+000
  2.18750E-005	 -9.61038E-001	 -3.80645E-001	 -3.01134E-001	 -1.00000E+000
  2.50000E-005	  5.46770E+000	  6.03267E+000	  5.77027E+000	  1.02244E+001
  2.81250E-005	  2.11696E+000	  1.29761E+000	  1.05292E+000	  4.45570E+000
  3.12500E-005	  7.53292E-001	  5.98335E-001	  1.00924E+000	  2.66694E+000
  3.43750E-005	  1.12343E+000	  5.58376E-001	  6.37968E-001	  2.44335E+000
  3.75000E-005	  8.50697E-001	  3.18626E-001	  9.43722E-001	  1.92908E+000
  4.06250E-005	  6.36406E-001	  3.38605E-001	  5.72450E-001	  1.77257E+000
  4.37500E-005	  5.39001E-001	  4.58480E-001	  5.72450E-001	  1.57133E+000
  4.68750E-005	  9.67584E-001	  4.98439E-001	  3.97733E-001	  1.28066E+000
  5.00000E-005	  6.55887E-001	  6.18314E-001	  4.19572E-001	  1.26948E+000
  5.62500E-005	  8.40957E-001	  5.18418E-001	  6.59808E-001	  1.31420E+000
  6.25000E-005	  5.48741E-001	  5.28407E-001	  6.27048E-001	  9.34090E-001
  6.87500E-005	  4.31855E-001	  5.68366E-001	  4.85091E-001	  7.21675E-001
  7.50000E-005	  6.16925E-001	  4.28511E-001	  5.28770E-001	  8.89371E-001
  8.12500E-005	  5.09779E-001	  7.68157E-001	  6.70727E-001	  4.19823E-001
  8.75000E-005	  5.58482E-001	  4.18522E-001	  5.17850E-001	  6.65777E-001
  9.37500E-005	  4.90298E-001	  5.18418E-001	  5.17850E-001	  6.76956E-001
  1.00000E-004	  5.14650E-001	  7.03225E-001	  4.79631E-001	  6.43417E-001
  1.12500E-004	  5.92574E-001	  6.28303E-001	  5.39690E-001	  6.60187E-001
  1.25000E-004	  6.31536E-001	  4.53485E-001	  5.56070E-001	  6.99316E-001
  1.37500E-004	  4.51336E-001	  6.48282E-001	  4.35952E-001	  7.16085E-001
  1.50000E-004	  5.48741E-001	  4.93444E-001	  4.96011E-001	  5.81929E-001
  1.62500E-004	  4.90298E-001	  5.78355E-001	  4.14112E-001	  4.31003E-001
  1.75000E-004	  5.14650E-001	  4.08532E-001	  4.52332E-001	  5.81929E-001
  1.87500E-004	  3.88023E-001	  5.93340E-001	  5.28770E-001	  3.86284E-001
  2.00000E-004	  5.31695E-001	  5.33402E-001	  4.74171E-001	  5.76339E-001
  2.25000E-004	  4.82993E-001	  4.95941E-001	  5.09660E-001	  5.26030E-001
  2.50000E-004	  5.63352E-001	  5.08428E-001	  5.04200E-001	  5.34415E-001
  2.75000E-004	  4.90298E-001	  5.15920E-001	  4.44141E-001	  4.14233E-001
  3.00000E-004	  5.90138E-001	  6.40790E-001	  4.96010E-001	  4.67336E-001
  3.25000E-004	  5.14649E-001	  5.30904E-001	  5.72449E-001	  5.00875E-001
  3.50000E-004	  5.04909E-001	  5.00935E-001	  5.31500E-001	  4.72926E-001
  3.75000E-004	  5.36565E-001	  4.75962E-001	  5.97018E-001	  4.89696E-001
  4.00000E-004	  4.70816E-001	  5.27157E-001	  5.30134E-001	  5.02272E-001
  4.50000E-004	  4.14808E-001	  4.70966E-001	  4.57791E-001	  5.26029E-001
  5.00000E-004	  5.51175E-001	  5.13422E-001	  5.06930E-001	  4.92490E-001
  5.50000E-004	  5.07343E-001	  4.78458E-001	  4.60508E-001	  5.55376E-001
  6.00000E-004	  5.14649E-001	  5.74608E-001	  5.73800E-001	  5.27427E-001
  6.50000E-004	  4.73251E-001	  5.08427E-001	  4.76888E-001	  5.51184E-001
  7.00000E-004	  5.08561E-001	  4.89697E-001	  4.18194E-001	  4.47771E-001
  7.50000E-004	  4.46465E-001	  5.17168E-001	  5.46501E-001	  5.46991E-001
  8.00000E-004	  5.00645E-001	  5.20913E-001	  5.22625E-001	  5.40701E-001
  9.00000E-004	  4.98210E-001	  4.82827E-001	  5.15118E-001	  4.09340E-001
  1.00000E-003	  4.92122E-001	  5.24659E-001	  4.41410E-001	  4.82008E-001
  1.10000E-003	  4.88470E-001	  5.11548E-001	  4.50964E-001	  5.16944E-001
  1.20000E-003	  4.46464E-001	  5.45887E-001	  5.17166E-001	  4.78514E-001
  1.30000E-003	  4.73250E-001	  4.95314E-001	  4.56424E-001	  5.53278E-001
  1.40000E-003	  4.73250E-001	  5.09050E-001	  4.55729E-001	  5.34413E-001
  1.50000E-003	  5.49957E-001	  4.65346E-001	  4.21605E-001	  5.27425E-001
  1.60000E-003	  5.24994E-001	  4.92502E-001	  4.48586E-001	  4.94233E-001
  1.80000E-003	  4.59246E-001	  4.81264E-001	  4.48586E-001	  4.94233E-001
  2.00000E-003	  4.82379E-001	  4.84386E-001	  4.76227E-001	  4.98425E-001
  2.20000E-003	  4.86336E-001	  4.47549E-001	  4.51316E-001	  4.99474E-001
  2.40000E-003	  4.83901E-001	  5.23408E-001	  4.64624E-001	  4.89691E-001
  2.60000E-003	  4.63507E-001	  4.99682E-001	  4.83051E-001	  5.26025E-001
  2.80000E-003	  4.47374E-001	  4.60036E-001	  4.78956E-001	  5.11701E-001
  3.00000E-003	  5.00643E-001	  4.94375E-001	  4.78261E-001	  5.01220E-001
  3.20000E-003	  4.77656E-001	  4.81259E-001	  4.82376E-001	  4.78157E-001
  3.60000E-003	  4.76591E-001	  4.76264E-001	  4.22829E-001	  4.87765E-001
  4.00000E-003	  4.75526E-001	  5.12164E-001	  4.81012E-001	  4.87241E-001
  4.40000E-003	  4.57110E-001	  5.00458E-001	  4.70092E-001	  4.93879E-001
  4.80000E-003	  4.76895E-001	  4.62373E-001	  4.71615E-001	  4.79904E-001
  5.20000E-003	  4.97746E-001	  4.95307E-001	  4.92601E-001	  4.88651E-001
  5.60000E-003	  4.68372E-001	  4.82196E-001	  4.78269E-001	  4.72755E-001
  6.00000E-003	  4.66850E-001	  4.92966E-001	  4.55064E-001	  5.00530E-001
  6.40000E-003	  4.71711E-001	  4.86946E-001	  4.88594E-001	  4.96515E-001
  7.20000E-003	  4.69516E-001	  4.84683E-001	  4.66413E-001	  4.82291E-001
  8.00000E-003	  4.52926E-001	  4.79064E-001	  4.59759E-001	  5.08319E-001
  8.80000E-003	  4.59775E-001	  4.99133E-001	  4.42782E-001	  4.89453E-001
  9.60000E-003	  4.59927E-001	  4.70179E-001	  4.75456E-001	  5.00545E-001
  1.04000E-002	  4.53471E-001	  4.71584E-001	  4.50375E-001	  4.66045E-001
  1.12000E-002	  4.65875E-001	  4.77449E-001	  4.68022E-001	  4.85784E-001
  1.20000E-002	  4.72039E-001	  4.79244E-001	  4.70581E-001	  4.88317E-001
  1.28000E-002	  4.56393E-001	  4.67752E-001	  4.54407E-001	  4.85908E-001
  1.44000E-002	  4.67655E-001	  4.82736E-001	  4.68100E-001	  4.98441E-001
  1.60000E-002	  4.72830E-001	  4.63732E-001	  4.56680E-001	  4.87424E-001
  1.76000E-002	  4.56393E-001	  4.57333E-001	  4.57747E-001	  4.81310E-001
  1.92000E-002	  4.55670E-001	  4.52221E-001	  4.44481E-001	  4.81179E-001
  2.08000E-002	  4.47413E-001	  4.46173E-001	  4.55699E-001	  4.76475E-001
  2.24000E-002	  4.43722E-001	  4.45248E-001	  4.46145E-001	  4.58876E-001
  2.40000E-002	  4.52866E-001	  4.48760E-001	  4.46431E-001	  4.72077E-001
  2.56000E-002	  4.36801E-001	  4.51940E-001	  4.44893E-001	  4.66070E-001
  2.88000E-002	  4.42139E-001	  4.44460E-001	  4.45533E-001	  4.68900E-001
  3.20000E-002	  4.33799E-001	  4.36843E-001	  4.29763E-001	  4.51147E-001
  3.52000E-002	  4.26006E-001	  4.43040E-001	  4.22639E-001	  4.45513E-001
  3.84000E-002	  4.09333E-001	  4.35410E-001	  4.21573E-001	  4.41976E-001
  4.16000E-002	  4.10867E-001	  4.38622E-001	  4.16134E-001	  4.33382E-001
  4.48000E-002	  4.03002E-001	  4.17764E-001	  4.07359E-001	  4.45785E-001
  4.80000E-002	  4.10273E-001	  4.19598E-001	  4.08639E-001	  4.37312E-001
  5.12000E-002	  3.96097E-001	  4.08332E-001	  4.00279E-001	  4.22974E-001
  5.76000E-002	  3.80966E-001	  3.97737E-001	  3.90382E-001	  4.07382E-001
  6.40000E-002	  3.79399E-001	  3.85043E-001	  3.79238E-001	  4.04259E-001
  7.04000E-002	  3.66510E-001	  3.70799E-001	  3.61418E-001	  3.84891E-001
  7.68000E-002	  3.56047E-001	  3.68409E-001	  3.62291E-001	  3.80056E-001
  8.32000E-002	  3.44874E-001	  3.54674E-001	  3.43682E-001	  3.71496E-001
  8.96000E-002	  3.29465E-001	  3.52879E-001	  3.32954E-001	  3.53974E-001
  9.60000E-002	  3.23807E-001	  3.39271E-001	  3.28838E-001	  3.39027E-001
  1.02400E-001	  3.11301E-001	  3.29531E-001	  3.13011E-001	  3.27124E-001
  1.15200E-001	  2.87184E-001	  3.11619E-001	  2.94836E-001	  3.12069E-001
  1.28000E-001	  2.69170E-001	  2.91025E-001	  2.76141E-001	  2.94453E-001
  1.40800E-001	  2.51666E-001	  2.78446E-001	  2.57178E-001	  2.77498E-001
  1.53600E-001	  2.33551E-001	  2.58890E-001	  2.39682E-001	  2.65134E-001
  1.66400E-001	  2.18166E-001	  2.43368E-001	  2.25237E-001	  2.39314E-001
  1.79200E-001	  2.01231E-001	  2.28627E-001	  2.06756E-001	  2.29432E-001
  1.92000E-001	  1.89833E-001	  2.13354E-001	  1.94080E-001	  2.08487E-001
  2.04800E-001	  1.76983E-001	  2.04550E-001	  1.82258E-001	  1.98276E-001
  2.30400E-001	  1.49826E-001	  1.82283E-001	  1.58089E-001	  1.76884E-001
  2.56000E-001	  1.31346E-001	  1.63893E-001	  1.40794E-001	  1.57185E-001
  2.81600E-001	  1.15215E-001	  1.50365E-001	  1.22665E-001	  1.36022E-001
  3.07200E-001	  1.03867E-001	  1.33849E-001	  1.03671E-001	  1.19025E-001
  3.32800E-001	  8.89226E-002	  1.21612E-001	  9.30077E-002	  1.06646E-001
  3.58400E-001	  7.93837E-002	  1.08512E-001	  8.21140E-002	  9.23030E-002
  3.84000E-001	  7.04238E-002	  9.63216E-002	  7.11760E-002	  8.37233E-002
  4.09600E-001	  6.10000E-002	  8.81793E-002	  6.26570E-002	  7.39935E-002
  4.60800E-001	  4.74215E-002	  7.41844E-002	  4.60153E-002	  5.89660E-002
  5.12000E-001	  3.74620E-002	  6.20972E-002	  3.82047E-002	  4.97378E-002
  5.63200E-001	  3.07925E-002	  5.10861E-002	  3.03675E-002	  3.91502E-002
  6.14400E-001	  2.39772E-002	  4.09757E-002	  2.84893E-002	  3.00272E-002
  6.65600E-001	  2.03736E-002	  3.22806E-002	  2.58395E-002	  2.71115E-002
  7.16800E-001	  1.67316E-002	  2.44877E-002	  1.92234E-002	  2.51087E-002
  7.68000E-001	  1.86640E-002	  2.05040E-002	  1.97208E-002	  2.11188E-002
  8.19200E-001	  1.64901E-002	  1.53679E-002	  1.33578E-002	  1.70406E-002
  9.21600E-001	  1.33982E-002	  9.87709E-003	  3.29793E-003	  1.18997E-002
  1.02400E+000	  9.38770E-003	  2.88736E-003	 -1.24914E-003	  8.39499E-003
  1.12640E+000	  1.07014E-002	 -2.72321E-003	 -2.40336E-003	  8.07092E-003
  1.22880E+000	  7.07538E-003	 -5.89813E-003	 -1.03327E-003	  2.52226E-003
  1.33120E+000	  9.51671E-003	 -7.43876E-003	 -5.61880E-003	 -2.52819E-003
  1.43360E+000	  8.02432E-003	 -6.85549E-003	 -5.22482E-003	 -3.53706E-003
  1.53600E+000	  4.92489E-003	 -3.50966E-003	 -7.33963E-003	 -3.90275E-003
  1.63840E+000	 -1.40731E-003	 -1.56706E-003	 -9.91858E-003	 -7.16899E-003
  1.84320E+000	  1.59485E-003	  5.36059E-004	 -1.16660E-002	 -4.74790E-003
  2.04800E+000	  6.95253E-003	  4.72330E-003	 -9.72825E-003	 -7.11951E-003
  2.25280E+000	  4.85647E-003	  1.67741E-002	 -8.03643E-003	 -6.80505E-003
  2.45760E+000	  2.99457E-003	  1.78747E-002	 -6.38677E-003	  4.98620E-003
  2.66240E+000	 -6.70714E-004	  1.88725E-002	  3.39953E-004	  2.15224E-003
  2.86720E+000	  4.43290E-003	  1.19613E-002	 -8.89784E-005	 -4.51938E-003
  3.07200E+000	  7.16492E-003	  4.50171E-003	 -8.83525E-004	 -7.78375E-003
  3.27680E+000	  1.14523E-002	  2.65790E-003	 -1.09337E-003	 -5.77908E-003
  3.68640E+000	  1.14413E-002	  1.28315E-002	 -1.77310E-003	  2.19296E-003
  4.09600E+000	  1.48950E-003	  7.26856E-003	 -1.42777E-002	  1.28591E-002
  4.50560E+000	  6.68256E-004	  3.02489E-003	 -1.50604E-002	  1.48208E-002
  4.91520E+000	  1.24109E-003	 -4.24860E-003	 -1.39014E-002	  1.02267E-003
  5.32480E+000	  5.25609E-003	 -8.61532E-003	 -8.77454E-003	  7.23775E-003
  5.73440E+000	  4.56876E-004	 -1.71285E-002	 -3.55256E-003	  1.31390E-002
  6.14400E+000	 -6.22857E-003	 -3.28234E-003	  7.15897E-003	  1.86787E-002
  6.55360E+000	 -5.40951E-003	  8.77096E-005	  2.79835E-003	  7.18329E-003
  7.37280E+000	 -4.52085E-003	 -1.36039E-003	 -3.70243E-003	  1.71562E-003
  8.19200E+000	 -9.23653E-003	  7.63049E-003	 -1.05803E-003	  1.86377E-003
  9.01120E+000	 -1.00185E-003	  5.70047E-003	  1.28520E-003	  2.36812E-004
  9.83040E+000	 -9.73782E-003	  2.68261E-004	  1.38366E-003	 -1.39406E-003
  1.06496E+001	 -2.93859E-004	  1.13303E-003	  5.58115E-003	  6.50409E-003
  1.14688E+001	 -4.48383E-003	 -3.76264E-003	  4.68973E-003	  6.39073E-003
  1.22880E+001	 -1.10353E-002	 -5.02616E-004	 -1.26671E-002	 -1.96015E-003
  1.31072E+001	 -5.99824E-003	  6.26083E-003	 -7.72072E-003	  2.96426E-003
  1.47456E+001	  1.62680E-003	 -6.45699E-003	  3.55687E-003	 -8.69945E-003
  1.63840E+001	 -1.77390E-003	  4.05681E-003	 -4.15470E-003	  1.31484E-002
  1.80224E+001	  3.27480E-003	 -7.38958E-003	  2.90481E-003	  2.01516E-003
  1.96608E+001	  4.34826E-003	 -2.10548E-003	  7.69442E-004	  4.42842E-003
  2.12992E+001	 -4.75117E-003	 -2.30795E-003	  8.00087E-003	 -1.17438E-003
  2.29376E+001	 -5.29531E-003	 -2.12472E-004	 -3.49726E-003	  1.22713E-003
  2.45760E+001	  9.50476E-004	 -5.24873E-003	 -7.93017E-003	  1.73141E-003
  2.62144E+001	  2.31414E-003	 -4.43728E-003	 -3.02721E-003	 -3.75038E-004
  2.94912E+001	 -3.92002E-003	 -4.71150E-003	 -1.31617E-003	  3.19514E-003
  3.27680E+001	 -1.97803E-003	 -2.87344E-004	  4.42579E-003	 -4.94476E-003
  3.60448E+001	 -9.19343E-004	  7.23947E-003	  1.66393E-003	 -9.40911E-004
  3.93216E+001	 -2.70804E-003	 -2.16516E-004	  9.90641E-004	 -9.98579E-003
  4.25984E+001	 -8.66931E-004	 -1.12479E-003	 -2.47719E-003	  2.15382E-003
  4.58752E+001	  3.75912E-004	  1.07639E-002	 -4.08495E-003	 -1.87120E-003
  4.91520E+001	  4.97349E-003	 -8.13820E-004	 -3.56737E-003	  5.34623E-003
  5.24288E+001	 -7.50747E-004	  2.18805E-003	 -1.80871E-003	  4.05622E-003
  5.89824E+001	 -2.01234E-004	 -3.49421E-003	 -2.16242E-003	 -3.05713E-004
  6.55360E+001	 -3.82804E-003	 -2.97432E-003	 -2.67291E-004	 -1.70704E-003
  7.20896E+001	  2.92725E-003	 -3.03453E-004	  3.86398E-003	 -1.73396E-004
  7.86432E+001	  6.17139E-003	  1.04111E-003	 -4.09963E-003	 -6.55048E-003
  8.51968E+001	  6.12173E-004	 -4.12991E-003	 -5.97982E-004	 -1.60787E-003
  9.17504E+001	  4.97429E-003	  7.94758E-003	  1.89816E-003	 -5.06845E-003
  9.83040E+001	  2.86567E-003	  3.48249E-003	 -3.00025E-003	 -2.63689E-003
  1.04858E+002	 -2.22920E-003	 -1.35160E-003	 -1.24385E-003	  1.29363E-003
  1.17965E+002	  4.19966E-003	 -9.82424E-004	 -7.69390E-004	  1.79410E-003
  1.31072E+002	  2.96670E-004	  2.27890E-004	  2.15632E-003	 -6.82977E-004
  1.44179E+002	 -2.87206E-003	  3.40256E-003	  1.13919E-003	 -1.88861E-003
  1.57286E+002	 -5.85854E-004	 -2.47513E-003	 -7.55378E-004	 -3.83465E-004
  1.70394E+002	 -2.07607E-004	 -7.50142E-004	  2.12421E-003	 -6.32623E-004
  1.83501E+002	  9.37043E-004	 -1.82129E-003	  4.42067E-003	 -1.98053E-003
  1.96608E+002	 -2.57475E-003	  1.95140E-003	 -3.28881E-003	 -1.42538E-003
  2.09715E+002	 -1.71311E-003	  2.95797E-003	 -2.81469E-003	  2.84786E-003
  2.35930E+002	  8.08303E-004	 -6.48959E-003	 -1.54022E-003	 -1.98612E-003
  2.62144E+002	 -9.24550E-004	 -5.41883E-004	  8.93423E-004	  4.05062E-004
  2.88358E+002	  1.60870E-003	 -2.82790E-003	  1.11896E-003	 -3.64752E-003
  3.14573E+002	 -1.25827E-003	  5.12995E-004	  4.26837E-003	  8.87097E-004
  3.40787E+002	  1.10913E-004	  1.50679E-003	 -3.13509E-003	  3.01181E-003
  3.67002E+002	  9.75998E-005	 -2.91000E-003	 -1.05958E-004	  2.12424E-004
  3.93216E+002	  8.92054E-004	  1.88710E-003	  7.66278E-004	  2.22243E-003

"Count Rate"
       0.01311	     136.94763	     113.37280	     116.88232	     105.81970
       0.02621	     125.42725	     139.84680	     111.46545	     130.99670
       0.03932	     135.65063	     132.14111	     120.84961	     120.39185
       0.05243	      99.48730	     114.74609	     128.63159	     131.83594
       0.06554	     149.07837	     109.48181	     120.54443	     114.74609
       0.07864	     107.42188	     132.98035	     101.39465	     130.84412
       0.09175	     130.08118	     120.39185	     127.86865	     120.62073
       0.10486	     144.04297	     119.47632	     101.54724	     109.48181
       0.11796	     105.13306	      92.84973	     124.96948	     128.25012
       0.13107	     114.05945	     146.94214	     122.90955	     125.80872
       0.14418	      99.25842	     119.78149	     111.69434	     129.77600
       0.15729	     119.78149	     127.71606	     110.62622	     102.08130
       0.17039	     124.35913	     121.76514	     112.76245	     126.26648
       0.18350	     153.80859	     105.51453	     124.05396	     132.82776
       0.19661	     117.64526	     111.00769	     122.22290	     110.01587
       0.20972	     104.82788	     126.64795	     133.97217	     106.43005
       0.22282	     141.83044	     159.98840	     143.89038	     120.69702
       0.23593	     108.18481	     127.02942	     135.34546	     105.36194
       0.24904	     117.64526	     137.25281	     118.17932	     124.05396
       0.26214	     109.78699	     103.68347	     112.60986	     128.40271
       0.27525	     126.64795	     133.05664	     130.69153	     157.77588
       0.28836	     118.02673	     118.94226	     105.59082	     129.31824
       0.30147	     148.23914	     139.84680	      95.97778	     167.99927
       0.31457	     130.23376	     129.85229	     137.93945	     120.62073
       0.32768	     146.94214	     112.91504	     114.82239	     116.19568
       0.34079	     144.19556	     161.20911	     114.05945	     106.58264
       0.35389	     115.05127	     140.60974	     110.77881	     126.11389
       0.36700	     126.34277	     115.05127	     142.82227	     100.25024
       0.38011	     129.31824	     132.82776	     127.94495	      97.73254
       0.39322	     138.24463	     121.76514	     133.81958	     110.32104
       0.40632	     162.35352	     119.09485	     139.61792	     126.57166
       0.41943	     118.10303	     112.68616	     140.83862	     119.09485
       0.43254	     123.21472	     142.97485	     104.44641	     100.17395
       0.44564	     129.01306	     172.27173	     114.74609	     131.45447
       0.45875	     140.45715	     112.15210	     117.56897	     124.13025
       0.47186	     137.78687	     125.35095	      92.39197	     108.48999
       0.48497	     151.06201	     145.56885	     140.99121	      84.76257
       0.49807	     109.86328	     139.46533	     142.36450	     110.16846
       0.51118	     142.28821	     114.59351	     122.37549	     148.69690
       0.52429	     137.32910	     116.72974	     117.26379	     127.86865
       0.53740	     115.43274	     122.22290	     131.83594	     112.07581
       0.55050	     113.37280	     124.13025	     137.25281	      90.71350
       0.56361	     139.00757	     131.98853	     108.41370	     120.16296
       0.57672	     149.15466	     103.14941	     113.75427	     134.35364
       0.58982	     100.25024	     117.64526	     113.75427	      96.20667
       0.60293	     151.90125	     110.47363	     118.40820	     121.00220
       0.61604	     118.78967	     133.13293	     127.94495	     121.68884
       0.62915	     126.26648	     133.43811	     125.12207	     129.31824
       0.64225	     132.14111	     144.95850	     118.10303	     147.32361
       0.65536	     149.07837	     133.74329	     112.53357	     128.63159
       0.66847	     150.98572	     117.79785	     143.05115	     113.29651
       0.68157	     106.58264	     117.64526	     113.90686	     130.92041
       0.69468	     179.90112	     116.65344	     134.12476	     108.87146
       0.70779	     126.19019	     128.63159	     111.23657	     120.69702
       0.72090	     108.71887	     105.13306	     136.79504	     132.14111
       0.73400	     123.21472	     116.34827	     133.20923	     130.92041
       0.74711	     132.21741	     139.38904	      92.62085	     112.91504
