ALV-7004/USB-FAST
Date :	"3/14/2024"
Time :	"12:34:13 PM"
Samplename : 	""
SampMemo(0) : 	""
SampMemo(1) : 	""
SampMemo(2) : 	""
SampMemo(3) : 	""
SampMemo(4) : 	""
SampMemo(5) : 	""
SampMemo(6) : 	""
SampMemo(7) : 	""
SampMemo(8) : 	""
SampMemo(9) : 	""
Temperature [K] :	     298.16000
Viscosity [cp]  :	       0.89000
Refractive Index:	       1.33200
Wavelength [nm] :	       0.00000
Angle [°]       :	       0.00000
Duration [s]    :	         1
FloatDur [ms]   :	          944
Stop TP [ms]   :	      3458
Runs            :	         1
Mode            :	"A-CH0+1  A-CH2+3 "
MeanCR0 [kHz]   :	     117.98435
MeanCR1 [kHz]   :	     113.65361
MeanCR2 [kHz]   :	     110.41323
MeanCR3 [kHz]   :	     112.79742

"Correlation"
  3.12500E-006	 -1.00000E+000	 -1.00000E+000	 -1.00000E+000	 -1.00000E+000
  6.25000E-006	 -1.00000E+000	 -1.00000E+000	 -1.00000E+000	 -1.00000E+000
  9.37500E-006	 -1.00000E+000	 -1.00000E+000	 -1.00000E+000	 -1.00000E+000
  1.25000E-005	 -1.00000E+000	 -1.00000E+000	 -1.00000E+000	 -1.00000E+000
  1.56250E-005	 -1.00000E+000	 -1.00000E+000	 -1.00000E+000	 -1.00000E+000
  1.87500E-005	 -1.00000E+000	 -1.00000E+000	 -1.00000E+000	 -1.00000E+000
  2.18750E-005	 -9.51282E-001	 -2.64980E-001	 -2.76833E-001	 -8.93397E-001
  2.50000E-005	  5.67436E+000	  6.77021E+000	  6.67670E+000	  1.14192E+001
  2.81250E-005	  2.14231E+000	  1.12631E+000	  1.33639E+000	  5.15632E+000
  3.12500E-005	  8.51281E-001	  7.58798E-001	  8.07918E-001	  3.02426E+000
  3.43750E-005	  5.34614E-001	  6.27544E-001	  3.62892E-001	  2.22474E+000
  3.75000E-005	  5.83332E-001	  4.70040E-001	  1.05824E+000	  2.06483E+000
  4.06250E-005	  8.99999E-001	  9.42553E-001	  3.90706E-001	  2.06483E+000
  4.37500E-005	  5.10256E-001	  6.01293E-001	  7.52289E-001	  1.66507E+000
  4.68750E-005	  6.32050E-001	  6.27544E-001	  6.96661E-001	  1.66507E+000
  5.00000E-005	  6.32050E-001	  6.53795E-001	  6.82754E-001	  1.50517E+000
  5.62500E-005	  4.24999E-001	  6.66920E-001	  5.71497E-001	  1.25199E+000
  6.25000E-005	  4.73717E-001	  5.09416E-001	  6.82754E-001	  1.06543E+000
  6.87500E-005	  8.87819E-001	  4.56914E-001	  4.32427E-001	  1.07876E+000
  7.50000E-005	  1.69230E-001	  4.43789E-001	  4.04613E-001	  8.52226E-001
  8.12500E-005	  4.85896E-001	  3.65037E-001	  5.29776E-001	  7.18972E-001
  8.75000E-005	  6.19871E-001	  2.60034E-001	  2.79449E-001	  7.72274E-001
  9.37500E-005	  7.41666E-001	  2.46909E-001	  5.29776E-001	  8.78877E-001
  1.00000E-004	  6.07691E-001	  6.73483E-001	  4.74148E-001	  7.32298E-001
  1.12500E-004	  7.59935E-001	  5.88168E-001	  3.90706E-001	  6.39020E-001
  1.25000E-004	  4.06730E-001	  5.81605E-001	  4.32427E-001	  6.25695E-001
  1.37500E-004	  4.67627E-001	  4.76602E-001	  4.74148E-001	  6.85659E-001
  1.50000E-004	  5.28524E-001	  5.94730E-001	  6.06265E-001	  4.99104E-001
  1.62500E-004	  5.46794E-001	  5.02853E-001	  5.57590E-001	  4.99104E-001
  1.75000E-004	  6.86858E-001	  3.84725E-001	  5.78451E-001	  6.12369E-001
  1.87500E-004	  4.98076E-001	  7.32547E-001	  5.08916E-001	  5.12429E-001
  2.00000E-004	  4.58492E-001	  5.48791E-001	  5.19346E-001	  4.89109E-001
  2.25000E-004	  5.40704E-001	  4.70039E-001	  5.43683E-001	  5.42411E-001
  2.50000E-004	  5.13300E-001	  7.32546E-001	  5.50636E-001	  6.45682E-001
  2.75000E-004	  4.76761E-001	  4.63477E-001	  5.08915E-001	  4.99103E-001
  3.00000E-004	  5.52883E-001	  4.93009E-001	  4.70671E-001	  5.49073E-001
  3.25000E-004	  5.86377E-001	  5.32385E-001	  5.12392E-001	  5.02435E-001
  3.50000E-004	  5.37659E-001	  5.68479E-001	  3.07263E-001	  4.02494E-001
  3.75000E-004	  4.91986E-001	  4.63477E-001	  4.25473E-001	  6.02375E-001
  4.00000E-004	  4.99597E-001	  4.56913E-001	  4.21996E-001	  5.90715E-001
  4.50000E-004	  4.91985E-001	  5.04493E-001	  4.95008E-001	  5.49073E-001
  5.00000E-004	  4.20431E-001	  4.37225E-001	  3.95920E-001	  6.02374E-001
  5.50000E-004	  5.08732E-001	  4.74961E-001	  3.09001E-001	  5.59067E-001
  6.00000E-004	  4.87418E-001	  4.76601E-001	  4.46333E-001	  4.74118E-001
  6.50000E-004	  4.47835E-001	  4.88086E-001	  4.74147E-001	  4.50798E-001
  7.00000E-004	  5.28524E-001	  5.45509E-001	  5.54113E-001	  4.92440E-001
  7.50000E-004	  5.52882E-001	  4.83164E-001	  4.28949E-001	  4.35807E-001
  8.00000E-004	  5.31567E-001	  5.23359E-001	  4.21994E-001	  4.87442E-001
  9.00000E-004	  4.72192E-001	  4.47068E-001	  4.70669E-001	  4.88275E-001
  1.00000E-003	  4.15862E-001	  4.57732E-001	  4.74146E-001	  5.14925E-001
  1.10000E-003	  4.22713E-001	  4.00309E-001	  4.41986E-001	  4.79113E-001
  1.20000E-003	  4.85894E-001	  5.50430E-001	  4.97614E-001	  4.60791E-001
  1.30000E-003	  4.91984E-001	  4.62654E-001	  4.54154E-001	  4.46633E-001
  1.40000E-003	  4.58490E-001	  4.62654E-001	  4.79361E-001	  4.47466E-001
  1.50000E-003	  4.50878E-001	  4.86444E-001	  4.61977E-001	  4.94937E-001
  1.60000E-003	  4.69145E-001	  4.88492E-001	  4.43722E-001	  5.17005E-001
  1.80000E-003	  4.69906E-001	  4.99567E-001	  5.00219E-001	  4.67451E-001
  2.00000E-003	  4.76376E-001	  4.53218E-001	  4.33291E-001	  4.70366E-001
  2.20000E-003	  5.10264E-001	  4.64293E-001	  4.62409E-001	  5.28664E-001
  2.40000E-003	  4.38709E-001	  4.62242E-001	  4.37637E-001	  5.09509E-001
  2.60000E-003	  4.79435E-001	  4.38862E-001	  4.71536E-001	  5.23667E-001
  2.80000E-003	  4.84382E-001	  4.69215E-001	  4.50241E-001	  4.57457E-001
  3.00000E-003	  4.87427E-001	  4.30659E-001	  4.36768E-001	  4.87023E-001
  3.20000E-003	  4.89339E-001	  4.45625E-001	  4.82830E-001	  4.82021E-001
  3.60000E-003	  4.73734E-001	  4.63467E-001	  4.66533E-001	  4.80980E-001
  4.00000E-003	  4.81917E-001	  4.87462E-001	  4.74790E-001	  5.06381E-001
  4.40000E-003	  4.74305E-001	  4.43369E-001	  4.59797E-001	  5.05132E-001
  4.80000E-003	  4.61173E-001	  4.74337E-001	  4.51322E-001	  4.98677E-001
  5.20000E-003	  4.84391E-001	  4.40498E-001	  4.43065E-001	  4.95971E-001
  5.60000E-003	  4.53942E-001	  4.59571E-001	  4.59797E-001	  4.94721E-001
  6.00000E-003	  4.35672E-001	  4.56084E-001	  4.43065E-001	  4.65572E-001
  6.40000E-003	  4.43573E-001	  4.79966E-001	  4.49791E-001	  4.75792E-001
  7.20000E-003	  4.55549E-001	  4.77608E-001	  4.69782E-001	  4.85162E-001
  8.00000E-003	  4.52409E-001	  4.51973E-001	  4.51856E-001	  4.75272E-001
  8.80000E-003	  4.45368E-001	  4.63663E-001	  4.74672E-001	  4.75272E-001
  9.60000E-003	  4.67729E-001	  4.67969E-001	  4.46763E-001	  4.66319E-001
  1.04000E-002	  4.43180E-001	  4.48794E-001	  4.68819E-001	  4.67464E-001
  1.12000E-002	  4.53646E-001	  4.70943E-001	  4.49371E-001	  4.72253E-001
  1.20000E-002	  4.67539E-001	  4.39873E-001	  4.61105E-001	  4.90888E-001
  1.28000E-002	  4.55743E-001	  4.46432E-001	  4.53371E-001	  4.76414E-001
  1.44000E-002	  4.58169E-001	  4.65300E-001	  4.28980E-001	  4.82765E-001
  1.60000E-002	  4.64117E-001	  4.69402E-001	  4.58749E-001	  4.73992E-001
  1.76000E-002	  4.46192E-001	  4.58891E-001	  4.53588E-001	  4.73524E-001
  1.92000E-002	  4.67127E-001	  4.60341E-001	  4.48971E-001	  4.71493E-001
  2.08000E-002	  4.59501E-001	  4.53470E-001	  4.54512E-001	  4.63946E-001
  2.24000E-002	  4.46893E-001	  4.43216E-001	  4.43104E-001	  4.59483E-001
  2.40000E-002	  4.50414E-001	  4.59264E-001	  4.33977E-001	  4.67707E-001
  2.56000E-002	  4.43140E-001	  4.44837E-001	  4.25750E-001	  4.60269E-001
  2.88000E-002	  4.42128E-001	  4.45349E-001	  4.32431E-001	  4.54075E-001
  3.20000E-002	  4.34929E-001	  4.35632E-001	  4.43133E-001	  4.57510E-001
  3.52000E-002	  4.35698E-001	  4.30889E-001	  4.24256E-001	  4.51327E-001
  3.84000E-002	  4.27680E-001	  4.42425E-001	  4.30829E-001	  4.45965E-001
  4.16000E-002	  4.29858E-001	  4.22812E-001	  4.23957E-001	  4.43283E-001
  4.48000E-002	  4.28919E-001	  4.27529E-001	  4.25559E-001	  4.38026E-001
  4.80000E-002	  4.27574E-001	  4.16223E-001	  4.22219E-001	  4.39639E-001
  5.12000E-002	  4.26287E-001	  4.26463E-001	  4.16519E-001	  4.45533E-001
  5.76000E-002	  4.10447E-001	  4.18744E-001	  4.05574E-001	  4.38101E-001
  6.40000E-002	  4.15551E-001	  4.11821E-001	  3.92510E-001	  4.26126E-001
  7.04000E-002	  4.12242E-001	  4.06590E-001	  3.96815E-001	  4.25176E-001
  7.68000E-002	  4.04137E-001	  3.92000E-001	  3.95606E-001	  4.22286E-001
  8.32000E-002	  4.01732E-001	  3.93577E-001	  3.86100E-001	  4.22729E-001
  8.96000E-002	  4.02800E-001	  3.90987E-001	  3.88178E-001	  4.05353E-001
  9.60000E-002	  3.91260E-001	  3.95589E-001	  3.87689E-001	  4.14307E-001
  1.02400E-001	  3.87794E-001	  3.89766E-001	  3.78547E-001	  4.04122E-001
  1.15200E-001	  3.87078E-001	  3.77635E-001	  3.73943E-001	  3.95783E-001
  1.28000E-001	  3.77454E-001	  3.70742E-001	  3.65347E-001	  3.90595E-001
  1.40800E-001	  3.69098E-001	  3.58022E-001	  3.58611E-001	  3.87816E-001
  1.53600E-001	  3.63754E-001	  3.50041E-001	  3.48800E-001	  3.75781E-001
  1.66400E-001	  3.53995E-001	  3.41612E-001	  3.50035E-001	  3.66285E-001
  1.79200E-001	  3.50132E-001	  3.43285E-001	  3.32583E-001	  3.59119E-001
  1.92000E-001	  3.40212E-001	  3.31716E-001	  3.33180E-001	  3.53673E-001
  2.04800E-001	  3.36498E-001	  3.27250E-001	  3.25606E-001	  3.44943E-001
  2.30400E-001	  3.24101E-001	  3.10947E-001	  3.11914E-001	  3.33499E-001
  2.56000E-001	  3.15570E-001	  2.94347E-001	  3.01208E-001	  3.16865E-001
  2.81600E-001	  3.04065E-001	  2.83613E-001	  2.86002E-001	  3.07832E-001
  3.07200E-001	  2.90231E-001	  2.75021E-001	  2.82466E-001	  2.95612E-001
  3.32800E-001	  2.79688E-001	  2.58851E-001	  2.67037E-001	  2.83285E-001
  3.58400E-001	  2.65195E-001	  2.47616E-001	  2.56518E-001	  2.68830E-001
  3.84000E-001	  2.53292E-001	  2.32318E-001	  2.48163E-001	  2.61685E-001
  4.09600E-001	  2.38585E-001	  2.22597E-001	  2.37577E-001	  2.48662E-001
  4.60800E-001	  2.19140E-001	  2.03896E-001	  2.14725E-001	  2.28857E-001
  5.12000E-001	  2.00655E-001	  1.83882E-001	  1.96514E-001	  2.04594E-001
  5.63200E-001	  1.86124E-001	  1.63782E-001	  1.72750E-001	  1.87107E-001
  6.14400E-001	  1.68785E-001	  1.50735E-001	  1.59332E-001	  1.72469E-001
  6.65600E-001	  1.52968E-001	  1.32184E-001	  1.42842E-001	  1.56676E-001
  7.16800E-001	  1.45304E-001	  1.21249E-001	  1.30218E-001	  1.44017E-001
  7.68000E-001	  1.29011E-001	  1.11294E-001	  1.13070E-001	  1.34558E-001
  8.19200E-001	  1.17128E-001	  1.03257E-001	  1.03339E-001	  1.25026E-001
  9.21600E-001	  9.42912E-002	  8.59401E-002	  8.07473E-002	  1.03252E-001
  1.02400E+000	  8.13076E-002	  7.57334E-002	  6.37315E-002	  8.27713E-002
  1.12640E+000	  6.65134E-002	  6.49201E-002	  5.28588E-002	  6.63226E-002
  1.22880E+000	  5.45164E-002	  5.54100E-002	  4.34731E-002	  5.00105E-002
  1.33120E+000	  4.96308E-002	  4.71249E-002	  3.50421E-002	  3.82703E-002
  1.43360E+000	  4.18632E-002	  4.12801E-002	  3.26388E-002	  2.95052E-002
  1.53600E+000	  3.57545E-002	  3.35128E-002	  2.74385E-002	  1.88800E-002
  1.63840E+000	  2.90843E-002	  2.92156E-002	  2.19877E-002	  1.85720E-002
  1.84320E+000	  1.94064E-002	  2.41617E-002	  1.53341E-002	  1.24780E-002
  2.04800E+000	  1.72469E-002	  1.99784E-002	  4.03384E-003	  5.45410E-003
  2.25280E+000	  1.63741E-002	  2.01305E-002	 -3.22667E-003	 -5.45320E-003
  2.45760E+000	  1.74607E-002	  1.53064E-002	 -1.01070E-002	 -4.35932E-003
  2.66240E+000	  1.38717E-002	  1.65459E-002	 -1.02010E-002	 -8.56104E-003
  2.86720E+000	  1.07528E-002	  1.92356E-002	 -6.07760E-003	 -7.48084E-003
  3.07200E+000	  8.34213E-004	  2.43844E-002	 -3.27218E-003	 -1.48620E-003
  3.27680E+000	 -4.66106E-003	  2.13792E-002	  4.17774E-004	  6.48287E-003
  3.68640E+000	 -3.36458E-003	  8.36072E-003	 -3.32136E-003	  1.57030E-002
  4.09600E+000	 -1.86132E-003	  5.66306E-003	 -1.21427E-002	  1.92839E-002
  4.50560E+000	  3.51133E-003	  9.37310E-003	 -1.69623E-002	  2.54617E-002
  4.91520E+000	  6.64603E-003	  4.00841E-003	 -2.38200E-002	  2.54364E-002
  5.32480E+000	  8.39757E-003	  7.58001E-003	 -2.26039E-002	  1.78252E-002
  5.73440E+000	  9.38954E-003	  1.56173E-002	 -1.98847E-002	  1.16017E-002
  6.14400E+000	  1.59825E-002	  2.14244E-002	 -5.35403E-003	  8.70729E-003
  6.55360E+000	  1.68096E-002	  1.79526E-002	  3.30684E-003	  2.73631E-003
  7.37280E+000	  8.74415E-003	  1.64490E-002	 -4.78754E-003	 -1.28355E-002
  8.19200E+000	 -1.80030E-002	  2.28317E-002	 -1.62868E-002	 -1.42326E-002
  9.01120E+000	 -1.53729E-002	  1.08848E-002	 -1.15490E-002	 -2.28205E-002
  9.83040E+000	 -2.55569E-003	  5.40281E-003	 -3.50763E-003	 -1.02243E-002
  1.06496E+001	  7.64600E-003	  2.73424E-003	  5.83639E-003	  4.31985E-003
  1.14688E+001	 -1.11440E-002	  8.42554E-003	  4.57691E-003	  1.28865E-002
  1.22880E+001	 -2.02153E-002	  1.91127E-002	  5.62689E-003	 -5.71392E-004
  1.31072E+001	 -1.01408E-002	  1.92884E-002	 -1.82641E-003	 -1.65476E-003
  1.47456E+001	 -4.07075E-003	  8.05673E-003	 -1.85177E-003	 -5.40367E-003
  1.63840E+001	 -1.10566E-002	  8.96043E-003	 -3.03698E-003	  6.91451E-003
  1.80224E+001	 -9.61518E-003	  7.99955E-003	 -5.58148E-003	  8.17766E-003
  1.96608E+001	  4.36073E-003	 -7.88535E-003	  7.52437E-003	  7.49518E-003
  2.12992E+001	  8.12523E-003	  7.66339E-003	 -2.20178E-002	  6.94668E-003
  2.29376E+001	 -1.95267E-003	  6.35911E-003	 -1.67761E-002	 -1.55630E-002
  2.45760E+001	  1.23635E-002	 -3.14835E-003	 -4.05122E-003	 -4.13916E-003
  2.62144E+001	  5.83682E-003	  2.29144E-003	 -1.36587E-002	 -1.07195E-002
  2.94912E+001	  4.26841E-003	 -8.91347E-003	 -5.27903E-003	 -8.57787E-003
  3.27680E+001	  1.00050E-002	 -5.62468E-003	 -7.29503E-003	  1.65527E-003
  3.60448E+001	  1.84741E-003	 -1.28498E-003	 -9.87886E-003	  1.68900E-004
  3.93216E+001	  7.70012E-003	  2.78325E-003	  6.89019E-003	  1.89562E-003
  4.25984E+001	  3.47857E-002	  1.10488E-003	  1.53061E-002	 -8.62855E-003
  4.58752E+001	  1.00853E-002	 -1.54193E-002	  1.11843E-002	 -1.36489E-002
  4.91520E+001	 -1.71029E-003	  5.20489E-003	  1.00929E-002	  1.12370E-002
  5.24288E+001	 -1.32447E-002	  2.74623E-003	  4.14340E-003	 -3.94311E-003
  5.89824E+001	 -1.18669E-002	  1.58845E-003	  9.53508E-003	 -5.66157E-003
  6.55360E+001	  8.32181E-003	 -9.53833E-003	 -1.38600E-003	 -1.27386E-002
  7.20896E+001	  1.29992E-003	  8.15183E-004	 -1.02087E-002	 -1.14887E-002
  7.86432E+001	  3.04221E-004	 -4.52717E-003	  4.10327E-003	  1.94714E-003
  8.51968E+001	  9.30174E-003	  7.19677E-003	 -8.77615E-003	  8.64850E-003
  9.17504E+001	 -2.01279E-003	  8.93199E-004	  3.60261E-003	 -8.19088E-003
  9.83040E+001	 -1.23795E-002	  4.84346E-003	  8.16119E-004	  7.92611E-003
  1.04858E+002	 -8.46760E-003	 -5.04198E-003	  3.22456E-003	 -2.41579E-003
  1.17965E+002	  1.09846E-003	  9.38891E-003	  3.60126E-003	  1.45168E-002
  1.31072E+002	  7.05197E-003	 -3.26310E-003	  5.42513E-003	 -2.77187E-003
  1.44179E+002	 -3.49903E-003	 -6.64148E-003	 -7.69250E-004	  2.87878E-003
  1.57286E+002	  4.61781E-003	 -4.20716E-003	 -7.51554E-003	  2.19266E-003
  1.70394E+002	  4.17863E-003	 -3.13397E-003	  4.16349E-003	  5.32634E-004
  1.83501E+002	 -8.73887E-003	  6.55041E-003	  3.50186E-003	  4.85442E-003
  1.96608E+002	 -3.96574E-003	  7.43605E-003	  4.00697E-004	  9.33122E-003
  2.09715E+002	 -1.31375E-002	  2.31241E-004	 -3.71725E-003	 -4.87684E-003
  2.35930E+002	  2.28544E-003	  2.48299E-003	  2.95346E-005	 -1.23519E-003
  2.62144E+002	  5.89947E-003	  4.86435E-003	 -4.32751E-004	  1.68295E-003
  2.88358E+002	  6.41337E-003	  4.69936E-003	 -3.94230E-004	 -3.81315E-003
  3.14573E+002	  2.90320E-004	  3.47983E-003	  2.09016E-003	  6.86088E-003
  3.40787E+002	  1.30725E-003	  1.01200E-003	 -7.08741E-003	 -1.05130E-002
  3.67002E+002	 -2.56384E-003	 -2.09068E-003	  4.64541E-003	 -2.24343E-003
  3.93216E+002	  3.02193E-003	 -1.78535E-003	 -5.98846E-004	  6.61131E-003

"Count Rate"
       0.01311	     151.36719	     108.56628	     126.26648	      84.07593
       0.02621	     113.37280	     222.70203	     146.94214	      91.55273
       0.03932	     136.56616	     162.88757	     119.78149	     155.18188
       0.05243	     128.40271	      97.65625	      80.10864	     110.47363
       0.06554	     109.17664	     101.54724	     112.83875	     125.80872
       0.07864	     178.60413	      72.09778	     110.16846	     146.25549
       0.09175	      98.26660	     101.47095	      98.11401	     127.02942
       0.10486	     107.80334	     114.89868	     123.97766	     143.50891
       0.11796	      87.96692	     159.30176	      89.56909	      91.78162
       0.13107	      83.84705	     123.06213	     137.55798	      89.03503
       0.14418	     107.19299	     111.00769	     102.53906	     119.55261
       0.15729	     170.05920	     164.26086	      85.98328	     111.08398
       0.17039	      68.28308	     125.12207	     121.76514	     107.26929
       0.18350	     137.32910	     141.75415	     147.17102	     113.67798
       0.19661	      98.03772	      79.87976	     103.53088	     117.56897
       0.20972	     114.28833	     113.60168	     126.49536	     103.37830
       0.22282	     114.97498	     133.20923	     102.99683	     138.70239
       0.23593	     107.49817	     116.65344	     139.92310	     107.72705
       0.24904	     127.79236	      93.23120	      96.35925	     160.14099
       0.26214	      94.29932	     113.06763	     122.22290	     139.08386
       0.27525	     102.46277	     119.01855	     100.86060	     115.20386
       0.28836	     122.07031	     104.37012	     112.15210	      80.18494
       0.30147	      83.92334	     134.88770	     152.20642	     107.72705
       0.31457	     118.40820	      78.04871	     115.50903	      64.54468
       0.32768	     104.67529	      84.76257	      63.09509	      82.32117
       0.34079	     105.13306	     127.18201	     143.12744	     162.81128
       0.35389	      93.15491	     111.77063	     143.20374	      82.32117
       0.36700	     123.29102	     112.38098	      75.75989	     107.11670
       0.38011	     144.88220	     102.38647	     125.12207	     129.54712
       0.39322	     102.69165	     121.30737	      79.57458	     137.78687
       0.40632	     114.89868	      75.07324	     109.25293	      92.31567
       0.41943	     114.51721	     137.55798	      95.06226	      89.87427
       0.43254	      91.24756	     103.30200	     104.14124	      92.31567
       0.44564	     123.59619	     109.02405	      98.03772	     114.59351
       0.45875	     113.52539	     118.71338	     115.66162	     103.37830
       0.47186	      87.35657	     141.06750	     103.60718	      97.57996
       0.48497	     144.57703	     100.02136	     158.00476	     104.21753
       0.49807	     124.81689	     149.15466	     110.32104	     108.10852
       0.51118	     123.59619	     105.05676	      59.43298	      96.96960
       0.52429	     120.01038	      96.13037	      95.36743	     115.81421
       0.53740	     148.16284	      97.35107	     123.21472	     123.74878
       0.55050	     112.30469	     121.45996	      81.48193	     101.69983
       0.56361	      83.38928	     126.95313	      98.26660	     129.24194
       0.57672	     109.17664	      95.90149	     107.57446	     114.59351
       0.58982	      85.29663	      91.62903	     106.58264	      83.61816
       0.60293	      85.67810	      89.64539	      97.04590	      80.41382
       0.61604	     111.92322	     128.09753	     114.66980	     109.63440
       0.62915	     106.35376	      87.43286	      93.00232	     103.37830
       0.64225	     101.08948	      92.69714	     102.00500	     157.31812
       0.65536	     135.72693	     117.56897	     104.59900	     134.50623
       0.66847	     111.77063	     101.01318	     116.04309	      81.32935
       0.68157	     105.74341	     129.54712	     126.49536	      91.85791
       0.69468	     113.29651	      84.60999	      95.36743	     115.12756
       0.70779	      89.34021	     100.09766	     120.62073	      89.49280
       0.72090	     157.39441	     106.96411	      90.94238	     110.24475
       0.73400	      90.94238	     152.89307	     120.84961	     127.33459
       0.74711	      99.10583	     135.65063	     128.47900	      92.31567
