ALV-7004/USB-FAST
Date :	"3/14/2024"
Time :	"12:36:29 PM"
Samplename : 	""
SampMemo(0) : 	""
SampMemo(1) : 	""
SampMemo(2) : 	""
SampMemo(3) : 	""
SampMemo(4) : 	""
SampMemo(5) : 	""
SampMemo(6) : 	""
SampMemo(7) : 	""
SampMemo(8) : 	""
SampMemo(9) : 	""
Temperature [K] :	     298.16000
Viscosity [cp]  :	       0.89000
Refractive Index:	       1.33200
Wavelength [nm] :	       0.00000
Angle [°]       :	       0.00000
Duration [s]    :	         1
FloatDur [ms]   :	          944
Stop TP [ms]   :	      4006
Runs            :	         1
Mode            :	"A-CH0+1  A-CH2+3 "
MeanCR0 [kHz]   :	     137.86845
MeanCR1 [kHz]   :	     135.70892
MeanCR2 [kHz]   :	     127.89196
MeanCR3 [kHz]   :	     140.07780

"Correlation"
  3.12500E-006	 -1.00000E+000	 -1.00000E+000	 -1.00000E+000	 -1.00000E+000
  6.25000E-006	 -1.00000E+000	 -1.00000E+000	 -1.00000E+000	 -1.00000E+000
  9.37500E-006	 -1.00000E+000	 -1.00000E+000	 -1.00000E+000	 -1.00000E+000
  1.25000E-005	 -1.00000E+000	 -1.00000E+000	 -1.00000E+000	 -1.00000E+000
  1.56250E-005	 -1.00000E+000	 -1.00000E+000	 -1.00000E+000	 -1.00000E+000
  1.87500E-005	 -1.00000E+000	 -1.00000E+000	 -1.00000E+000	 -1.00000E+000
  2.18750E-005	 -9.64321E-001	 -4.47653E-001	 -2.32952E-001	 -9.48157E-001
  2.50000E-005	  5.26159E+000	  5.59134E+000	  5.77905E+000	  9.45501E+000
  2.81250E-005	  1.56886E+000	  1.33827E+000	  1.38407E+000	  4.33983E+000
  3.12500E-005	  1.05152E+000	  6.93864E-001	  1.28041E+000	  2.45620E+000
  3.43750E-005	  4.62822E-001	  5.64983E-001	  7.62138E-001	  1.79952E+000
  3.75000E-005	  7.48251E-001	  5.28160E-001	  4.30442E-001	  1.47118E+000
  4.06250E-005	  8.37447E-001	  4.54514E-001	  7.41407E-001	  1.48846E+000
  4.37500E-005	  7.12572E-001	  4.17691E-001	  5.54828E-001	  1.54031E+000
  4.68750E-005	  4.44983E-001	  5.46572E-001	  9.69448E-001	  1.55759E+000
  5.00000E-005	  4.62822E-001	  7.21482E-001	  6.37752E-001	  1.03916E+000
  5.62500E-005	  6.32295E-001	  3.71662E-001	  5.13366E-001	  8.92269E-001
  6.25000E-005	  5.34179E-001	  6.20218E-001	  6.79214E-001	  7.71302E-001
  6.87500E-005	  6.76894E-001	  6.38629E-001	  5.34097E-001	  1.03916E+000
  7.50000E-005	  5.60938E-001	  5.83395E-001	  4.20076E-001	  7.19459E-001
  8.12500E-005	  6.67974E-001	  4.36102E-001	  5.75559E-001	  7.88584E-001
  8.75000E-005	  5.60938E-001	  6.93864E-001	  6.17021E-001	  7.97224E-001
  9.37500E-005	  4.44983E-001	  5.00543E-001	  4.30441E-001	  6.15773E-001
  1.00000E-004	  6.01077E-001	  6.15615E-001	  4.40807E-001	  5.81211E-001
  1.12500E-004	  5.52018E-001	  3.62456E-001	  4.71903E-001	  5.63930E-001
  1.25000E-004	  5.60938E-001	  5.74189E-001	  5.44462E-001	  5.85532E-001
  1.37500E-004	  3.82545E-001	  5.09748E-001	  5.70376E-001	  5.63930E-001
  1.50000E-004	  5.47559E-001	  4.26896E-001	  3.52700E-001	  4.17042E-001
  1.62500E-004	  5.56478E-001	  4.72925E-001	  7.15493E-001	  6.24414E-001
  1.75000E-004	  4.00384E-001	  5.46571E-001	  4.82269E-001	  4.25682E-001
  1.87500E-004	  4.13764E-001	  2.98015E-001	  5.44462E-001	  4.55924E-001
  2.00000E-004	  6.30065E-001	  5.28160E-001	  5.52236E-001	  5.66090E-001
  2.25000E-004	  5.76547E-001	  5.14351E-001	  4.64129E-001	  5.44489E-001
  2.50000E-004	  6.50134E-001	  4.77528E-001	  5.15956E-001	  5.25048E-001
  2.75000E-004	  4.44982E-001	  6.01806E-001	  4.43398E-001	  4.62404E-001
  3.00000E-004	  4.53902E-001	  3.85470E-001	  5.91106E-001	  6.13613E-001
  3.25000E-004	  4.91811E-001	  5.46571E-001	  4.71903E-001	  4.96966E-001
  3.50000E-004	  5.36409E-001	  6.20217E-001	  6.29977E-001	  4.32162E-001
  3.75000E-004	  3.42406E-001	  5.39667E-001	  4.56355E-001	  6.20093E-001
  4.00000E-004	  5.02959E-001	  5.15501E-001	  4.95225E-001	  4.80765E-001
  4.50000E-004	  4.92925E-001	  4.64869E-001	  5.05590E-001	  4.09481E-001
  5.00000E-004	  4.58361E-001	  4.60266E-001	  5.39278E-001	  4.13801E-001
  5.50000E-004	  4.57246E-001	  4.41855E-001	  5.04295E-001	  5.28287E-001
  6.00000E-004	  5.54235E-001	  4.47608E-001	  4.60241E-001	  5.09926E-001
  6.50000E-004	  4.77304E-001	  4.59116E-001	  4.93929E-001	  4.40802E-001
  7.00000E-004	  5.12982E-001	  4.63719E-001	  4.51171E-001	  4.74284E-001
  7.50000E-004	  5.02948E-001	  4.84432E-001	  4.84859E-001	  3.84639E-001
  8.00000E-004	  5.13550E-001	  5.08020E-001	  5.10124E-001	  4.60782E-001
  9.00000E-004	  5.34177E-001	  4.56813E-001	  4.50522E-001	  4.60242E-001
  1.00000E-003	  5.16895E-001	  4.49909E-001	  5.54825E-001	  5.46647E-001
  1.10000E-003	  4.80102E-001	  5.22979E-001	  4.98463E-001	  4.40801E-001
  1.20000E-003	  5.19682E-001	  5.34487E-001	  4.86154E-001	  4.13260E-001
  1.30000E-003	  5.00728E-001	  4.56238E-001	  5.07533E-001	  4.86704E-001
  1.40000E-003	  5.31378E-001	  4.70046E-001	  5.21137E-001	  4.60242E-001
  1.50000E-003	  4.89010E-001	  4.37251E-001	  5.17250E-001	  4.71043E-001
  1.60000E-003	  5.01295E-001	  4.62564E-001	  5.28921E-001	  4.78061E-001
  1.80000E-003	  4.86243E-001	  5.06579E-001	  5.22443E-001	  4.89941E-001
  2.00000E-003	  4.95162E-001	  5.03990E-001	  4.70615E-001	  4.88051E-001
  2.20000E-003	  5.06591E-001	  4.76085E-001	  4.88755E-001	  5.01552E-001
  2.40000E-003	  4.88751E-001	  5.08017E-001	  5.07219E-001	  4.39719E-001
  2.60000E-003	  4.92933E-001	  4.45016E-001	  4.78065E-001	  5.05332E-001
  2.80000E-003	  4.59205E-001	  4.85578E-001	  4.49560E-001	  4.87781E-001
  3.00000E-003	  4.82050E-001	  5.03990E-001	  4.69656E-001	  4.75631E-001
  3.20000E-003	  4.98665E-001	  4.77662E-001	  4.82620E-001	  4.66445E-001
  3.60000E-003	  4.98665E-001	  4.83991E-001	  4.61079E-001	  4.41199E-001
  4.00000E-003	  4.79002E-001	  4.84135E-001	  4.45032E-001	  4.80621E-001
  4.40000E-003	  4.69246E-001	  4.64429E-001	  4.57018E-001	  4.65770E-001
  4.80000E-003	  4.76354E-001	  4.71333E-001	  4.77911E-001	  4.73870E-001
  5.20000E-003	  4.28550E-001	  4.63710E-001	  4.83417E-001	  5.02897E-001
  5.60000E-003	  4.69803E-001	  4.92334E-001	  4.72566E-001	  4.67120E-001
  6.00000E-003	  4.71894E-001	  4.53641E-001	  4.73862E-001	  4.67120E-001
  6.40000E-003	  4.78015E-001	  4.75805E-001	  4.69572E-001	  4.76504E-001
  7.20000E-003	  4.71603E-001	  4.51568E-001	  4.82367E-001	  4.63544E-001
  8.00000E-003	  4.53415E-001	  4.66959E-001	  4.73864E-001	  4.82040E-001
  8.80000E-003	  4.68189E-001	  4.90333E-001	  4.57344E-001	  4.75964E-001
  9.60000E-003	  4.59536E-001	  4.52359E-001	  4.73054E-001	  4.67661E-001
  1.04000E-002	  4.78480E-001	  4.60486E-001	  4.78387E-001	  4.55173E-001
  1.12000E-002	  4.64194E-001	  4.43513E-001	  4.72799E-001	  4.58278E-001
  1.20000E-002	  4.68724E-001	  4.57189E-001	  4.50691E-001	  4.57063E-001
  1.28000E-002	  4.63346E-001	  4.48681E-001	  4.56271E-001	  4.66482E-001
  1.44000E-002	  4.62406E-001	  4.67057E-001	  4.64693E-001	  4.56289E-001
  1.60000E-002	  4.58016E-001	  4.50623E-001	  4.44326E-001	  4.47446E-001
  1.76000E-002	  4.50071E-001	  4.44617E-001	  4.43719E-001	  4.55232E-001
  1.92000E-002	  4.54067E-001	  4.59685E-001	  4.53165E-001	  4.56211E-001
  2.08000E-002	  4.56855E-001	  4.58534E-001	  4.57336E-001	  4.43723E-001
  2.24000E-002	  4.60328E-001	  4.47027E-001	  4.45270E-001	  4.53848E-001
  2.40000E-002	  4.53034E-001	  4.47279E-001	  4.39549E-001	  4.56008E-001
  2.56000E-002	  4.42608E-001	  4.41555E-001	  4.40213E-001	  4.51631E-001
  2.88000E-002	  4.45513E-001	  4.37696E-001	  4.32095E-001	  4.44374E-001
  3.20000E-002	  4.41268E-001	  4.26693E-001	  4.25779E-001	  4.41967E-001
  3.52000E-002	  4.37453E-001	  4.23043E-001	  4.26751E-001	  4.41191E-001
  3.84000E-002	  4.26267E-001	  4.29203E-001	  4.34646E-001	  4.38356E-001
  4.16000E-002	  4.20467E-001	  4.18393E-001	  4.18248E-001	  4.36078E-001
  4.48000E-002	  4.13225E-001	  4.23013E-001	  4.17600E-001	  4.22499E-001
  4.80000E-002	  4.09364E-001	  4.12387E-001	  4.16223E-001	  4.17487E-001
  5.12000E-002	  4.13429E-001	  4.07598E-001	  4.09313E-001	  4.09697E-001
  5.76000E-002	  3.95034E-001	  3.95275E-001	  4.03300E-001	  4.14456E-001
  6.40000E-002	  3.99186E-001	  3.92858E-001	  3.93713E-001	  3.98274E-001
  7.04000E-002	  3.86026E-001	  3.87554E-001	  3.84824E-001	  3.91288E-001
  7.68000E-002	  3.85273E-001	  3.75525E-001	  3.77981E-001	  3.85744E-001
  8.32000E-002	  3.73679E-001	  3.68133E-001	  3.69274E-001	  3.75339E-001
  8.96000E-002	  3.61045E-001	  3.63262E-001	  3.61217E-001	  3.68523E-001
  9.60000E-002	  3.55271E-001	  3.51788E-001	  3.57543E-001	  3.65407E-001
  1.02400E-001	  3.49918E-001	  3.45310E-001	  3.47567E-001	  3.58499E-001
  1.15200E-001	  3.34222E-001	  3.27543E-001	  3.31022E-001	  3.47027E-001
  1.28000E-001	  3.22405E-001	  3.25176E-001	  3.16696E-001	  3.32790E-001
  1.40800E-001	  3.11219E-001	  3.06751E-001	  3.03570E-001	  3.21283E-001
  1.53600E-001	  2.98707E-001	  2.96856E-001	  2.87310E-001	  3.07799E-001
  1.66400E-001	  2.90007E-001	  2.86755E-001	  2.74516E-001	  3.06200E-001
  1.79200E-001	  2.73001E-001	  2.78513E-001	  2.58846E-001	  2.86695E-001
  1.92000E-001	  2.65370E-001	  2.64879E-001	  2.46859E-001	  2.78868E-001
  2.04800E-001	  2.56315E-001	  2.52985E-001	  2.38128E-001	  2.67990E-001
  2.30400E-001	  2.37567E-001	  2.36204E-001	  2.16939E-001	  2.48105E-001
  2.56000E-001	  2.14875E-001	  2.13501E-001	  1.98575E-001	  2.30592E-001
  2.81600E-001	  2.03015E-001	  1.95300E-001	  1.85331E-001	  2.12316E-001
  3.07200E-001	  1.87815E-001	  1.83765E-001	  1.71778E-001	  2.01031E-001
  3.32800E-001	  1.77686E-001	  1.69428E-001	  1.50974E-001	  1.85428E-001
  3.58400E-001	  1.62854E-001	  1.58942E-001	  1.46288E-001	  1.76358E-001
  3.84000E-001	  1.56959E-001	  1.42634E-001	  1.37794E-001	  1.63276E-001
  4.09600E-001	  1.45952E-001	  1.32139E-001	  1.27262E-001	  1.55280E-001
  4.60800E-001	  1.29692E-001	  1.14303E-001	  1.09208E-001	  1.39434E-001
  5.12000E-001	  1.16690E-001	  1.01844E-001	  9.42119E-002	  1.25850E-001
  5.63200E-001	  1.04023E-001	  9.20882E-002	  7.90314E-002	  1.09445E-001
  6.14400E-001	  9.49266E-002	  8.54699E-002	  6.85269E-002	  9.86636E-002
  6.65600E-001	  8.78710E-002	  7.87859E-002	  6.11722E-002	  9.02024E-002
  7.16800E-001	  8.04042E-002	  7.13033E-002	  5.76328E-002	  8.26225E-002
  7.68000E-001	  7.33314E-002	  6.40608E-002	  5.29634E-002	  7.66764E-002
  8.19200E-001	  6.48586E-002	  6.08480E-002	  5.46310E-002	  6.79020E-002
  9.21600E-001	  5.31126E-002	  4.87947E-002	  5.19694E-002	  5.23962E-002
  1.02400E+000	  4.91582E-002	  4.02156E-002	  4.48213E-002	  4.50252E-002
  1.12640E+000	  4.45569E-002	  2.97763E-002	  3.72763E-002	  4.07383E-002
  1.22880E+000	  3.85249E-002	  2.77058E-002	  2.47644E-002	  3.26680E-002
  1.33120E+000	  2.76127E-002	  2.27093E-002	  1.89711E-002	  2.45256E-002
  1.43360E+000	  1.97271E-002	  2.32541E-002	  1.86298E-002	  1.60519E-002
  1.53600E+000	  1.57066E-002	  2.09942E-002	  1.98698E-002	  8.62744E-003
  1.63840E+000	  1.65613E-002	  2.42725E-002	  1.27000E-002	  2.43997E-003
  1.84320E+000	  1.61038E-002	  2.95802E-002	  2.79715E-003	 -5.12762E-003
  2.04800E+000	  1.40844E-002	  2.55417E-002	 -5.43927E-003	 -8.72415E-003
  2.25280E+000	  1.29462E-002	  1.98962E-002	 -1.39403E-002	 -1.07559E-002
  2.45760E+000	  8.19927E-003	  1.35355E-002	 -1.02841E-002	 -1.06319E-002
  2.66240E+000	  5.63810E-003	  1.40887E-002	 -9.32482E-004	 -6.71523E-003
  2.86720E+000	 -5.20650E-003	  7.60440E-003	  1.69610E-003	  7.47564E-003
  3.07200E+000	 -8.11060E-003	 -1.86955E-003	 -2.57482E-003	  1.07896E-002
  3.27680E+000	 -1.08553E-002	 -6.96409E-003	  1.06795E-003	  1.11361E-002
  3.68640E+000	 -4.71812E-003	 -9.73749E-003	  4.53502E-003	  2.59348E-002
  4.09600E+000	  1.65402E-003	 -7.05757E-003	 -5.20637E-003	  2.92904E-002
  4.50560E+000	  4.39996E-003	 -1.54541E-003	  3.22510E-003	  2.32022E-002
  4.91520E+000	  5.57724E-003	  5.39129E-003	 -2.94156E-003	  9.15313E-003
  5.32480E+000	  3.64625E-003	  9.22497E-003	  6.81843E-003	  7.06463E-003
  5.73440E+000	  1.32491E-002	  6.54286E-003	  1.08271E-002	  6.46703E-003
  6.14400E+000	 -3.21930E-003	 -5.90951E-003	  5.93378E-003	  9.85829E-003
  6.55360E+000	  1.03857E-003	 -2.68406E-003	  1.41112E-003	  9.11277E-003
  7.37280E+000	 -1.60703E-003	 -9.20936E-003	 -8.02793E-003	  6.23721E-003
  8.19200E+000	 -2.32651E-003	  6.96729E-003	 -7.47323E-004	  3.25354E-003
  9.01120E+000	 -6.70444E-003	  4.15965E-003	 -5.35632E-003	 -1.40722E-003
  9.83040E+000	 -9.66974E-003	  4.77863E-003	 -7.68891E-003	  6.68420E-003
  1.06496E+001	  4.38558E-003	  5.22921E-003	 -1.79276E-003	  6.41174E-003
  1.14688E+001	  4.42215E-003	  4.60643E-003	 -7.25933E-003	 -7.47294E-004
  1.22880E+001	  8.45680E-003	 -6.62834E-004	 -1.08483E-003	 -5.97822E-003
  1.31072E+001	  6.50966E-003	 -1.75533E-003	 -1.24106E-003	  1.03659E-003
  1.47456E+001	 -1.29371E-003	 -1.65064E-002	  2.43542E-004	  2.10087E-004
  1.63840E+001	 -7.05694E-003	 -1.40774E-002	 -1.31393E-003	 -7.40375E-003
  1.80224E+001	 -1.08109E-002	 -7.72371E-003	  3.02565E-003	  2.14921E-003
  1.96608E+001	 -6.19341E-003	 -9.69706E-003	 -1.47622E-002	  1.50710E-002
  2.12992E+001	  5.40694E-004	 -5.87231E-003	 -1.17839E-002	  4.80508E-003
  2.29376E+001	  2.41219E-003	 -1.91262E-002	 -6.27391E-003	 -2.40566E-004
  2.45760E+001	 -1.40692E-002	 -1.14707E-002	 -2.12985E-003	 -1.85338E-003
  2.62144E+001	 -6.35143E-003	  6.47885E-003	 -4.98443E-003	  3.82948E-003
  2.94912E+001	 -4.87712E-003	 -8.37114E-003	  2.99555E-003	  4.40391E-003
  3.27680E+001	 -6.16413E-003	  1.09765E-002	  1.46867E-003	  4.60893E-003
  3.60448E+001	  2.87335E-003	 -1.46219E-003	 -3.84081E-003	  4.89646E-004
  3.93216E+001	 -6.59202E-003	  2.66127E-003	  3.49099E-004	  9.95599E-003
  4.25984E+001	  5.35021E-003	  8.70229E-004	  7.67408E-003	  1.44194E-003
  4.58752E+001	  1.23151E-002	  4.02133E-003	  8.57300E-003	 -3.76609E-003
  4.91520E+001	  1.09533E-003	 -3.25365E-003	  1.37136E-003	  1.25383E-002
  5.24288E+001	 -3.50621E-003	 -1.59099E-003	  1.32234E-003	  3.69103E-003
  5.89824E+001	  2.12766E-003	 -7.07774E-003	 -9.03162E-003	  4.68693E-004
  6.55360E+001	 -7.70342E-003	  6.95278E-003	 -6.43225E-003	 -1.06117E-003
  7.20896E+001	  2.36473E-005	  2.81704E-003	  2.30178E-003	 -1.52981E-003
  7.86432E+001	 -2.52968E-003	 -8.36331E-004	  3.29798E-003	  2.59029E-003
  8.51968E+001	  4.34416E-003	 -9.95158E-004	  8.80520E-003	  5.12358E-003
  9.17504E+001	 -2.26413E-003	 -6.96927E-003	  7.76724E-003	 -3.13464E-003
  9.83040E+001	  2.22586E-003	 -8.76983E-004	  3.61452E-003	 -5.56150E-003
  1.04858E+002	 -5.38973E-003	  6.04089E-004	 -1.71202E-003	 -9.50219E-003
  1.17965E+002	 -6.09409E-003	  4.49532E-003	 -3.25698E-003	 -2.17697E-003
  1.31072E+002	  7.86099E-005	  1.37948E-003	 -2.09205E-004	 -3.38946E-003
  1.44179E+002	  6.57964E-005	 -3.04259E-003	  1.38241E-003	  9.22128E-003
  1.57286E+002	 -1.71074E-003	 -1.53239E-003	  1.42065E-003	 -1.91698E-003
  1.70394E+002	  9.59590E-004	  1.05315E-002	  3.45070E-003	 -1.07922E-003
  1.83501E+002	 -2.36410E-003	  1.45656E-003	  5.25486E-004	  3.53808E-003
  1.96608E+002	  3.05324E-004	 -7.05088E-003	 -4.32503E-003	  7.76712E-004
  2.09715E+002	 -9.31235E-004	  6.90807E-004	 -2.44604E-003	  1.43639E-003
  2.35930E+002	  1.23016E-003	 -2.03740E-003	  4.37377E-003	 -5.95676E-004
  2.62144E+002	  4.64601E-004	 -3.01200E-004	 -3.58518E-003	  7.21891E-003
  2.88358E+002	 -2.55685E-003	  2.27463E-003	 -3.88349E-003	 -3.63257E-004
  3.14573E+002	 -3.62899E-003	 -2.92391E-003	  1.23888E-003	  4.36649E-003
  3.40787E+002	  4.24761E-003	  6.98990E-003	 -2.04283E-003	 -1.54895E-003
  3.67002E+002	 -8.21616E-004	 -3.97252E-003	 -1.95177E-003	 -2.10259E-003
  3.93216E+002	  2.35825E-003	  4.13631E-003	  7.03463E-004	 -7.15930E-003

"Count Rate"
       0.01311	     137.78687	     113.06763	     100.86060	     124.66431
       0.02621	     147.93396	     161.20911	     142.82227	     122.45178
       0.03932	     116.04309	     122.75696	     117.87415	     109.63440
       0.05243	     103.83606	     112.38098	     146.48438	     122.60437
       0.06554	     112.99133	     114.28833	     129.16565	     168.15186
       0.07864	     137.71057	      85.14404	     121.38367	     111.00769
       0.09175	     128.47900	     160.29358	     125.88501	     182.03735
       0.10486	      84.76257	     121.99402	     124.20654	     129.47083
       0.11796	     168.15186	     109.78699	     105.89600	     164.33716
       0.13107	     143.73779	     140.68604	     125.12207	      86.36475
       0.14418	     110.01587	     124.89319	     138.47351	     166.47339
       0.15729	     168.22815	     162.58240	     125.12207	     151.13831
       0.17039	     158.23364	     139.08386	     125.96130	     148.54431
       0.18350	     139.99939	     122.52808	     126.64795	     139.46533
       0.19661	     136.87134	     115.35645	     126.87683	     125.65613
       0.20972	     112.15210	     145.87402	     116.80603	     117.41638
       0.22282	     193.78662	     113.90686	     137.93945	     128.70789
       0.23593	     155.63965	     124.96948	     102.31018	     106.20117
       0.24904	     131.45447	     133.43811	     126.64795	     103.45459
       0.26214	     123.21472	     120.23926	     130.92041	     113.14392
       0.27525	     124.35913	     143.12744	     104.82788	      85.22034
       0.28836	     123.82507	     145.26367	      95.82520	     147.93396
       0.30147	     143.66150	     119.01855	     161.13281	     143.81409
       0.31457	     195.15991	     116.50085	     117.34009	     122.52808
       0.32768	     157.24182	     126.87683	      98.49548	     164.03198
       0.34079	     125.65613	     133.97217	     132.90405	     117.49268
       0.35389	     129.69971	     131.30188	      99.63989	      87.05139
       0.36700	     141.29639	     130.00488	     114.28833	     131.75964
       0.38011	     121.53625	     154.34265	     126.11389	     176.92566
       0.39322	     133.05664	     134.35364	     144.88220	     125.12207
       0.40632	     138.93127	     156.63147	      98.57178	     127.18201
       0.41943	     118.86597	     119.24744	      93.91785	     144.27185
       0.43254	     101.69983	     128.25012	     136.33728	     155.10559
       0.44564	     126.26648	     118.94226	     100.09766	     198.59314
       0.45875	     143.50891	     142.82227	      99.02954	     162.42981
       0.47186	     124.74060	     111.46545	     177.07825	     164.94751
       0.48497	     120.84961	     132.82776	     143.05115	     126.95313
       0.49807	     138.32092	     185.69946	      96.96960	     136.26099
       0.51118	     115.05127	     111.31287	     100.17395	     117.49268
       0.52429	     140.91492	     112.68616	     131.14929	     174.94202
       0.53740	     156.70776	     151.74866	     133.28552	     112.91504
       0.55050	     115.35645	     143.12744	     160.67505	     107.87964
       0.56361	     125.57983	     138.77869	     105.43823	     147.70508
       0.57672	     201.87378	     115.58533	     178.29895	      98.80066
       0.58982	     151.90125	     173.95020	     127.10571	     158.76770
       0.60293	     115.66162	      97.80884	     134.88770	     173.11096
       0.61604	     127.10571	     155.41077	     115.73792	     176.08643
       0.62915	     123.29102	      86.36475	     155.10559	     131.14929
       0.64225	     112.07581	     103.30200	     117.95044	     186.30981
       0.65536	     154.72412	     109.71069	     105.74341	     168.15186
       0.66847	     136.18469	     202.78931	     132.59888	     145.11108
       0.68157	     128.93677	     125.27466	     131.91223	     149.38354
       0.69468	     129.16565	     140.22827	     149.99390	     172.88208
       0.70779	     124.58801	     134.50623	     126.72424	     158.92029
       0.72090	     144.65332	     132.90405	     158.61511	     132.59888
       0.73400	     134.88770	     174.78943	     135.95581	     118.86597
       0.74711	     187.60681	     127.10571	     104.37012	     127.63977
