ALV-7004/USB-FAST
Date :	"3/14/2024"
Time :	"12:32:52 PM"
Samplename : 	""
SampMemo(0) : 	""
SampMemo(1) : 	""
SampMemo(2) : 	""
SampMemo(3) : 	""
SampMemo(4) : 	""
SampMemo(5) : 	""
SampMemo(6) : 	""
SampMemo(7) : 	""
SampMemo(8) : 	""
SampMemo(9) : 	""
Temperature [K] :	     298.16000
Viscosity [cp]  :	       0.89000
Refractive Index:	       1.33200
Wavelength [nm] :	       0.00000
Angle [°]       :	       0.00000
Duration [s]    :	         1
FloatDur [ms]   :	          944
Stop TP [ms]   :	      3217
Runs            :	         1
Mode            :	"A-CH0+1  A-CH2+3 "
MeanCR0 [kHz]   :	     142.91445
MeanCR1 [kHz]   :	     139.78111
MeanCR2 [kHz]   :	     134.50198
MeanCR3 [kHz]   :	     135.75023

"Correlation"
  3.12500E-006	 -1.00000E+000	 -1.00000E+000	 -1.00000E+000	 -1.00000E+000
  6.25000E-006	 -1.00000E+000	 -1.00000E+000	 -1.00000E+000	 -1.00000E+000
  9.37500E-006	 -1.00000E+000	 -1.00000E+000	 -1.00000E+000	 -1.00000E+000
  1.25000E-005	 -1.00000E+000	 -1.00000E+000	 -1.00000E+000	 -1.00000E+000
  1.56250E-005	 -1.00000E+000	 -1.00000E+000	 -1.00000E+000	 -1.00000E+000
  1.87500E-005	 -1.00000E+000	 -1.00000E+000	 -1.00000E+000	 -1.00000E+000
  2.18750E-005	 -9.66796E-001	 -4.27303E-001	 -2.69004E-001	 -8.71197E-001
  2.50000E-005	  5.49130E+000	  5.64675E+000	  5.48524E+000	  1.00770E+001
  2.81250E-005	  1.50687E+000	  9.95761E-001	  1.41791E+000	  3.89450E+000
  3.12500E-005	  1.12503E+000	  7.70153E-001	  7.99374E-001	  2.56967E+000
  3.43750E-005	  7.59791E-001	  8.04862E-001	  7.43143E-001	  1.94406E+000
  3.75000E-005	  5.93773E-001	  7.18090E-001	  8.55604E-001	  1.96246E+000
  4.06250E-005	  8.09596E-001	  8.22216E-001	  8.18117E-001	  1.61285E+000
  4.37500E-005	  5.27366E-001	  5.79254E-001	  5.18222E-001	  1.13444E+000
  4.68750E-005	  5.60569E-001	  5.27191E-001	  7.05656E-001	  1.42885E+000
  5.00000E-005	  6.26976E-001	  5.70577E-001	  5.46337E-001	  1.14364E+000
  5.62500E-005	  6.26976E-001	  5.87931E-001	  6.68169E-001	  1.12524E+000
  6.25000E-005	  4.94162E-001	  5.35868E-001	  7.24400E-001	  1.04244E+000
  6.87500E-005	  6.18676E-001	  3.97032E-001	  4.15132E-001	  8.21636E-001
  7.50000E-005	  6.02074E-001	  5.44545E-001	  7.05656E-001	  8.40036E-001
  8.12500E-005	  3.44746E-001	  3.18937E-001	  7.43143E-001	  7.75635E-001
  8.75000E-005	  6.02074E-001	  6.13963E-001	  4.33876E-001	  5.18030E-001
  9.37500E-005	  5.27366E-001	  7.44121E-001	  6.58798E-001	  5.82431E-001
  1.00000E-004	  4.90011E-001	  5.18513E-001	  4.52619E-001	  7.02033E-001
  1.12500E-004	  4.31905E-001	  5.05497E-001	  6.21310E-001	  5.64030E-001
  1.25000E-004	  5.10764E-001	  5.35868E-001	  4.19818E-001	  6.23832E-001
  1.37500E-004	  5.31516E-001	  4.83804E-001	  4.94792E-001	  5.64030E-001
  1.50000E-004	  5.77171E-001	  4.18725E-001	  5.69766E-001	  4.76629E-001
  1.62500E-004	  3.94551E-001	  5.96608E-001	  4.33876E-001	  6.65232E-001
  1.75000E-004	  4.31905E-001	  3.92694E-001	  4.24504E-001	  5.87031E-001
  1.87500E-004	  5.27366E-001	  6.22640E-001	  5.18221E-001	  4.53628E-001
  2.00000E-004	  5.31516E-001	  4.96820E-001	  4.83077E-001	  5.73230E-001
  2.25000E-004	  5.06613E-001	  4.18725E-001	  5.88509E-001	  4.76628E-001
  2.50000E-004	  5.99998E-001	  4.23064E-001	  5.95538E-001	  4.72028E-001
  2.75000E-004	  4.65108E-001	  5.31529E-001	  4.76048E-001	  5.38730E-001
  3.00000E-004	  5.14914E-001	  5.01158E-001	  4.03417E-001	  5.43330E-001
  3.25000E-004	  4.36055E-001	  4.96820E-001	  5.34622E-001	  4.83528E-001
  3.50000E-004	  6.12449E-001	  4.94651E-001	  5.15878E-001	  5.27229E-001
  3.75000E-004	  3.98701E-001	  4.98989E-001	  5.53365E-001	  5.06529E-001
  4.00000E-004	  4.78597E-001	  5.25020E-001	  4.83076E-001	  4.72028E-001
  4.50000E-004	  4.53694E-001	  5.25020E-001	  5.05334E-001	  4.36377E-001
  5.00000E-004	  4.47468E-001	  5.40205E-001	  4.65504E-001	  5.78980E-001
  5.50000E-004	  5.38778E-001	  4.72957E-001	  4.44418E-001	  5.21479E-001
  6.00000E-004	  4.64070E-001	  4.92481E-001	  4.64333E-001	  5.11128E-001
  6.50000E-004	  4.56807E-001	  5.04412E-001	  4.58476E-001	  5.50229E-001
  7.00000E-004	  4.50581E-001	  5.35867E-001	  5.28764E-001	  4.62827E-001
  7.50000E-004	  4.17378E-001	  5.51052E-001	  5.14706E-001	  4.82378E-001
  8.00000E-004	  4.78596E-001	  5.29357E-001	  4.89518E-001	  5.31827E-001
  9.00000E-004	  5.35145E-001	  5.21223E-001	  4.50274E-001	  5.09402E-001
  1.00000E-003	  4.90528E-001	  4.57228E-001	  4.80146E-001	  4.59951E-001
  1.10000E-003	  4.90528E-001	  5.16342E-001	  5.18805E-001	  4.99052E-001
  1.20000E-003	  4.54212E-001	  5.45085E-001	  4.81904E-001	  4.80652E-001
  1.30000E-003	  4.80671E-001	  5.01699E-001	  4.95375E-001	  5.64603E-001
  1.40000E-003	  4.50580E-001	  5.44000E-001	  4.73703E-001	  4.74901E-001
  1.50000E-003	  4.56806E-001	  4.70244E-001	  4.63160E-001	  4.90427E-001
  1.60000E-003	  5.07398E-001	  4.69168E-001	  4.92151E-001	  5.15150E-001
  1.80000E-003	  4.80939E-001	  4.53169E-001	  4.43243E-001	  5.29812E-001
  2.00000E-003	  4.79901E-001	  4.81913E-001	  4.86880E-001	  5.28662E-001
  2.20000E-003	  5.00394E-001	  5.15266E-001	  5.16166E-001	  4.93012E-001
  2.40000E-003	  4.99097E-001	  4.56694E-001	  4.55836E-001	  4.94162E-001
  2.60000E-003	  4.76529E-001	  4.94929E-001	  5.07673E-001	  4.91574E-001
  2.80000E-003	  4.81457E-001	  5.03346E-001	  5.07673E-001	  4.67136E-001
  3.00000E-003	  4.53442E-001	  4.74060E-001	  4.84830E-001	  4.65411E-001
  3.20000E-003	  4.76535E-001	  4.90348E-001	  4.73257E-001	  4.62244E-001
  3.60000E-003	  4.73941E-001	  4.94946E-001	  4.63738E-001	  4.86538E-001
  4.00000E-003	  4.51880E-001	  4.85320E-001	  4.82775E-001	  4.78200E-001
  4.40000E-003	  4.99222E-001	  4.84100E-001	  5.01079E-001	  4.96313E-001
  4.80000E-003	  4.75097E-001	  4.81795E-001	  4.67839E-001	  4.99044E-001
  5.20000E-003	  4.68871E-001	  4.96720E-001	  4.87607E-001	  4.77625E-001
  5.60000E-003	  4.91439E-001	  4.65400E-001	  4.77357E-001	  4.85963E-001
  6.00000E-003	  4.80285E-001	  4.94144E-001	  4.71499E-001	  4.87832E-001
  6.40000E-003	  4.90208E-001	  4.98766E-001	  4.84668E-001	  5.03718E-001
  7.20000E-003	  4.70764E-001	  5.04868E-001	  4.51721E-001	  4.74608E-001
  8.00000E-003	  4.62787E-001	  4.83445E-001	  4.71636E-001	  4.81077E-001
  8.80000E-003	  4.85031E-001	  4.66169E-001	  4.66438E-001	  4.64114E-001
  9.60000E-003	  4.69986E-001	  4.76203E-001	  4.70977E-001	  4.68067E-001
  1.04000E-002	  4.61750E-001	  4.80948E-001	  4.78884E-001	  4.66989E-001
  1.12000E-002	  4.67456E-001	  4.79321E-001	  4.67536E-001	  4.70727E-001
  1.20000E-002	  4.57080E-001	  4.70248E-001	  4.62191E-001	  4.68930E-001
  1.28000E-002	  4.67491E-001	  4.65063E-001	  4.62842E-001	  4.64823E-001
  1.44000E-002	  4.50856E-001	  4.59380E-001	  4.57167E-001	  4.58498E-001
  1.60000E-002	  4.53840E-001	  4.55922E-001	  4.29968E-001	  4.46469E-001
  1.76000E-002	  4.49981E-001	  4.53583E-001	  4.43659E-001	  4.40564E-001
  1.92000E-002	  4.44274E-001	  4.36092E-001	  4.30480E-001	  4.49836E-001
  2.08000E-002	  4.25737E-001	  4.34871E-001	  4.36667E-001	  4.40672E-001
  2.24000E-002	  4.34038E-001	  4.34499E-001	  4.25538E-001	  4.42002E-001
  2.40000E-002	  4.38145E-001	  4.38318E-001	  4.31030E-001	  4.44050E-001
  2.56000E-002	  4.22907E-001	  4.35778E-001	  4.12289E-001	  4.32547E-001
  2.88000E-002	  4.14411E-001	  4.25365E-001	  4.14730E-001	  4.09983E-001
  3.20000E-002	  4.08564E-001	  4.07048E-001	  4.04089E-001	  4.19615E-001
  3.52000E-002	  4.07105E-001	  4.03567E-001	  3.98103E-001	  4.08186E-001
  3.84000E-002	  3.92864E-001	  3.87814E-001	  3.77292E-001	  3.95489E-001
  4.16000E-002	  3.81530E-001	  3.91113E-001	  3.79598E-001	  3.86612E-001
  4.48000E-002	  3.77169E-001	  3.82062E-001	  3.72753E-001	  3.85451E-001
  4.80000E-002	  3.74072E-001	  3.67434E-001	  3.68488E-001	  3.71787E-001
  5.12000E-002	  3.62121E-001	  3.58587E-001	  3.56058E-001	  3.65726E-001
  5.76000E-002	  3.51445E-001	  3.54256E-001	  3.42148E-001	  3.52058E-001
  6.40000E-002	  3.39449E-001	  3.43151E-001	  3.31073E-001	  3.39124E-001
  7.04000E-002	  3.30800E-001	  3.29075E-001	  3.20283E-001	  3.28510E-001
  7.68000E-002	  3.13013E-001	  3.21070E-001	  3.10052E-001	  3.15551E-001
  8.32000E-002	  3.16777E-001	  3.14165E-001	  2.94557E-001	  2.98782E-001
  8.96000E-002	  3.03034E-001	  3.06536E-001	  2.85295E-001	  2.87279E-001
  9.60000E-002	  2.89539E-001	  2.96146E-001	  2.73069E-001	  2.81311E-001
  1.02400E-001	  2.86061E-001	  2.82348E-001	  2.67385E-001	  2.74241E-001
  1.15200E-001	  2.69685E-001	  2.70008E-001	  2.53192E-001	  2.55602E-001
  1.28000E-001	  2.58425E-001	  2.58360E-001	  2.40398E-001	  2.42153E-001
  1.40800E-001	  2.44493E-001	  2.44342E-001	  2.24109E-001	  2.31112E-001
  1.53600E-001	  2.37714E-001	  2.28930E-001	  2.05700E-001	  2.21170E-001
  1.66400E-001	  2.28354E-001	  2.23901E-001	  1.99720E-001	  2.08389E-001
  1.79200E-001	  2.14303E-001	  2.09436E-001	  1.87865E-001	  1.99703E-001
  1.92000E-001	  2.03991E-001	  2.01301E-001	  1.79340E-001	  1.95730E-001
  2.04800E-001	  1.95780E-001	  1.95420E-001	  1.73107E-001	  1.80130E-001
  2.30400E-001	  1.76843E-001	  1.81748E-001	  1.58777E-001	  1.66607E-001
  2.56000E-001	  1.53547E-001	  1.66499E-001	  1.45635E-001	  1.48955E-001
  2.81600E-001	  1.40883E-001	  1.54639E-001	  1.27985E-001	  1.39886E-001
  3.07200E-001	  1.29431E-001	  1.43796E-001	  1.15233E-001	  1.27784E-001
  3.32800E-001	  1.19917E-001	  1.34547E-001	  1.06857E-001	  1.22673E-001
  3.58400E-001	  1.12354E-001	  1.28058E-001	  9.84752E-002	  1.15508E-001
  3.84000E-001	  9.99856E-002	  1.14942E-001	  9.02803E-002	  1.06551E-001
  4.09600E-001	  9.13272E-002	  1.05728E-001	  8.25338E-002	  1.03116E-001
  4.60800E-001	  7.84910E-002	  9.34905E-002	  7.41941E-002	  9.07876E-002
  5.12000E-001	  6.31851E-002	  8.13602E-002	  6.46336E-002	  8.10519E-002
  5.63200E-001	  5.57883E-002	  6.77452E-002	  5.54060E-002	  7.21040E-002
  6.14400E-001	  4.71839E-002	  5.86947E-002	  5.53808E-002	  6.40452E-002
  6.65600E-001	  4.05550E-002	  5.51720E-002	  5.32901E-002	  6.33210E-002
  7.16800E-001	  3.54985E-002	  5.08405E-002	  4.82922E-002	  5.84117E-002
  7.68000E-001	  3.32107E-002	  4.27477E-002	  4.78266E-002	  5.38082E-002
  8.19200E-001	  3.32037E-002	  3.88884E-002	  4.14739E-002	  4.68599E-002
  9.21600E-001	  3.05253E-002	  2.99169E-002	  3.71946E-002	  2.94055E-002
  1.02400E+000	  2.39320E-002	  2.04273E-002	  2.81762E-002	  2.39172E-002
  1.12640E+000	  1.90753E-002	  1.16651E-002	  1.98843E-002	  2.09181E-002
  1.22880E+000	  1.28464E-002	  6.83061E-003	  1.31708E-002	  1.61297E-002
  1.33120E+000	  1.00186E-002	  4.96679E-003	  9.76384E-003	  1.11303E-002
  1.43360E+000	  6.98965E-003	  4.27980E-004	  8.42856E-003	  5.84791E-003
  1.53600E+000	  8.27193E-003	 -5.41451E-003	  1.04257E-002	  1.60261E-003
  1.63840E+000	  7.39541E-003	 -1.09949E-002	  1.10017E-002	 -4.73915E-003
  1.84320E+000	  2.15276E-003	 -8.54723E-003	  1.25966E-002	 -7.89780E-003
  2.04800E+000	 -6.71231E-003	 -6.42725E-003	  5.52429E-003	 -1.11835E-002
  2.25280E+000	 -3.98239E-003	 -3.57840E-003	  1.05346E-002	 -5.28526E-003
  2.45760E+000	 -4.39769E-003	  8.33854E-004	  4.29373E-003	  4.93313E-003
  2.66240E+000	 -1.05148E-003	  7.20612E-003	 -2.13701E-003	  1.72383E-003
  2.86720E+000	  1.09704E-003	  4.54972E-003	 -3.96733E-003	  6.10684E-004
  3.07200E+000	 -3.82307E-004	  4.80043E-005	 -2.47705E-003	  6.69539E-003
  3.27680E+000	 -3.19207E-003	  1.00713E-003	 -3.32830E-003	  4.88112E-003
  3.68640E+000	 -6.85940E-003	 -8.82239E-003	 -3.59221E-004	 -2.22398E-003
  4.09600E+000	 -7.57872E-003	 -3.14833E-003	  4.40417E-003	 -7.77924E-004
  4.50560E+000	 -5.55900E-003	  1.00870E-003	  3.21512E-003	 -3.43605E-003
  4.91520E+000	 -4.55277E-003	 -4.30893E-004	  1.67205E-003	 -5.87011E-003
  5.32480E+000	  2.80495E-003	 -1.98904E-004	  3.42640E-003	 -7.57716E-003
  5.73440E+000	  1.27824E-002	 -4.61700E-003	  3.37623E-003	 -3.76857E-003
  6.14400E+000	  4.30646E-003	 -5.38853E-003	 -3.25577E-003	 -7.10812E-003
  6.55360E+000	  5.41107E-003	  1.63404E-003	  6.66856E-003	  5.23080E-003
  7.37280E+000	 -4.01794E-003	  6.80995E-003	 -1.78219E-003	  4.42200E-003
  8.19200E+000	 -2.88775E-003	 -4.81092E-003	 -1.38962E-002	  2.32165E-003
  9.01120E+000	  1.42327E-004	 -9.95905E-003	 -2.83301E-003	 -6.28874E-004
  9.83040E+000	 -5.89056E-003	  4.84079E-003	 -6.06889E-003	 -1.02055E-003
  1.06496E+001	 -1.79445E-002	  5.38054E-004	 -4.14429E-003	 -4.93957E-003
  1.14688E+001	  9.08073E-004	  2.61767E-005	  6.51670E-003	  1.22109E-003
  1.22880E+001	  1.53709E-002	 -7.85603E-003	  4.03416E-003	  3.67616E-003
  1.31072E+001	  1.28471E-002	 -2.54559E-003	 -4.68185E-003	  7.67057E-003
  1.47456E+001	  6.52146E-003	 -5.54050E-003	 -4.27172E-003	  4.22820E-003
  1.63840E+001	 -8.70848E-003	 -7.06246E-004	  1.60308E-003	 -1.51934E-003
  1.80224E+001	 -8.30460E-004	 -1.06288E-002	 -9.47252E-004	  6.56143E-003
  1.96608E+001	  1.98566E-003	 -8.29787E-003	 -1.59116E-003	 -1.39552E-002
  2.12992E+001	  4.17211E-003	  9.60705E-003	 -7.87152E-003	 -5.56107E-003
  2.29376E+001	  1.91417E-003	 -5.67534E-003	 -8.03443E-003	 -4.36807E-003
  2.45760E+001	 -9.26305E-003	 -1.52113E-002	 -6.46152E-003	  5.12500E-004
  2.62144E+001	 -4.33814E-003	 -1.48886E-003	 -4.02540E-003	 -5.73403E-003
  2.94912E+001	 -2.80141E-003	  2.08564E-003	  1.29589E-003	 -1.11137E-003
  3.27680E+001	  4.23958E-003	  3.28051E-003	 -3.57825E-003	 -1.43409E-003
  3.60448E+001	  6.90584E-005	  3.46293E-003	 -3.83060E-003	 -3.59918E-003
  3.93216E+001	 -8.30525E-004	 -7.24029E-003	 -2.05091E-003	 -1.08836E-003
  4.25984E+001	 -2.74036E-003	  7.09613E-003	 -4.89826E-004	 -1.08611E-003
  4.58752E+001	  3.96626E-003	 -3.25113E-003	  3.47617E-003	  3.03338E-003
  4.91520E+001	 -4.30122E-004	 -3.98074E-004	  7.06320E-004	 -7.48397E-004
  5.24288E+001	  4.22505E-003	  2.94648E-003	  2.97770E-003	  4.08442E-003
  5.89824E+001	 -4.96769E-004	  4.72050E-003	 -3.22278E-003	  1.35341E-004
  6.55360E+001	 -1.90831E-003	  3.33137E-003	  7.33288E-004	  4.64505E-004
  7.20896E+001	  4.00278E-003	  1.26021E-003	 -1.74891E-003	  3.37662E-004
  7.86432E+001	 -5.25365E-003	 -1.14531E-003	 -2.26858E-003	  9.50566E-004
  8.51968E+001	  3.62799E-003	  1.16795E-003	 -2.30817E-004	  1.93883E-004
  9.17504E+001	 -3.71025E-003	  1.51595E-004	  1.34737E-003	 -2.55862E-003
  9.83040E+001	  1.10534E-003	  1.43363E-003	 -2.81169E-003	  1.01655E-003
  1.04858E+002	 -2.74548E-003	 -2.55925E-003	 -1.32714E-003	 -3.12368E-003
  1.17965E+002	 -1.45433E-003	  4.50435E-003	  2.32825E-003	  2.05651E-003
  1.31072E+002	 -2.06893E-003	 -1.92293E-003	  1.36899E-005	  4.30554E-003
  1.44179E+002	  3.96539E-004	  8.24775E-004	 -2.47531E-003	  1.79150E-003
  1.57286E+002	  1.69925E-003	 -7.62828E-004	 -2.17573E-003	  5.56441E-004
  1.70394E+002	 -9.09917E-004	 -1.31981E-003	  5.02123E-004	 -3.29675E-003
  1.83501E+002	  1.23839E-003	  2.39650E-003	 -7.19415E-004	 -9.53788E-004
  1.96608E+002	  5.33841E-004	 -1.97981E-003	 -1.78325E-003	  6.38585E-004
  2.09715E+002	  2.73458E-003	  1.47870E-003	 -9.74127E-004	 -6.81716E-004
  2.35930E+002	  5.86111E-004	 -8.28649E-004	 -1.09937E-003	 -1.73183E-003
  2.62144E+002	 -2.05330E-003	  1.37722E-003	  4.46580E-004	  2.88888E-003
  2.88358E+002	 -4.85561E-003	 -9.85926E-004	 -3.53943E-003	 -6.32261E-004
  3.14573E+002	 -2.11830E-003	  2.64148E-003	  2.26988E-003	  1.00915E-003
  3.40787E+002	 -1.90641E-003	 -1.50714E-004	 -1.76097E-003	 -1.62690E-003
  3.67002E+002	  5.62651E-004	  6.69299E-004	  5.95326E-003	  8.99210E-004
  3.93216E+002	  2.73900E-003	  9.22951E-004	 -1.19923E-003	  3.69369E-003

"Count Rate"
       0.01311	     146.25549	     132.67517	     122.52808	     144.50073
       0.02621	     181.80847	     128.32642	     110.85510	     162.81128
       0.03932	     147.09473	     136.64246	     112.45728	     117.56897
       0.05243	     147.17102	     135.72693	     139.84680	     132.82776
       0.06554	     130.69153	     106.12488	     136.48987	     117.49268
       0.07864	     177.07825	     140.68604	     121.30737	     139.54163
       0.09175	     143.50891	     149.99390	     116.50085	     106.04858
       0.10486	     147.47620	     103.30200	     145.49255	     114.74609
       0.11796	     125.73242	     138.32092	     130.84412	     132.44629
       0.13107	     151.21460	     112.45728	     141.98303	     155.79224
       0.14418	     130.84412	     130.46265	     137.78687	     108.41370
       0.15729	     159.22546	     131.75964	     114.97498	     151.29089
       0.17039	     133.36182	     132.75146	     104.98047	     109.71069
       0.18350	     121.53625	     118.48450	     155.63965	     109.10034
       0.19661	     147.24731	      98.87695	     138.93127	     115.58533
       0.20972	     129.69971	     156.40259	     114.44092	     124.43542
       0.22282	     121.61255	     140.38086	     145.87402	     114.74609
       0.23593	     143.12744	     151.74866	     132.29370	     130.76782
       0.24904	      96.66443	     110.93140	     121.45996	     128.55530
       0.26214	     106.20117	     130.61523	     143.28003	     126.11389
       0.27525	     158.76770	     131.60706	     148.62061	     129.92859
       0.28836	     137.71057	     159.07288	     105.81970	     169.60144
       0.30147	     130.08118	     135.42175	     150.45166	     138.16833
       0.31457	     177.91748	     120.69702	     130.84412	     146.02661
       0.32768	     141.75415	     172.34802	     116.19568	     114.74609
       0.34079	     130.23376	     164.10828	     127.71606	     124.35913
       0.35389	     120.16296	     161.74316	     155.56335	     145.03479
       0.36700	     157.62329	      95.21484	     165.02380	     147.78137
       0.38011	     125.19836	     116.80603	     108.41370	     123.29102
       0.39322	     120.23926	     155.33447	     131.60706	     121.99402
       0.40632	     164.48975	     168.60962	     124.58801	     143.28003
       0.41943	     125.27466	     128.63159	     121.68884	     147.17102
       0.43254	     111.54175	     126.72424	     111.00769	     158.23364
       0.44564	     137.78687	     146.40808	     121.68884	     128.55530
       0.45875	     174.33167	     140.38086	     114.82239	     110.01587
       0.47186	     149.84131	     121.53625	     122.68066	     139.23645
       0.48497	     151.36719	     169.52515	     105.89600	     148.23914
       0.49807	     122.83325	     123.82507	     156.78406	     116.11938
       0.51118	     171.58508	     136.79504	     151.82495	     132.52258
       0.52429	     174.25537	     113.75427	     136.64246	     136.03210
       0.53740	     135.72693	     145.11108	     127.63977	     109.10034
       0.55050	     150.52795	     156.63147	     153.12195	     117.03491
       0.56361	     149.84131	     120.31555	     125.50354	     179.51965
       0.57672	     160.75134	     156.17371	     135.19287	     144.72961
       0.58982	     118.94226	     120.16296	     120.16296	     119.55261
       0.60293	     114.66980	     169.83032	     175.39978	     107.65076
       0.61604	     140.83862	     144.57703	     155.79224	     147.17102
       0.62915	     143.73779	     139.08386	     145.18738	     112.15210
       0.64225	     143.66150	     166.70227	     121.91772	     134.04846
       0.65536	      98.87695	     139.92310	      99.25842	     118.10303
       0.66847	     159.53064	     138.93127	     175.47607	     168.68591
       0.68157	     111.23657	     138.85498	     118.63708	     157.16553
       0.69468	     143.28003	     165.17639	     140.91492	     151.82495
       0.70779	     183.41064	     116.27197	     128.70789	     127.48718
       0.72090	     177.07825	     179.36707	     142.44080	     111.31287
       0.73400	     134.96399	     122.60437	     180.74036	     131.22559
       0.74711	     126.72424	     120.62073	     116.95862	     137.40540
