ALV-7004/USB-FAST
Date :	"3/14/2024"
Time :	"12:35:08 PM"
Samplename : 	""
SampMemo(0) : 	""
SampMemo(1) : 	""
SampMemo(2) : 	""
SampMemo(3) : 	""
SampMemo(4) : 	""
SampMemo(5) : 	""
SampMemo(6) : 	""
SampMemo(7) : 	""
SampMemo(8) : 	""
SampMemo(9) : 	""
Temperature [K] :	     298.16000
Viscosity [cp]  :	       0.89000
Refractive Index:	       1.33200
Wavelength [nm] :	       0.00000
Angle [°]       :	       0.00000
Duration [s]    :	         1
FloatDur [ms]   :	          944
Stop TP [ms]   :	      3779
Runs            :	         1
Mode            :	"A-CH0+1  A-CH2+3 "
MeanCR0 [kHz]   :	     101.33213
MeanCR1 [kHz]   :	      96.11236
MeanCR2 [kHz]   :	      96.98020
MeanCR3 [kHz]   :	      98.00699

"Correlation"
  3.12500E-006	 -1.00000E+000	 -1.00000E+000	 -1.00000E+000	 -1.00000E+000
  6.25000E-006	 -1.00000E+000	 -1.00000E+000	 -1.00000E+000	 -1.00000E+000
  9.37500E-006	 -1.00000E+000	 -1.00000E+000	 -1.00000E+000	 -1.00000E+000
  1.25000E-005	 -1.00000E+000	 -1.00000E+000	 -1.00000E+000	 -1.00000E+000
  1.56250E-005	 -1.00000E+000	 -1.00000E+000	 -1.00000E+000	 -1.00000E+000
  1.87500E-005	 -1.00000E+000	 -1.00000E+000	 -1.00000E+000	 -1.00000E+000
  2.18750E-005	 -8.67908E-001	 -1.19032E-001	 -2.06834E-001	 -9.64698E-001
  2.50000E-005	  6.59531E+000	  6.96542E+000	  7.40035E+000	  1.30500E+001
  2.81250E-005	  2.33533E+000	  1.49608E+000	  1.23529E+000	  6.09561E+000
  3.12500E-005	  1.47673E+000	  7.25230E-001	  9.10809E-001	  3.13028E+000
  3.43750E-005	  9.81385E-001	  7.25230E-001	  1.09107E+000	  3.05967E+000
  3.75000E-005	  6.84178E-001	  4.31574E-001	  6.22385E-001	  2.17714E+000
  4.06250E-005	  4.86039E-001	  6.88523E-001	  2.97908E-001	  2.14184E+000
  4.37500E-005	  1.21255E+000	  1.01889E+000	  4.78173E-001	  1.43580E+000
  4.68750E-005	  4.86039E-001	  6.51816E-001	  9.46862E-001	  1.43580E+000
  5.00000E-005	  6.51154E-001	  8.72058E-001	  7.66597E-001	  1.45346E+000
  5.62500E-005	  5.35574E-001	  4.68281E-001	  6.76464E-001	  1.52406E+000
  6.25000E-005	  7.33712E-001	  2.84745E-001	  7.12517E-001	  1.01219E+000
  6.87500E-005	  6.51154E-001	  5.60048E-001	  6.76464E-001	  7.29774E-001
  7.50000E-005	  4.03481E-001	  4.86634E-001	  7.12517E-001	  1.04749E+000
  8.12500E-005	  5.02550E-001	  5.41695E-001	  5.32252E-001	  8.35679E-001
  8.75000E-005	  5.19062E-001	  4.31574E-001	  5.14226E-001	  6.76822E-001
  9.37500E-005	  4.69527E-001	  5.96755E-001	  5.32252E-001	  6.59171E-001
  1.00000E-004	  5.60341E-001	  5.96755E-001	  4.69159E-001	  8.62155E-001
  1.12500E-004	  5.52085E-001	  5.60048E-001	  5.41265E-001	  6.76822E-001
  1.25000E-004	  4.03481E-001	  6.15108E-001	  4.60146E-001	  4.12061E-001
  1.37500E-004	  3.86970E-001	  5.60048E-001	  4.06067E-001	  7.12124E-001
  1.50000E-004	  5.76852E-001	  6.42639E-001	  5.32252E-001	  5.09140E-001
  1.62500E-004	  6.84177E-001	  6.05932E-001	  5.68305E-001	  8.18028E-001
  1.75000E-004	  4.36504E-001	  3.94866E-001	  4.33106E-001	  3.76759E-001
  1.87500E-004	  5.27318E-001	  3.48983E-001	  4.60146E-001	  5.53267E-001
  2.00000E-004	  7.33712E-001	  3.48982E-001	  4.78172E-001	  5.62092E-001
  2.25000E-004	  3.74586E-001	  5.27929E-001	  5.05212E-001	  4.47362E-001
  2.50000E-004	  6.42898E-001	  5.64636E-001	  4.19586E-001	  6.32695E-001
  2.75000E-004	  5.23189E-001	  4.77457E-001	  4.42119E-001	  5.04727E-001
  3.00000E-004	  5.31445E-001	  6.15108E-001	  3.65507E-001	  6.59171E-001
  3.25000E-004	  5.47957E-001	  3.90278E-001	  6.22384E-001	  4.38536E-001
  3.50000E-004	  3.82841E-001	  4.91222E-001	  6.08864E-001	  5.44441E-001
  3.75000E-004	  4.65399E-001	  5.27929E-001	  4.69159E-001	  4.95901E-001
  4.00000E-004	  5.14933E-001	  4.31572E-001	  4.42119E-001	  4.60599E-001
  4.50000E-004	  4.28247E-001	  4.95810E-001	  4.48879E-001	  3.85584E-001
  5.00000E-004	  5.80979E-001	  4.68279E-001	  5.18731E-001	  5.90774E-001
  5.50000E-004	  4.40631E-001	  6.03636E-001	  4.39865E-001	  5.15758E-001
  6.00000E-004	  4.30311E-001	  5.25634E-001	  3.99306E-001	  6.06218E-001
  6.50000E-004	  4.61271E-001	  4.43043E-001	  4.42119E-001	  4.31917E-001
  7.00000E-004	  5.21125E-001	  4.15513E-001	  4.46625E-001	  6.28281E-001
  7.50000E-004	  5.76851E-001	  4.61397E-001	  4.30852E-001	  5.81948E-001
  8.00000E-004	  5.13900E-001	  4.88926E-001	  4.69157E-001	  5.30098E-001
  9.00000E-004	  4.75717E-001	  4.76308E-001	  5.13097E-001	  4.81558E-001
  1.00000E-003	  4.43726E-001	  3.55863E-001	  5.33377E-001	  5.58780E-001
  1.10000E-003	  5.61370E-001	  4.15512E-001	  4.97324E-001	  5.88566E-001
  1.20000E-003	  4.11735E-001	  4.29277E-001	  4.74790E-001	  5.27891E-001
  1.30000E-003	  5.28347E-001	  4.40748E-001	  4.84930E-001	  4.74939E-001
  1.40000E-003	  4.67461E-001	  4.56807E-001	  5.24363E-001	  4.23090E-001
  1.50000E-003	  4.33406E-001	  4.74014E-001	  4.74790E-001	  5.46645E-001
  1.60000E-003	  4.61783E-001	  4.82041E-001	  4.26342E-001	  5.26234E-001
  1.80000E-003	  4.76230E-001	  4.23539E-001	  4.56762E-001	  5.43885E-001
  2.00000E-003	  4.97902E-001	  4.91791E-001	  4.73098E-001	  5.43333E-001
  2.20000E-003	  4.98934E-001	  5.14159E-001	  4.84928E-001	  4.99758E-001
  2.40000E-003	  4.60235E-001	  4.65982E-001	  4.11132E-001	  5.36714E-001
  2.60000E-003	  5.46404E-001	  4.69423E-001	  4.33102E-001	  5.33405E-001
  2.80000E-003	  4.58171E-001	  4.74585E-001	  4.66901E-001	  5.10238E-001
  3.00000E-003	  4.87582E-001	  4.78600E-001	  4.83801E-001	  5.14651E-001
  3.20000E-003	  4.69002E-001	  4.42461E-001	  4.73938E-001	  4.92858E-001
  3.60000E-003	  4.70808E-001	  4.68844E-001	  4.71403E-001	  5.34778E-001
  4.00000E-003	  4.74161E-001	  4.95801E-001	  4.77881E-001	  4.94789E-001
  4.40000E-003	  4.56876E-001	  4.62535E-001	  4.40139E-001	  4.83206E-001
  4.80000E-003	  4.83191E-001	  4.32998E-001	  4.58165E-001	  5.62358E-001
  5.20000E-003	  5.01766E-001	  4.84617E-001	  4.35914E-001	  4.82102E-001
  5.60000E-003	  4.71065E-001	  4.82896E-001	  4.92809E-001	  5.12164E-001
  6.00000E-003	  4.82417E-001	  4.38446E-001	  4.53658E-001	  4.96168E-001
  6.40000E-003	  4.68749E-001	  4.43885E-001	  4.53805E-001	  5.15877E-001
  7.20000E-003	  4.75328E-001	  4.62382E-001	  4.50848E-001	  5.29666E-001
  8.00000E-003	  4.79714E-001	  4.33275E-001	  4.47890E-001	  4.70923E-001
  8.80000E-003	  4.83068E-001	  4.47613E-001	  4.71972E-001	  4.85815E-001
  9.60000E-003	  4.93258E-001	  4.26823E-001	  4.56199E-001	  4.86229E-001
  1.04000E-002	  4.77779E-001	  4.29690E-001	  4.40567E-001	  5.07879E-001
  1.12000E-002	  4.81391E-001	  4.27970E-001	  4.52960E-001	  5.09258E-001
  1.20000E-002	  4.61912E-001	  4.31267E-001	  4.69438E-001	  4.75887E-001
  1.28000E-002	  4.72501E-001	  4.21211E-001	  4.36495E-001	  5.07858E-001
  1.44000E-002	  4.60633E-001	  4.33701E-001	  4.35298E-001	  5.01584E-001
  1.60000E-002	  4.64696E-001	  4.28181E-001	  4.41001E-001	  4.92690E-001
  1.76000E-002	  4.57537E-001	  4.37286E-001	  4.51212E-001	  5.13925E-001
  1.92000E-002	  4.66036E-001	  4.23019E-001	  4.32677E-001	  4.92897E-001
  2.08000E-002	  4.67454E-001	  4.30475E-001	  4.27114E-001	  4.85244E-001
  2.24000E-002	  4.47654E-001	  4.31837E-001	  4.26269E-001	  4.91725E-001
  2.40000E-002	  4.56877E-001	  4.12696E-001	  4.32677E-001	  4.90208E-001
  2.56000E-002	  4.56982E-001	  4.24665E-001	  4.23390E-001	  4.77447E-001
  2.88000E-002	  4.49855E-001	  4.20794E-001	  4.33549E-001	  4.67278E-001
  3.20000E-002	  4.64076E-001	  4.05703E-001	  4.25944E-001	  4.81791E-001
  3.52000E-002	  4.58594E-001	  4.12442E-001	  4.27740E-001	  4.88926E-001
  3.84000E-002	  4.55692E-001	  4.16094E-001	  4.15453E-001	  4.71966E-001
  4.16000E-002	  4.37375E-001	  4.12688E-001	  4.28972E-001	  4.78187E-001
  4.48000E-002	  4.49048E-001	  4.18813E-001	  4.09205E-001	  4.76601E-001
  4.80000E-002	  4.32795E-001	  4.04152E-001	  4.19239E-001	  4.64191E-001
  5.12000E-002	  4.36131E-001	  4.13142E-001	  4.12476E-001	  4.55889E-001
  5.76000E-002	  4.35889E-001	  4.09074E-001	  4.14518E-001	  4.59767E-001
  6.40000E-002	  4.27763E-001	  3.98482E-001	  4.11734E-001	  4.57027E-001
  7.04000E-002	  4.21843E-001	  4.06798E-001	  3.98674E-001	  4.55182E-001
  7.68000E-002	  4.22921E-001	  3.97854E-001	  4.01051E-001	  4.56165E-001
  8.32000E-002	  4.21969E-001	  3.91510E-001	  3.98853E-001	  4.40065E-001
  8.96000E-002	  4.21225E-001	  3.87636E-001	  3.88376E-001	  4.34150E-001
  9.60000E-002	  4.00264E-001	  3.75663E-001	  3.89221E-001	  4.29427E-001
  1.02400E-001	  4.07235E-001	  3.80340E-001	  3.83718E-001	  4.33867E-001
  1.15200E-001	  3.97981E-001	  3.71770E-001	  3.76140E-001	  4.28429E-001
  1.28000E-001	  3.88202E-001	  3.61342E-001	  3.69072E-001	  4.20811E-001
  1.40800E-001	  3.84945E-001	  3.55778E-001	  3.65401E-001	  4.12900E-001
  1.53600E-001	  3.80807E-001	  3.54822E-001	  3.57764E-001	  4.11023E-001
  1.66400E-001	  3.68593E-001	  3.44578E-001	  3.58175E-001	  4.02249E-001
  1.79200E-001	  3.63649E-001	  3.33815E-001	  3.51106E-001	  3.98849E-001
  1.92000E-001	  3.57681E-001	  3.35034E-001	  3.38883E-001	  3.86412E-001
  2.04800E-001	  3.52281E-001	  3.31157E-001	  3.36107E-001	  3.84181E-001
  2.30400E-001	  3.41775E-001	  3.18030E-001	  3.23241E-001	  3.71990E-001
  2.56000E-001	  3.29696E-001	  3.07263E-001	  3.11225E-001	  3.65029E-001
  2.81600E-001	  3.22648E-001	  2.95752E-001	  3.05596E-001	  3.53555E-001
  3.07200E-001	  3.08929E-001	  2.87887E-001	  2.89853E-001	  3.34736E-001
  3.32800E-001	  3.02810E-001	  2.78980E-001	  2.80006E-001	  3.29684E-001
  3.58400E-001	  2.90149E-001	  2.69357E-001	  2.72436E-001	  3.22586E-001
  3.84000E-001	  2.77005E-001	  2.61852E-001	  2.64889E-001	  3.10868E-001
  4.09600E-001	  2.70331E-001	  2.51337E-001	  2.53304E-001	  3.03932E-001
  4.60800E-001	  2.54525E-001	  2.37263E-001	  2.35555E-001	  2.87201E-001
  5.12000E-001	  2.41337E-001	  2.21751E-001	  2.19630E-001	  2.69019E-001
  5.63200E-001	  2.30697E-001	  2.06574E-001	  2.03530E-001	  2.50416E-001
  6.14400E-001	  2.14574E-001	  1.91361E-001	  1.90375E-001	  2.36526E-001
  6.65600E-001	  2.01999E-001	  1.78845E-001	  1.81301E-001	  2.26189E-001
  7.16800E-001	  1.84574E-001	  1.71464E-001	  1.68052E-001	  2.12266E-001
  7.68000E-001	  1.69189E-001	  1.61032E-001	  1.55629E-001	  2.00936E-001
  8.19200E-001	  1.56585E-001	  1.51557E-001	  1.47804E-001	  1.87701E-001
  9.21600E-001	  1.37245E-001	  1.33167E-001	  1.30962E-001	  1.67207E-001
  1.02400E+000	  1.16312E-001	  1.15942E-001	  1.16018E-001	  1.44235E-001
  1.12640E+000	  9.69905E-002	  1.02806E-001	  1.04318E-001	  1.29422E-001
  1.22880E+000	  8.20459E-002	  8.93752E-002	  9.16579E-002	  1.13809E-001
  1.33120E+000	  7.23836E-002	  7.77500E-002	  8.16136E-002	  1.04338E-001
  1.43360E+000	  5.56891E-002	  7.13914E-002	  7.64866E-002	  9.10773E-002
  1.53600E+000	  5.04455E-002	  6.39090E-002	  7.08675E-002	  8.19896E-002
  1.63840E+000	  4.09667E-002	  5.62541E-002	  6.59154E-002	  7.11133E-002
  1.84320E+000	  3.23669E-002	  4.63784E-002	  5.49390E-002	  4.97791E-002
  2.04800E+000	  2.52719E-002	  3.87875E-002	  4.75522E-002	  3.32588E-002
  2.25280E+000	  1.80982E-002	  2.95450E-002	  3.83359E-002	  2.55725E-002
  2.45760E+000	  1.19807E-002	  2.26116E-002	  3.56525E-002	  1.74847E-002
  2.66240E+000	  9.75717E-003	  1.32963E-002	  2.99597E-002	  1.32409E-002
  2.86720E+000	  7.59677E-003	  5.26861E-003	  2.40483E-002	  1.28538E-002
  3.07200E+000	  3.88672E-003	  1.07097E-003	  1.38518E-002	  1.03143E-002
  3.27680E+000	  4.81245E-003	 -1.80466E-003	  6.87652E-003	  9.09664E-003
  3.68640E+000	  9.92308E-003	 -6.62102E-003	 -2.85553E-003	  1.23061E-002
  4.09600E+000	  1.16827E-002	 -1.02387E-002	 -1.44705E-002	  9.11842E-003
  4.50560E+000	  1.15182E-002	 -1.30800E-002	 -2.19486E-002	  2.80401E-003
  4.91520E+000	  8.79180E-003	 -1.74195E-002	 -2.93174E-002	 -2.37786E-003
  5.32480E+000	 -3.60033E-003	 -1.54510E-002	 -2.36356E-002	 -3.77507E-003
  5.73440E+000	 -1.53853E-002	 -1.68317E-002	 -1.75836E-002	 -1.02447E-002
  6.14400E+000	 -1.14210E-002	 -2.06569E-002	 -1.70301E-002	 -1.44628E-002
  6.55360E+000	 -1.89414E-003	 -1.94555E-002	 -1.55834E-002	 -7.60561E-003
  7.37280E+000	  9.90167E-003	 -9.56701E-003	 -3.14288E-002	 -1.05298E-003
  8.19200E+000	  7.77335E-003	 -8.42908E-003	 -2.99757E-002	 -1.87008E-004
  9.01120E+000	 -7.64455E-003	  3.43813E-003	 -1.91742E-002	  2.11930E-004
  9.83040E+000	 -2.58699E-002	  5.44343E-003	 -1.59457E-002	  3.59090E-003
  1.06496E+001	 -2.48613E-002	 -6.36281E-003	 -1.02858E-002	  1.79747E-002
  1.14688E+001	  1.91893E-003	 -1.17484E-002	 -1.05732E-002	  3.78181E-002
  1.22880E+001	  1.04123E-002	 -3.76949E-003	  2.07868E-003	  3.70623E-002
  1.31072E+001	 -1.30723E-004	 -2.94581E-003	  6.78161E-003	  2.12084E-002
  1.47456E+001	  1.87915E-002	 -2.74900E-003	  1.03228E-002	  2.20475E-002
  1.63840E+001	 -6.52762E-003	 -1.12599E-002	  3.26455E-003	  1.04628E-002
  1.80224E+001	 -7.36246E-003	 -1.58362E-002	 -4.00298E-003	  2.04085E-002
  1.96608E+001	  2.45434E-003	  1.71602E-003	 -4.03240E-003	  9.59535E-003
  2.12992E+001	 -4.53305E-003	  7.45642E-003	 -3.48398E-003	 -2.57019E-003
  2.29376E+001	 -1.61500E-002	 -1.32351E-002	 -6.79133E-004	  7.33303E-003
  2.45760E+001	 -1.80227E-002	 -8.75470E-003	 -8.03304E-003	  1.33552E-002
  2.62144E+001	 -5.59759E-003	  7.66064E-003	 -1.63848E-002	  2.56909E-002
  2.94912E+001	  1.17137E-003	  1.47283E-002	 -8.64095E-003	  3.90650E-002
  3.27680E+001	  5.48638E-004	  2.76679E-003	  7.92339E-003	  1.14953E-002
  3.60448E+001	  3.31787E-003	 -1.17418E-002	  1.76597E-002	 -1.18068E-002
  3.93216E+001	  1.12659E-002	 -1.58039E-002	  1.21013E-004	  4.56854E-003
  4.25984E+001	  1.11958E-002	  1.93921E-002	 -2.49750E-002	  3.97822E-003
  4.58752E+001	  9.30593E-003	  6.54327E-003	  6.93516E-004	 -1.40218E-002
  4.91520E+001	  7.42935E-003	 -3.18880E-003	  4.02660E-004	  1.64604E-004
  5.24288E+001	  7.95162E-003	  1.77243E-003	  4.13514E-003	  1.42196E-002
  5.89824E+001	  4.32837E-003	  1.90899E-003	  1.01134E-002	  3.96375E-003
  6.55360E+001	 -6.50949E-003	 -7.88882E-003	 -7.94518E-003	 -1.15788E-002
  7.20896E+001	 -6.63494E-003	 -1.80279E-004	 -4.84593E-004	  2.50874E-004
  7.86432E+001	 -1.77366E-003	  2.45359E-003	  2.33583E-003	 -4.68373E-003
  8.51968E+001	  5.69632E-003	  1.00073E-003	  1.09347E-002	  9.76684E-003
  9.17504E+001	 -1.32495E-002	  1.20469E-002	 -7.58836E-003	 -1.40219E-002
  9.83040E+001	 -2.08678E-003	 -4.63992E-004	 -5.53311E-003	 -3.90411E-004
  1.04858E+002	  6.56958E-003	 -2.64072E-003	 -3.17164E-003	 -1.10860E-003
  1.17965E+002	  1.37346E-003	 -5.81062E-003	 -8.43528E-003	 -4.48508E-003
  1.31072E+002	  4.09923E-003	 -5.06663E-003	  8.25331E-003	 -5.25927E-003
  1.44179E+002	 -8.14309E-003	  5.41012E-004	 -6.22702E-003	  3.81047E-003
  1.57286E+002	  4.99905E-003	 -1.36223E-003	 -3.08156E-003	 -4.35268E-003
  1.70394E+002	  3.38144E-003	 -5.62213E-003	  7.75408E-003	  7.81358E-003
  1.83501E+002	 -5.02513E-003	 -1.02171E-004	 -7.17493E-003	 -3.25858E-003
  1.96608E+002	 -5.87319E-004	  4.91782E-003	  6.57316E-003	  1.72063E-002
  2.09715E+002	 -7.54881E-003	 -4.48865E-003	  9.31782E-004	  1.38222E-002
  2.35930E+002	 -7.92435E-003	  5.10033E-003	 -2.63863E-003	  5.13546E-003
  2.62144E+002	 -4.07452E-003	 -1.04444E-003	 -1.82492E-003	  1.20223E-002
  2.88358E+002	 -5.39296E-003	 -2.45518E-004	 -1.45923E-003	 -5.04014E-003
  3.14573E+002	  2.11642E-003	 -3.62853E-003	 -1.06356E-003	 -6.64650E-003
  3.40787E+002	 -4.55586E-003	 -3.68272E-003	 -1.22764E-003	 -1.40402E-003
  3.67002E+002	 -3.44674E-003	  3.71345E-004	  6.93572E-004	  4.35241E-004
  3.93216E+002	  5.23931E-003	 -4.64319E-003	  5.38467E-003	  2.06413E-002

"Count Rate"
       0.01311	     114.51721	     110.54993	      89.18762	      72.32666
       0.02621	     119.70520	      83.69446	      94.22302	      79.87976
       0.03932	      91.17126	      93.00232	      80.79529	      75.45471
       0.05243	      73.47107	      74.08142	      67.74902	      75.22583
       0.06554	      68.74084	     125.12207	     157.08923	     102.76794
       0.07864	     115.73792	      84.15222	     115.05127	      88.04321
       0.09175	      71.79260	     112.22839	     121.30737	     125.27466
       0.10486	     127.02942	     118.86597	      71.48743	     106.04858
       0.11796	      84.30481	      91.55273	      83.99963	      81.32935
       0.13107	     146.71326	     105.28564	     107.11670	      93.07861
       0.14418	     125.12207	      67.59644	     130.61523	     134.96399
       0.15729	     106.43005	      92.23938	      84.83887	     111.92322
       0.17039	     111.84692	      95.52002	      95.21484	      96.20667
       0.18350	     108.94775	     117.11121	      66.45203	      77.51465
       0.19661	     105.13306	      59.73816	      93.84155	      79.11682
       0.20972	     103.07312	      82.93152	     121.84143	      87.50916
       0.22282	      67.74902	      81.32935	      68.05420	     117.56897
       0.23593	     112.30469	      64.16321	     118.63708	     130.00488
       0.24904	     156.93665	      75.37842	      91.70532	      99.33472
       0.26214	      84.30481	     120.54443	      98.72437	     118.71338
       0.27525	      99.94507	      91.47644	      82.62634	      87.58545
       0.28836	     100.93689	      58.74634	     102.53906	     157.92847
       0.30147	     115.81421	     118.17932	     112.68616	     103.30200
       0.31457	     106.35376	     103.60718	      70.11414	     165.71045
       0.32768	     107.80334	      86.21216	      97.12219	     126.41907
       0.34079	     104.44641	      99.48730	     124.51172	     164.71863
       0.35389	     106.43005	      86.59363	      90.78979	     102.00500
       0.36700	     142.97485	     101.92871	     111.46545	     118.86597
       0.38011	      76.90430	      94.22302	      73.77625	      78.35388
       0.39322	      92.23938	      90.02686	      68.05420	      95.29114
       0.40632	     124.20654	     126.72424	      66.14685	      60.19592
       0.41943	      96.89331	     104.44641	      84.30481	      77.36206
       0.43254	      93.15491	      84.68628	     121.07849	      75.91248
       0.44564	     129.62341	      82.55005	      74.46289	      92.16309
       0.45875	      74.76807	      90.86609	      74.15771	      79.95605
       0.47186	      82.77893	      75.91248	     123.13843	      63.47656
       0.48497	      72.32666	     101.16577	      80.94788	     129.47083
       0.49807	      98.64807	     116.65344	     102.99683	     111.46545
       0.51118	      67.74902	      78.12500	      76.37024	     107.19299
       0.52429	      93.23120	      82.70264	     100.02136	      88.88245
       0.53740	      84.22852	     101.85242	      91.01868	     130.23376
       0.55050	     105.59082	      86.13586	      90.02686	      85.98328
       0.56361	      84.83887	     115.20386	      61.18774	      94.29932
       0.57672	      99.94507	      86.51733	     104.52271	      62.78992
       0.58982	      71.18225	     105.36194	      94.29932	      87.66174
       0.60293	     110.70251	      93.30750	      88.42468	      75.83618
       0.61604	      73.92883	      84.07593	      75.75989	      97.80884
       0.62915	     111.54175	      91.47644	     140.15198	     119.55261
       0.64225	      99.79248	      97.35107	      86.74622	      97.35107
       0.65536	      77.59094	      80.33752	     102.46277	      78.35388
       0.66847	     104.59900	      95.82520	     125.57983	      79.95605
       0.68157	      75.22583	      84.45740	     107.87964	      75.68359
       0.69468	      76.21765	      65.76538	      85.67810	      86.44104
       0.70779	     133.28552	      83.31299	     102.23389	     103.30200
       0.72090	     105.05676	      84.53369	     134.35364	      79.49829
       0.73400	     105.66711	      88.27209	      74.00513	     102.76794
       0.74711	     108.48999	      73.92883	      99.63989	     136.03210
