ALV-7004/USB-FAST
Date :	"3/14/2024"
Time :	"12:30:24 PM"
Samplename : 	""
SampMemo(0) : 	""
SampMemo(1) : 	""
SampMemo(2) : 	""
SampMemo(3) : 	""
SampMemo(4) : 	""
SampMemo(5) : 	""
SampMemo(6) : 	""
SampMemo(7) : 	""
SampMemo(8) : 	""
SampMemo(9) : 	""
Temperature [K] :	     298.16000
Viscosity [cp]  :	       0.89000
Refractive Index:	       1.33200
Wavelength [nm] :	       0.00000
Angle [°]       :	       0.00000
Duration [s]    :	         1
FloatDur [ms]   :	          944
Stop TP [ms]   :	      3162
Runs            :	         1
Mode            :	"A-CH0+1  A-CH2+3 "
MeanCR0 [kHz]   :	     153.35719
MeanCR1 [kHz]   :	     155.19884
MeanCR2 [kHz]   :	     148.86008
MeanCR3 [kHz]   :	     141.47334

"Correlation"
  3.12500E-006	 -1.00000E+000	 -1.00000E+000	 -1.00000E+000	 -1.00000E+000
  6.25000E-006	 -1.00000E+000	 -1.00000E+000	 -1.00000E+000	 -1.00000E+000
  9.37500E-006	 -1.00000E+000	 -1.00000E+000	 -1.00000E+000	 -1.00000E+000
  1.25000E-005	 -1.00000E+000	 -1.00000E+000	 -1.00000E+000	 -1.00000E+000
  1.56250E-005	 -1.00000E+000	 -1.00000E+000	 -1.00000E+000	 -1.00000E+000
  1.87500E-005	 -1.00000E+000	 -1.00000E+000	 -1.00000E+000	 -1.00000E+000
  2.18750E-005	 -8.70240E-001	 -4.08738E-001	 -3.57312E-001	 -9.66116E-001
  2.50000E-005	  5.35825E+000	  4.82815E+000	  5.12084E+000	  1.04526E+001
  2.81250E-005	  1.59521E+000	  9.14562E-001	  1.03518E+000	  4.40442E+000
  3.12500E-005	  8.88733E-001	  6.75242E-001	  8.36252E-001	  2.06646E+000
  3.43750E-005	  5.28288E-001	  6.75242E-001	  6.98533E-001	  1.60903E+000
  3.75000E-005	  3.98527E-001	  7.45630E-001	  4.23095E-001	  1.81233E+000
  4.06250E-005	  6.86884E-001	  6.89320E-001	  4.99606E-001	  1.15160E+000
  4.37500E-005	  5.85959E-001	  8.01941E-001	  4.84304E-001	  1.27019E+000
  4.68750E-005	  4.56199E-001	  6.47087E-001	  4.84304E-001	  1.28714E+000
  5.00000E-005	  5.85959E-001	  4.28883E-001	  4.15444E-001	  1.32102E+000
  5.62500E-005	  4.41781E-001	  6.61164E-001	  3.84840E-001	  1.02454E+000
  6.25000E-005	  9.82449E-001	  3.86650E-001	  5.37861E-001	  7.02646E-001
  6.87500E-005	  4.48990E-001	  5.41504E-001	  5.22559E-001	  9.14418E-001
  7.50000E-005	  5.28288E-001	  5.55582E-001	  4.69001E-001	  7.70413E-001
  8.12500E-005	  4.92243E-001	  6.54125E-001	  6.52627E-001	  6.51821E-001
  8.75000E-005	  4.63408E-001	  4.28883E-001	  5.07257E-001	  8.21238E-001
  9.37500E-005	  6.79675E-001	  4.14805E-001	  5.68465E-001	  4.65461E-001
  1.00000E-004	  5.75145E-001	  3.58494E-001	  5.34035E-001	  5.54405E-001
  1.12500E-004	  6.83279E-001	  5.37985E-001	  6.64103E-001	  6.30643E-001
  1.25000E-004	  6.18399E-001	  4.32402E-001	  5.64639E-001	  6.26408E-001
  1.37500E-004	  5.39101E-001	  4.67596E-001	  4.72827E-001	  6.56056E-001
  1.50000E-004	  3.84109E-001	  6.57645E-001	  3.96316E-001	  5.84053E-001
  1.62500E-004	  4.38176E-001	  5.73179E-001	  5.14908E-001	  5.88289E-001
  1.75000E-004	  5.89563E-001	  3.86650E-001	  4.69001E-001	  5.45934E-001
  1.87500E-004	  5.35496E-001	  4.95752E-001	  5.60814E-001	  5.03580E-001
  2.00000E-004	  4.48989E-001	  4.83433E-001	  5.11082E-001	  4.52755E-001
  2.25000E-004	  4.70616E-001	  5.67899E-001	  5.01518E-001	  5.73465E-001
  2.50000E-004	  4.76023E-001	  4.76394E-001	  4.95780E-001	  4.16753E-001
  2.75000E-004	  4.88638E-001	  4.64077E-001	  4.78565E-001	  4.97227E-001
  3.00000E-004	  5.62529E-001	  5.23907E-001	  4.90041E-001	  5.39581E-001
  3.25000E-004	  3.98527E-001	  5.04550E-001	  4.34571E-001	  5.45934E-001
  3.50000E-004	  5.13869E-001	  5.43263E-001	  5.39773E-001	  4.82403E-001
  3.75000E-004	  4.45385E-001	  4.28882E-001	  4.99605E-001	  4.67579E-001
  4.00000E-004	  4.48989E-001	  4.98390E-001	  5.33078E-001	  4.48519E-001
  4.50000E-004	  4.51692E-001	  4.86952E-001	  5.04386E-001	  5.30051E-001
  5.00000E-004	  5.15671E-001	  4.60556E-001	  4.60393E-001	  6.09465E-001
  5.50000E-004	  5.08462E-001	  5.33584E-001	  5.43598E-001	  4.44283E-001
  6.00000E-004	  5.56221E-001	  5.49422E-001	  4.60393E-001	  4.94049E-001
  6.50000E-004	  4.67011E-001	  4.99270E-001	  5.25427E-001	  5.34275E-001
  7.00000E-004	  5.37298E-001	  4.99270E-001	  5.36903E-001	  5.26863E-001
  7.50000E-004	  4.99451E-001	  4.56147E-001	  5.16819E-001	  4.97215E-001
  8.00000E-004	  5.08010E-001	  4.87391E-001	  4.86692E-001	  4.77636E-001
  9.00000E-004	  4.38174E-001	  4.55276E-001	  4.52741E-001	  4.74459E-001
  1.00000E-003	  4.44932E-001	  4.71993E-001	  5.12036E-001	  5.21049E-001
  1.10000E-003	  4.92241E-001	  4.59675E-001	  4.91474E-001	  4.97754E-001
  1.20000E-003	  5.00801E-001	  4.69354E-001	  5.01516E-001	  4.85048E-001
  1.30000E-003	  4.84131E-001	  4.51317E-001	  4.91474E-001	  4.92460E-001
  1.40000E-003	  4.93142E-001	  4.77272E-001	  5.03907E-001	  5.05166E-001
  1.50000E-003	  4.52592E-001	  5.01028E-001	  4.90996E-001	  4.97743E-001
  1.60000E-003	  4.80974E-001	  5.13574E-001	  4.82864E-001	  5.02539E-001
  1.80000E-003	  4.85255E-001	  4.55504E-001	  4.87646E-001	  4.75802E-001
  2.00000E-003	  4.48534E-001	  4.63642E-001	  4.92667E-001	  4.83744E-001
  2.20000E-003	  4.56419E-001	  4.81679E-001	  4.96732E-001	  4.68655E-001
  2.40000E-003	  4.59122E-001	  4.48685E-001	  4.84538E-001	  4.76597E-001
  2.60000E-003	  4.70837E-001	  4.79920E-001	  4.71866E-001	  4.78714E-001
  2.80000E-003	  4.64529E-001	  4.82779E-001	  5.19924E-001	  4.68920E-001
  3.00000E-003	  4.50797E-001	  4.47805E-001	  4.81669E-001	  4.99098E-001
  3.20000E-003	  4.65558E-001	  4.63897E-001	  4.63264E-001	  4.79945E-001
  3.60000E-003	  4.77836E-001	  4.81495E-001	  4.81316E-001	  4.57168E-001
  4.00000E-003	  4.45508E-001	  4.99742E-001	  4.65416E-001	  4.80982E-001
  4.40000E-003	  4.62066E-001	  5.14370E-001	  4.87412E-001	  4.91306E-001
  4.80000E-003	  4.51253E-001	  4.80935E-001	  4.76892E-001	  4.53186E-001
  5.20000E-003	  4.68937E-001	  4.62347E-001	  4.66731E-001	  4.60069E-001
  5.60000E-003	  4.71538E-001	  4.66537E-001	  4.66980E-001	  4.46965E-001
  6.00000E-003	  4.65794E-001	  4.76106E-001	  4.93889E-001	  4.73569E-001
  6.40000E-003	  4.60059E-001	  4.74551E-001	  4.78756E-001	  4.54962E-001
  7.20000E-003	  4.46363E-001	  4.79655E-001	  4.79055E-001	  4.68000E-001
  8.00000E-003	  4.43107E-001	  4.78611E-001	  4.64889E-001	  4.62893E-001
  8.80000E-003	  4.59721E-001	  4.70822E-001	  4.68535E-001	  4.55933E-001
  9.60000E-003	  4.57130E-001	  4.72591E-001	  4.74632E-001	  4.48918E-001
  1.04000E-002	  4.52625E-001	  4.73901E-001	  4.51439E-001	  4.56783E-001
  1.12000E-002	  4.51724E-001	  4.58228E-001	  4.69621E-001	  4.68894E-001
  1.20000E-002	  4.48119E-001	  4.65487E-001	  4.62329E-001	  4.54996E-001
  1.28000E-002	  4.38851E-001	  4.55255E-001	  4.53483E-001	  4.42290E-001
  1.44000E-002	  4.35359E-001	  4.56758E-001	  4.66932E-001	  4.49437E-001
  1.60000E-002	  4.28554E-001	  4.48573E-001	  4.57129E-001	  4.41617E-001
  1.76000E-002	  4.32863E-001	  4.60525E-001	  4.37015E-001	  4.34634E-001
  1.92000E-002	  4.32261E-001	  4.41469E-001	  4.40542E-001	  4.41716E-001
  2.08000E-002	  4.30618E-001	  4.24327E-001	  4.35551E-001	  4.46680E-001
  2.24000E-002	  4.18705E-001	  4.26243E-001	  4.22042E-001	  4.38010E-001
  2.40000E-002	  4.22742E-001	  4.32530E-001	  4.22012E-001	  4.20748E-001
  2.56000E-002	  4.16856E-001	  4.30579E-001	  4.18905E-001	  4.20661E-001
  2.88000E-002	  3.96059E-001	  4.17909E-001	  4.25276E-001	  4.07219E-001
  3.20000E-002	  3.98406E-001	  4.15108E-001	  4.04928E-001	  4.03816E-001
  3.52000E-002	  3.91782E-001	  4.07426E-001	  4.03359E-001	  3.87226E-001
  3.84000E-002	  3.76422E-001	  3.91627E-001	  3.95553E-001	  3.88858E-001
  4.16000E-002	  3.66480E-001	  3.81937E-001	  3.82403E-001	  3.75164E-001
  4.48000E-002	  3.63194E-001	  3.84183E-001	  3.82403E-001	  3.62168E-001
  4.80000E-002	  3.59199E-001	  3.67962E-001	  3.68789E-001	  3.64276E-001
  5.12000E-002	  3.57424E-001	  3.66212E-001	  3.61728E-001	  3.51903E-001
  5.76000E-002	  3.38109E-001	  3.41943E-001	  3.53126E-001	  3.32308E-001
  6.40000E-002	  3.19248E-001	  3.35553E-001	  3.29298E-001	  3.25843E-001
  7.04000E-002	  3.15221E-001	  3.24659E-001	  3.19712E-001	  3.10101E-001
  7.68000E-002	  2.96934E-001	  3.09807E-001	  3.06637E-001	  2.98014E-001
  8.32000E-002	  2.91091E-001	  2.92971E-001	  2.88418E-001	  2.80762E-001
  8.96000E-002	  2.80943E-001	  2.87697E-001	  2.80401E-001	  2.70991E-001
  9.60000E-002	  2.67287E-001	  2.69396E-001	  2.63896E-001	  2.59281E-001
  1.02400E-001	  2.58561E-001	  2.60644E-001	  2.54660E-001	  2.48805E-001
  1.15200E-001	  2.41043E-001	  2.43800E-001	  2.39449E-001	  2.29575E-001
  1.28000E-001	  2.24648E-001	  2.26777E-001	  2.20178E-001	  2.10095E-001
  1.40800E-001	  2.09226E-001	  2.09584E-001	  2.02491E-001	  1.93313E-001
  1.53600E-001	  1.92179E-001	  1.95109E-001	  1.86454E-001	  1.80529E-001
  1.66400E-001	  1.76240E-001	  1.82099E-001	  1.72370E-001	  1.67527E-001
  1.79200E-001	  1.63167E-001	  1.72085E-001	  1.68235E-001	  1.59885E-001
  1.92000E-001	  1.54268E-001	  1.64303E-001	  1.49456E-001	  1.44792E-001
  2.04800E-001	  1.44591E-001	  1.52460E-001	  1.41934E-001	  1.34643E-001
  2.30400E-001	  1.26565E-001	  1.32703E-001	  1.27817E-001	  1.21904E-001
  2.56000E-001	  1.13977E-001	  1.20550E-001	  1.13889E-001	  1.03888E-001
  2.81600E-001	  1.03409E-001	  1.10105E-001	  1.01631E-001	  9.66816E-002
  3.07200E-001	  9.36762E-002	  1.00621E-001	  9.35216E-002	  8.91463E-002
  3.32800E-001	  8.39759E-002	  8.70311E-002	  8.67706E-002	  8.13449E-002
  3.58400E-001	  7.61776E-002	  7.83698E-002	  7.32803E-002	  7.59340E-002
  3.84000E-001	  7.11152E-002	  7.12896E-002	  6.69048E-002	  7.15561E-002
  4.09600E-001	  6.76254E-002	  6.35965E-002	  6.53026E-002	  6.67495E-002
  4.60800E-001	  6.07971E-002	  5.25884E-002	  5.72305E-002	  5.74113E-002
  5.12000E-001	  5.10933E-002	  4.04258E-002	  4.20330E-002	  4.83561E-002
  5.63200E-001	  4.21115E-002	  3.21801E-002	  3.44523E-002	  3.79601E-002
  6.14400E-001	  3.58233E-002	  2.90484E-002	  2.68365E-002	  3.42701E-002
  6.65600E-001	  3.52272E-002	  2.49260E-002	  2.69346E-002	  2.63086E-002
  7.16800E-001	  3.26538E-002	  2.05163E-002	  2.27690E-002	  2.08451E-002
  7.68000E-001	  3.31547E-002	  1.77581E-002	  1.72161E-002	  2.18028E-002
  8.19200E-001	  2.86491E-002	  1.61513E-002	  1.49431E-002	  1.86481E-002
  9.21600E-001	  2.02828E-002	  1.29581E-002	  1.24253E-002	  1.61375E-002
  1.02400E+000	  8.80671E-003	  8.52753E-003	  1.31398E-002	  1.10805E-002
  1.12640E+000	  1.29634E-003	  6.12311E-003	  9.51794E-003	  1.04706E-002
  1.22880E+000	 -2.84611E-004	  7.32478E-003	  1.02053E-002	  8.13296E-003
  1.33120E+000	  1.13267E-003	  6.70987E-003	  1.09285E-002	  1.30376E-003
  1.43360E+000	  4.60077E-003	  1.09004E-003	  1.15774E-002	 -9.51322E-005
  1.53600E+000	  1.61479E-003	 -3.49948E-003	  7.76288E-003	 -5.12141E-003
  1.63840E+000	 -2.39456E-003	 -1.50726E-003	 -4.98093E-004	 -4.28618E-003
  1.84320E+000	 -2.42658E-003	  1.80065E-003	 -1.52482E-002	 -9.21032E-003
  2.04800E+000	  1.82694E-003	 -6.95480E-005	 -8.59651E-003	 -8.42772E-003
  2.25280E+000	  7.00411E-004	 -3.03240E-003	 -8.30862E-003	 -5.26866E-003
  2.45760E+000	 -2.54992E-003	 -2.18108E-003	 -6.50806E-003	 -5.19048E-003
  2.66240E+000	  7.60586E-004	 -1.84178E-003	 -3.47397E-003	 -5.18677E-003
  2.86720E+000	  3.92691E-003	  7.52013E-004	 -5.70013E-003	 -9.28345E-003
  3.07200E+000	  9.54092E-003	 -6.55459E-003	 -3.02756E-003	 -1.42649E-002
  3.27680E+000	  8.72279E-003	 -4.57801E-003	 -4.56942E-003	 -8.95014E-003
  3.68640E+000	  1.35281E-002	  4.83599E-003	  8.95844E-005	  4.95745E-003
  4.09600E+000	  1.21453E-002	 -1.80040E-003	  1.00792E-002	  9.93164E-004
  4.50560E+000	  1.11752E-002	 -5.27950E-003	  7.66186E-003	 -7.16244E-003
  4.91520E+000	  3.26727E-003	 -1.30366E-002	  7.62699E-003	 -6.17445E-003
  5.32480E+000	 -1.10666E-002	 -1.39757E-002	  3.76346E-003	 -3.72180E-003
  5.73440E+000	 -6.38795E-003	 -5.89757E-003	  5.05943E-004	 -2.53990E-003
  6.14400E+000	 -3.56956E-003	  1.71751E-003	 -2.91519E-003	  4.85408E-004
  6.55360E+000	  3.71356E-004	 -4.42024E-003	 -6.90456E-003	  2.85080E-003
  7.37280E+000	  3.49346E-003	 -8.02220E-003	 -9.44275E-003	 -6.65388E-003
  8.19200E+000	 -5.14935E-004	 -9.02986E-003	 -1.43564E-004	 -1.56840E-003
  9.01120E+000	  1.23083E-003	 -4.19882E-003	  1.60967E-003	 -1.04370E-003
  9.83040E+000	  4.50205E-003	  5.03543E-003	  9.47654E-004	  2.16630E-003
  1.06496E+001	 -4.10590E-003	  1.03482E-002	  7.25780E-004	  1.45358E-003
  1.14688E+001	 -4.09674E-003	 -5.75582E-003	  1.44988E-003	 -4.49639E-003
  1.22880E+001	 -4.13459E-004	 -1.32932E-002	  2.49956E-003	 -1.18730E-002
  1.31072E+001	 -1.81937E-003	 -3.58645E-003	  4.76671E-003	 -8.44542E-003
  1.47456E+001	  1.07491E-003	 -4.92493E-003	  1.15178E-002	 -4.60627E-004
  1.63840E+001	 -3.28089E-003	 -1.49914E-003	  2.25689E-003	  4.06216E-003
  1.80224E+001	  1.18095E-003	  5.75893E-003	 -2.76691E-003	 -6.54727E-003
  1.96608E+001	  4.12239E-003	  2.66738E-003	  9.38669E-004	  3.29037E-004
  2.12992E+001	  3.85774E-003	  1.80347E-003	  8.40890E-004	  4.01918E-003
  2.29376E+001	 -2.18654E-003	 -8.48908E-003	 -5.39281E-004	 -5.05942E-003
  2.45760E+001	  2.65912E-003	  4.22840E-003	  3.14531E-003	  4.97110E-003
  2.62144E+001	  2.67295E-003	 -2.76048E-005	 -2.53339E-003	  1.22816E-003
  2.94912E+001	  3.59041E-003	  2.03590E-003	 -1.05638E-003	 -5.17449E-003
  3.27680E+001	 -7.49996E-003	 -7.35508E-004	  9.37210E-004	 -7.43769E-004
  3.60448E+001	  1.99292E-003	  3.94904E-004	  1.51173E-003	 -3.95500E-003
  3.93216E+001	  2.36392E-003	  6.84374E-003	 -3.14291E-003	  2.22101E-003
  4.25984E+001	 -8.95596E-004	  1.63129E-003	 -6.38519E-003	 -2.91160E-004
  4.58752E+001	 -2.22898E-003	 -6.83966E-004	  1.39497E-003	 -4.56706E-003
  4.91520E+001	 -2.07969E-003	  7.24882E-004	  1.44275E-003	 -2.82773E-003
  5.24288E+001	  7.18328E-004	  8.27251E-004	  9.83345E-004	 -9.64926E-004
  5.89824E+001	  4.30077E-004	 -8.42575E-004	  3.74420E-004	 -7.80636E-004
  6.55360E+001	 -1.41643E-003	 -1.98444E-003	  2.52693E-003	 -1.13052E-003
  7.20896E+001	  2.70509E-004	 -1.81151E-003	 -3.48492E-003	  7.80915E-004
  7.86432E+001	 -1.50911E-004	  2.76837E-003	 -2.30003E-004	  1.44998E-003
  8.51968E+001	  4.12251E-003	  1.99664E-003	 -7.29012E-004	 -1.61034E-003
  9.17504E+001	 -4.13686E-003	 -4.15879E-003	 -1.10689E-003	  9.98522E-004
  9.83040E+001	 -6.23357E-003	  6.35947E-003	  5.06523E-004	 -2.17184E-003
  1.04858E+002	 -2.03139E-003	 -1.53775E-003	 -5.77918E-004	 -2.71330E-003
  1.17965E+002	 -1.94818E-004	 -1.19551E-004	  9.71478E-004	  1.28875E-003
  1.31072E+002	  3.66344E-003	  3.28553E-003	 -2.44533E-003	 -5.24136E-004
  1.44179E+002	 -1.01059E-004	 -1.77391E-003	 -4.90873E-003	  1.17481E-003
  1.57286E+002	 -2.16047E-003	 -1.16659E-003	 -3.58676E-003	  4.88902E-004
  1.70394E+002	 -1.53117E-004	  1.59959E-003	  2.13656E-004	  5.15746E-004
  1.83501E+002	 -1.38332E-004	 -1.16387E-003	  2.47214E-003	 -4.69631E-004
  1.96608E+002	  1.30115E-003	 -2.53967E-003	  2.02658E-003	 -2.55797E-004
  2.09715E+002	  3.22292E-003	 -5.40240E-004	  1.13423E-003	  2.55444E-004
  2.35930E+002	 -9.12350E-004	 -2.72487E-003	 -4.01694E-004	 -8.57148E-005
  2.62144E+002	 -3.33430E-003	  6.78417E-005	 -1.08997E-004	 -1.20880E-004
  2.88358E+002	 -8.64353E-004	  5.87386E-004	  1.88305E-003	 -3.86846E-004
  3.14573E+002	  3.16410E-003	 -2.16964E-003	 -1.07230E-003	 -1.09703E-003
  3.40787E+002	 -8.15321E-004	 -4.63427E-004	 -1.51816E-003	  2.37210E-003
  3.67002E+002	 -1.90786E-003	  1.16652E-004	 -3.03332E-004	  1.72044E-004
  3.93216E+002	  2.65939E-004	 -1.52541E-003	  2.79167E-003	 -4.47816E-004

"Count Rate"
       0.01311	     131.45447	     231.01807	     121.61255	     135.72693
       0.02621	     142.59338	     119.01855	     165.86304	     174.48425
       0.03932	     151.90125	     175.62866	     142.36450	     149.15466
       0.05243	     125.35095	     142.05933	     178.83301	     133.59070
       0.06554	     157.47070	     169.06738	     160.21729	     131.75964
       0.07864	     140.60974	     140.45715	     147.01843	     157.08923
       0.09175	     135.80322	     154.64783	     147.62878	     135.72693
       0.10486	     183.94470	     155.94482	     140.30457	     156.86035
       0.11796	     150.37537	     179.29077	     137.10022	     145.11108
       0.13107	     146.17920	     146.86584	     141.60156	     102.84424
       0.14418	     151.13831	     153.35083	     116.72974	     109.93958
       0.15729	     134.73511	     158.30994	     145.03479	     149.99390
       0.17039	     153.27454	     161.59058	     108.48999	     131.75964
       0.18350	     170.13550	     147.32361	     128.86047	     164.41345
       0.19661	     174.71313	     139.84680	     141.29639	     134.35364
       0.20972	     131.68335	     139.00757	     170.97473	     148.54431
       0.22282	     126.95313	     151.36719	     145.56885	     140.91492
       0.23593	     154.87671	     150.90942	     140.60974	     164.33716
       0.24904	     138.54980	     194.24438	     160.67505	     127.41089
       0.26214	     155.71594	     158.76770	     154.95300	     143.66150
       0.27525	     202.25525	     133.97217	     148.31543	     134.96399
       0.28836	     124.66431	     191.19263	     142.89856	     134.88770
       0.30147	     175.01831	     134.42993	     179.67224	     135.49805
       0.31457	     171.81396	     127.71606	     153.42712	     129.85229
       0.32768	     198.89832	     172.50061	     157.31812	     143.73779
       0.34079	     120.01038	     148.92578	     126.64795	     136.03210
       0.35389	     140.53345	     134.42993	     127.41089	     129.69971
       0.36700	     116.88232	     162.88757	     142.74597	     142.44080
       0.38011	     165.63416	     149.00208	     157.54700	     139.99939
       0.39322	     131.53076	     149.38354	     167.00745	     164.10828
       0.40632	     152.81677	     140.07568	     162.50610	     133.89587
       0.41943	     135.19287	     175.39978	     160.98022	     112.07581
       0.43254	     128.17383	     146.33179	     137.55798	     145.49255
       0.44564	     170.89844	     138.93127	     147.32361	     124.35913
       0.45875	     152.20642	     138.54980	     147.78137	     144.04297
       0.47186	     136.03210	     125.04578	     143.12744	     151.59607
       0.48497	     155.86853	     147.32361	     163.65051	     138.39722
       0.49807	     160.59875	     149.00208	     159.83582	     123.13843
       0.51118	     150.07019	     151.36719	     161.20911	     129.24194
       0.52429	     156.32629	     127.79236	     121.15479	     156.47888
       0.53740	     160.06470	     149.76501	     153.12195	     127.18201
       0.55050	     126.87683	     162.50610	     133.81958	     152.81677
       0.56361	     125.96130	     137.63428	     137.32910	     136.79504
       0.57672	     141.90674	     142.66968	      98.03772	     172.19543
       0.58982	     146.71326	     154.64783	     136.18469	     128.09753
       0.60293	     165.25269	     130.31006	     165.32898	     154.19006
       0.61604	     159.45435	     161.66687	     162.50610	     130.15747
       0.62915	     156.70776	     174.71313	     133.51440	     128.86047
       0.64225	     131.45447	     156.63147	     137.71057	     139.31274
       0.65536	     152.96936	     140.76233	     130.84412	     128.93677
       0.66847	     119.55261	     203.39966	     173.11096	     144.11926
       0.68157	     141.22009	     128.17383	     156.63147	     125.04578
       0.69468	     192.94739	     180.66406	     141.14380	     149.76501
       0.70779	     146.56067	     162.73499	     157.24182	     130.38635
       0.72090	     144.27185	     155.63965	     180.58777	     156.63147
       0.73400	     135.72693	     142.89856	     145.41626	     153.04565
       0.74711	     127.56348	     164.79492	     140.53345	     124.66431
