ALV-7004/USB-FAST
Date :	"3/14/2024"
Time :	"12:31:18 PM"
Samplename : 	""
SampMemo(0) : 	""
SampMemo(1) : 	""
SampMemo(2) : 	""
SampMemo(3) : 	""
SampMemo(4) : 	""
SampMemo(5) : 	""
SampMemo(6) : 	""
SampMemo(7) : 	""
SampMemo(8) : 	""
SampMemo(9) : 	""
Temperature [K] :	     298.16000
Viscosity [cp]  :	       0.89000
Refractive Index:	       1.33200
Wavelength [nm] :	       0.00000
Angle [°]       :	       0.00000
Duration [s]    :	         1
FloatDur [ms]   :	          944
Stop TP [ms]   :	      3180
Runs            :	         1
Mode            :	"A-CH0+1  A-CH2+3 "
MeanCR0 [kHz]   :	     148.01661
MeanCR1 [kHz]   :	     149.31255
MeanCR2 [kHz]   :	     140.12655
MeanCR3 [kHz]   :	     143.61805

"Correlation"
  3.12500E-006	 -1.00000E+000	 -1.00000E+000	 -1.00000E+000	 -1.00000E+000
  6.25000E-006	 -1.00000E+000	 -1.00000E+000	 -1.00000E+000	 -1.00000E+000
  9.37500E-006	 -1.00000E+000	 -1.00000E+000	 -1.00000E+000	 -1.00000E+000
  1.25000E-005	 -1.00000E+000	 -1.00000E+000	 -1.00000E+000	 -1.00000E+000
  1.56250E-005	 -1.00000E+000	 -1.00000E+000	 -1.00000E+000	 -1.00000E+000
  1.87500E-005	 -1.00000E+000	 -1.00000E+000	 -1.00000E+000	 -1.00000E+000
  2.18750E-005	 -9.84523E-001	 -3.91620E-001	 -3.61048E-001	 -9.34242E-001
  2.50000E-005	  5.02055E+000	  5.19027E+000	  5.11322E+000	  9.66926E+000
  2.81250E-005	  1.56918E+000	  1.03807E+000	  1.43493E+000	  3.22496E+000
  3.12500E-005	  7.17946E-001	  7.33883E-001	  8.65050E-001	  1.97556E+000
  3.43750E-005	  7.33423E-001	  8.25140E-001	  6.75091E-001	  1.86048E+000
  3.75000E-005	  7.48900E-001	  9.77235E-001	  9.85933E-001	  1.48237E+000
  4.06250E-005	  5.78653E-001	  3.84064E-001	  6.06015E-001	  1.59745E+000
  4.37500E-005	  7.02469E-001	  4.14483E-001	  5.54208E-001	  1.40017E+000
  4.68750E-005	  7.64377E-001	  7.33883E-001	  4.85132E-001	  1.23578E+000
  5.00000E-005	  5.39961E-001	  6.95859E-001	  6.75091E-001	  9.72744E-001
  5.62500E-005	  6.17346E-001	  6.80650E-001	  6.14650E-001	  9.64524E-001
  6.25000E-005	  7.56639E-001	  6.04602E-001	  6.75091E-001	  8.90546E-001
  6.87500E-005	  6.09607E-001	  4.60112E-001	  6.06015E-001	  7.42590E-001
  7.50000E-005	  6.71515E-001	  6.12207E-001	  2.95173E-001	  7.01491E-001
  8.12500E-005	  6.56038E-001	  5.13345E-001	  5.62843E-001	  6.35733E-001
  8.75000E-005	  6.32823E-001	  4.67717E-001	  6.14650E-001	  5.20657E-001
  9.37500E-005	  6.56038E-001	  6.88254E-001	  3.64249E-001	  5.20657E-001
  1.00000E-004	  6.09607E-001	  5.32357E-001	  5.19670E-001	  6.19294E-001
  1.12500E-004	  6.01869E-001	  5.96997E-001	  5.02401E-001	  5.53536E-001
  1.25000E-004	  5.82522E-001	  4.06878E-001	  3.68566E-001	  4.26129E-001
  1.37500E-004	  5.05137E-001	  5.24752E-001	  4.72180E-001	  4.67228E-001
  1.50000E-004	  4.85791E-001	  7.18673E-001	  5.06718E-001	  5.20656E-001
  1.62500E-004	  5.28353E-001	  4.90531E-001	  3.94470E-001	  6.23404E-001
  1.75000E-004	  5.63176E-001	  4.22088E-001	  6.10332E-001	  5.24766E-001
  1.87500E-004	  4.58706E-001	  3.61250E-001	  4.89449E-001	  5.41206E-001
  2.00000E-004	  5.14810E-001	  4.77222E-001	  5.60684E-001	  5.63810E-001
  2.25000E-004	  4.70314E-001	  4.65815E-001	  4.03104E-001	  5.16546E-001
  2.50000E-004	  5.41895E-001	  4.63914E-001	  5.02401E-001	  5.28876E-001
  2.75000E-004	  5.14810E-001	  4.88629E-001	  4.78656E-001	  4.61063E-001
  3.00000E-004	  5.67045E-001	  5.09542E-001	  5.00242E-001	  4.54898E-001
  3.25000E-004	  5.03202E-001	  5.15246E-001	  3.83677E-001	  4.32294E-001
  3.50000E-004	  5.65110E-001	  5.45665E-001	  5.00242E-001	  6.21348E-001
  3.75000E-004	  5.47699E-001	  4.44902E-001	  4.85132E-001	  5.39151E-001
  4.00000E-004	  5.09973E-001	  5.11443E-001	  5.46652E-001	  5.20656E-001
  4.50000E-004	  5.03202E-001	  4.71518E-001	  4.63545E-001	  4.72364E-001
  5.00000E-004	  5.63175E-001	  4.87678E-001	  5.49890E-001	  5.43260E-001
  5.50000E-004	  4.99333E-001	  5.17146E-001	  4.49514E-001	  4.69282E-001
  6.00000E-004	  5.16744E-001	  4.48704E-001	  4.39800E-001	  4.70309E-001
  6.50000E-004	  4.60640E-001	  4.43000E-001	  4.51673E-001	  4.71348E-001
  7.00000E-004	  4.92561E-001	  5.20949E-001	  4.58148E-001	  4.64155E-001
  7.50000E-004	  5.43829E-001	  5.37109E-001	  5.13193E-001	  4.41551E-001
  8.00000E-004	  5.64625E-001	  5.44712E-001	  5.42333E-001	  4.48239E-001
  9.00000E-004	  5.42377E-001	  5.03361E-001	  4.75956E-001	  4.89852E-001
  1.00000E-003	  5.26900E-001	  4.73418E-001	  5.59602E-001	  4.35909E-001
  1.10000E-003	  5.63174E-001	  4.67714E-001	  4.72178E-001	  4.73926E-001
  1.20000E-003	  5.08521E-001	  4.93856E-001	  5.08875E-001	  4.79577E-001
  1.30000E-003	  5.20612E-001	  5.19046E-001	  4.21990E-001	  4.75981E-001
  1.40000E-003	  4.99815E-001	  4.70091E-001	  4.30085E-001	  4.84201E-001
  1.50000E-003	  4.70312E-001	  4.59634E-001	  5.34778E-001	  5.19135E-001
  1.60000E-003	  5.10211E-001	  4.93378E-001	  4.75695E-001	  4.73164E-001
  1.80000E-003	  4.89898E-001	  4.98854E-001	  4.79202E-001	  4.43624E-001
  2.00000E-003	  5.06100E-001	  4.97677E-001	  4.87567E-001	  4.96271E-001
  2.20000E-003	  4.86754E-001	  4.60365E-001	  5.11042E-001	  5.05005E-001
  2.40000E-003	  4.80950E-001	  4.71060E-001	  4.80821E-001	  4.75722E-001
  2.60000E-003	  5.12871E-001	  4.98865E-001	  5.36136E-001	  4.86767E-001
  2.80000E-003	  4.80466E-001	  4.57999E-001	  4.51950E-001	  4.71869E-001
  3.00000E-003	  5.03440E-001	  4.65842E-001	  4.98630E-001	  4.71612E-001
  3.20000E-003	  4.85188E-001	  4.80096E-001	  4.78129E-001	  4.78553E-001
  3.60000E-003	  5.11668E-001	  4.88057E-001	  4.88776E-001	  4.75214E-001
  4.00000E-003	  4.84825E-001	  4.94236E-001	  5.00919E-001	  4.52481E-001
  4.40000E-003	  4.87606E-001	  4.69293E-001	  4.94443E-001	  4.55435E-001
  4.80000E-003	  5.02115E-001	  4.66917E-001	  4.87967E-001	  4.53123E-001
  5.20000E-003	  4.64522E-001	  4.72145E-001	  4.80412E-001	  4.67754E-001
  5.60000E-003	  4.80362E-001	  4.74522E-001	  4.67865E-001	  4.54011E-001
  6.00000E-003	  4.85682E-001	  4.44577E-001	  4.60174E-001	  4.69552E-001
  6.40000E-003	  4.71738E-001	  4.58173E-001	  4.76646E-001	  4.41682E-001
  7.20000E-003	  4.79718E-001	  4.71125E-001	  4.80896E-001	  4.62874E-001
  8.00000E-003	  4.90651E-001	  4.65669E-001	  4.68214E-001	  4.55682E-001
  8.80000E-003	  4.88897E-001	  4.77612E-001	  4.80694E-001	  4.54933E-001
  9.60000E-003	  4.87628E-001	  4.81603E-001	  4.52969E-001	  4.60595E-001
  1.04000E-002	  4.63807E-001	  4.66414E-001	  4.68270E-001	  4.60605E-001
  1.12000E-002	  4.68100E-001	  4.79436E-001	  4.41153E-001	  4.51112E-001
  1.20000E-002	  4.73662E-001	  4.60136E-001	  4.72385E-001	  4.48725E-001
  1.28000E-002	  4.68404E-001	  4.64394E-001	  4.69970E-001	  4.51970E-001
  1.44000E-002	  4.77089E-001	  4.55482E-001	  4.59582E-001	  4.49240E-001
  1.60000E-002	  4.83105E-001	  4.55393E-001	  4.61089E-001	  4.40346E-001
  1.76000E-002	  4.75891E-001	  4.71148E-001	  4.63753E-001	  4.34116E-001
  1.92000E-002	  4.51949E-001	  4.55662E-001	  4.63955E-001	  4.40474E-001
  2.08000E-002	  4.57592E-001	  4.51532E-001	  4.56569E-001	  4.29813E-001
  2.24000E-002	  4.48160E-001	  4.45720E-001	  4.37411E-001	  4.31933E-001
  2.40000E-002	  4.37308E-001	  4.46295E-001	  4.33758E-001	  4.19217E-001
  2.56000E-002	  4.47877E-001	  4.38928E-001	  4.31478E-001	  4.22526E-001
  2.88000E-002	  4.38289E-001	  4.29521E-001	  4.29758E-001	  4.09895E-001
  3.20000E-002	  4.36359E-001	  4.26258E-001	  4.13062E-001	  4.01931E-001
  3.52000E-002	  4.27713E-001	  4.11448E-001	  4.28550E-001	  4.08237E-001
  3.84000E-002	  4.23471E-001	  4.07661E-001	  4.11173E-001	  3.95960E-001
  4.16000E-002	  4.15439E-001	  4.08067E-001	  4.03894E-001	  3.90537E-001
  4.48000E-002	  4.10094E-001	  3.94945E-001	  3.90075E-001	  3.82862E-001
  4.80000E-002	  4.10124E-001	  3.94336E-001	  3.86163E-001	  3.74915E-001
  5.12000E-002	  3.98272E-001	  3.85846E-001	  3.83898E-001	  3.70304E-001
  5.76000E-002	  3.84155E-001	  3.68660E-001	  3.70624E-001	  3.53029E-001
  6.40000E-002	  3.68963E-001	  3.54068E-001	  3.60754E-001	  3.49490E-001
  7.04000E-002	  3.57176E-001	  3.45330E-001	  3.46427E-001	  3.33868E-001
  7.68000E-002	  3.50435E-001	  3.37605E-001	  3.34865E-001	  3.27316E-001
  8.32000E-002	  3.35338E-001	  3.27107E-001	  3.19603E-001	  3.14982E-001
  8.96000E-002	  3.27704E-001	  3.12306E-001	  3.06877E-001	  3.03190E-001
  9.60000E-002	  3.14722E-001	  3.04078E-001	  2.88520E-001	  3.00813E-001
  1.02400E-001	  3.06758E-001	  2.96781E-001	  2.86820E-001	  2.86886E-001
  1.15200E-001	  2.93329E-001	  2.79515E-001	  2.70835E-001	  2.70553E-001
  1.28000E-001	  2.74251E-001	  2.61967E-001	  2.53422E-001	  2.56306E-001
  1.40800E-001	  2.64121E-001	  2.47698E-001	  2.37940E-001	  2.41158E-001
  1.53600E-001	  2.48283E-001	  2.36063E-001	  2.21760E-001	  2.24541E-001
  1.66400E-001	  2.38543E-001	  2.27083E-001	  2.13275E-001	  2.17818E-001
  1.79200E-001	  2.27012E-001	  2.15659E-001	  1.91857E-001	  2.06072E-001
  1.92000E-001	  2.12382E-001	  2.05902E-001	  1.87966E-001	  1.93259E-001
  2.04800E-001	  2.02844E-001	  1.97418E-001	  1.75242E-001	  1.82233E-001
  2.30400E-001	  1.78207E-001	  1.78250E-001	  1.63990E-001	  1.62416E-001
  2.56000E-001	  1.68435E-001	  1.65625E-001	  1.45685E-001	  1.50003E-001
  2.81600E-001	  1.54077E-001	  1.51180E-001	  1.32847E-001	  1.32742E-001
  3.07200E-001	  1.39443E-001	  1.39798E-001	  1.20536E-001	  1.17482E-001
  3.32800E-001	  1.29361E-001	  1.25975E-001	  1.07881E-001	  1.04621E-001
  3.58400E-001	  1.20190E-001	  1.13532E-001	  9.99070E-002	  9.81968E-002
  3.84000E-001	  1.12695E-001	  1.04309E-001	  9.64920E-002	  9.09851E-002
  4.09600E-001	  1.05419E-001	  9.24587E-002	  9.03573E-002	  8.23574E-002
  4.60800E-001	  9.38209E-002	  7.93274E-002	  7.14922E-002	  6.68342E-002
  5.12000E-001	  8.63046E-002	  6.84888E-002	  5.96358E-002	  5.82547E-002
  5.63200E-001	  7.83723E-002	  5.76750E-002	  5.13898E-002	  4.91329E-002
  6.14400E-001	  6.95090E-002	  4.68047E-002	  4.55140E-002	  4.57244E-002
  6.65600E-001	  6.10611E-002	  4.07528E-002	  3.96248E-002	  3.96429E-002
  7.16800E-001	  5.26823E-002	  3.59211E-002	  3.75478E-002	  3.90801E-002
  7.68000E-001	  4.76083E-002	  3.10615E-002	  2.75605E-002	  3.94304E-002
  8.19200E-001	  4.47065E-002	  3.00771E-002	  2.19728E-002	  3.94941E-002
  9.21600E-001	  3.72361E-002	  2.18716E-002	  1.63135E-002	  3.53741E-002
  1.02400E+000	  3.11279E-002	  1.32075E-002	  1.28349E-002	  3.18601E-002
  1.12640E+000	  1.76080E-002	  8.52213E-003	  5.69730E-003	  2.72758E-002
  1.22880E+000	  1.06997E-002	  5.50620E-003	  7.92837E-003	  2.64242E-002
  1.33120E+000	  5.91566E-003	  8.77244E-003	  1.02318E-002	  2.27955E-002
  1.43360E+000	 -3.67882E-004	  1.24618E-002	  9.75038E-003	  1.66245E-002
  1.53600E+000	  1.29242E-003	  1.23412E-002	  6.16751E-003	  1.15249E-002
  1.63840E+000	  4.85484E-003	  1.19401E-002	  2.38758E-003	  7.85457E-003
  1.84320E+000	  7.95287E-003	  1.51058E-002	 -8.05682E-003	  9.66740E-003
  2.04800E+000	  1.35321E-002	  1.50003E-002	 -1.21858E-002	  1.32500E-002
  2.25280E+000	  2.04501E-002	  1.57774E-002	 -1.09475E-002	  6.19031E-003
  2.45760E+000	  1.38879E-002	  1.59682E-002	 -5.09921E-004	  3.33256E-003
  2.66240E+000	  4.63497E-003	  1.98717E-002	  4.29787E-003	  4.66051E-003
  2.86720E+000	  1.43262E-003	  1.48683E-002	  2.16129E-003	  5.61823E-003
  3.07200E+000	  3.58913E-003	  1.34632E-002	  4.08989E-003	  7.42116E-003
  3.27680E+000	  2.80805E-003	  1.05775E-002	  2.56558E-003	  8.98037E-003
  3.68640E+000	  1.40843E-003	  3.68755E-003	 -4.48083E-003	  1.81542E-002
  4.09600E+000	  1.90302E-003	  1.17941E-003	 -3.29271E-004	  1.62260E-002
  4.50560E+000	 -7.62452E-004	  3.52090E-003	 -1.46468E-003	  4.67092E-003
  4.91520E+000	  1.95510E-004	  5.84758E-003	 -1.68511E-003	  4.33958E-003
  5.32480E+000	 -6.40429E-004	  5.47632E-003	  1.52362E-002	  3.33417E-004
  5.73440E+000	 -8.93577E-003	 -1.02459E-003	  7.47611E-003	  1.12816E-003
  6.14400E+000	 -1.10832E-002	  1.47175E-003	 -6.00566E-003	 -4.17731E-005
  6.55360E+000	 -6.52364E-003	 -7.57483E-003	 -1.14309E-003	 -3.80848E-003
  7.37280E+000	 -7.57131E-003	 -5.62738E-003	  1.02516E-002	 -7.32333E-004
  8.19200E+000	 -9.88986E-003	 -5.05819E-003	 -1.28034E-004	  3.83996E-003
  9.01120E+000	 -4.03964E-003	  1.58651E-003	  2.47919E-003	  7.18140E-003
  9.83040E+000	  1.11280E-003	 -2.74110E-003	 -7.46784E-003	  2.99232E-003
  1.06496E+001	  1.03192E-003	 -2.46845E-004	  7.48122E-003	 -2.41904E-003
  1.14688E+001	  1.27900E-003	 -6.57896E-003	  2.76411E-003	  1.09517E-004
  1.22880E+001	 -6.01823E-003	  4.23957E-004	  8.22368E-003	 -1.25873E-003
  1.31072E+001	 -5.00906E-004	  4.59852E-003	  4.61425E-003	 -2.55006E-003
  1.47456E+001	 -6.90013E-003	  3.79546E-003	 -1.56057E-003	 -1.49136E-003
  1.63840E+001	 -1.86296E-003	  5.62501E-003	  1.91962E-003	 -4.80442E-003
  1.80224E+001	  2.35258E-003	  6.24249E-004	  5.37770E-003	 -7.19052E-003
  1.96608E+001	 -1.91062E-003	 -5.78519E-003	  5.32555E-003	 -2.94958E-003
  2.12992E+001	 -2.50882E-003	 -2.00416E-003	  4.17423E-003	 -9.99614E-003
  2.29376E+001	 -3.81051E-003	 -4.59791E-003	  6.74510E-003	  2.65598E-003
  2.45760E+001	  4.00490E-003	 -6.12008E-004	 -5.23509E-003	  1.25332E-002
  2.62144E+001	 -1.80701E-003	  2.74474E-003	 -6.62001E-003	  3.52121E-003
  2.94912E+001	  5.42537E-003	  2.60681E-003	  3.23250E-003	 -2.11643E-003
  3.27680E+001	  6.13721E-003	 -3.02729E-003	  7.48856E-004	  6.12852E-003
  3.60448E+001	 -1.39487E-003	  9.28136E-004	 -9.64751E-003	  1.63922E-003
  3.93216E+001	 -3.52480E-003	 -1.17495E-003	  2.04276E-003	 -3.14162E-003
  4.25984E+001	  2.83702E-003	 -1.08331E-003	 -5.66414E-003	 -4.83117E-003
  4.58752E+001	  2.16381E-003	  5.38908E-003	 -1.04043E-003	 -2.74682E-003
  4.91520E+001	 -2.32362E-003	 -2.77200E-003	 -2.11888E-004	  8.18180E-003
  5.24288E+001	 -2.04641E-003	 -5.76676E-003	  3.81190E-003	 -3.51036E-003
  5.89824E+001	 -3.66671E-003	  2.09271E-003	 -1.42424E-003	 -9.52505E-004
  6.55360E+001	 -4.49367E-003	  2.30161E-003	 -1.45845E-003	  9.00218E-004
  7.20896E+001	  2.48029E-003	  5.71779E-004	  1.03636E-003	  7.34157E-003
  7.86432E+001	 -2.53388E-003	  1.91094E-003	 -7.09728E-003	  6.58159E-004
  8.51968E+001	 -3.87328E-004	 -3.41228E-003	 -1.09001E-003	 -1.06937E-002
  9.17504E+001	  3.43825E-003	 -3.61182E-003	  2.18751E-003	 -4.63822E-003
  9.83040E+001	 -4.14276E-004	 -1.67750E-003	 -3.56468E-003	 -3.02079E-003
  1.04858E+002	  3.99944E-003	 -1.12756E-003	 -1.57217E-003	 -5.33970E-004
  1.17965E+002	 -5.71087E-004	 -5.39975E-003	 -2.36405E-003	 -1.11077E-003
  1.31072E+002	  2.50564E-003	 -6.12743E-003	  3.56543E-003	  2.40635E-003
  1.44179E+002	 -1.42206E-003	  1.83959E-004	  3.48028E-003	 -4.26905E-003
  1.57286E+002	  2.15592E-003	  3.70174E-003	  1.93051E-003	 -9.77081E-004
  1.70394E+002	 -1.65174E-003	  3.04305E-003	  1.24460E-003	  1.22939E-004
  1.83501E+002	 -2.62299E-003	 -3.83576E-003	  3.49988E-003	 -7.26661E-004
  1.96608E+002	 -7.70132E-004	  4.68354E-004	  5.64280E-004	  2.06521E-003
  2.09715E+002	 -2.85685E-003	 -2.86415E-004	 -4.85474E-004	 -2.62239E-003
  2.35930E+002	  3.69701E-003	  3.30751E-003	 -9.99791E-004	 -2.03840E-003
  2.62144E+002	  3.58848E-003	 -3.72710E-004	 -2.69506E-003	  7.47493E-004
  2.88358E+002	 -1.56843E-003	  6.84760E-005	 -2.12778E-003	 -5.53943E-003
  3.14573E+002	 -2.34800E-003	  4.20167E-003	  5.00828E-004	  1.88192E-003
  3.40787E+002	  2.48873E-003	 -4.51082E-003	  1.67271E-004	  4.88344E-004
  3.67002E+002	  1.43777E-003	 -2.94332E-003	  2.19049E-003	  1.55434E-003
  3.93216E+002	  1.04314E-003	  7.67484E-004	 -2.50870E-003	  4.51460E-003

"Count Rate"
       0.01311	     175.24719	     171.96655	     138.09204	     131.98853
       0.02621	     126.26648	     191.04004	     134.65881	     102.61536
       0.03932	     130.92041	     153.57971	     142.97485	     160.06470
       0.05243	     104.59900	     140.83862	     136.18469	     119.47632
       0.06554	     162.88757	     169.98291	     132.98035	     142.89856
       0.07864	     114.89868	     145.64514	     128.47900	     132.98035
       0.09175	     152.20642	     181.42700	     147.39990	     162.50610
       0.10486	     142.05933	     156.70776	     145.41626	     164.41345
       0.11796	     128.47900	     129.31824	     134.88770	     136.48987
       0.13107	     183.56323	     148.31543	     125.04578	     150.90942
       0.14418	     127.02942	     127.25830	     154.95300	     142.28821
       0.15729	     128.02124	     158.00476	     161.81946	     180.81665
       0.17039	     176.08643	     123.59619	     128.17383	     177.23083
       0.18350	     181.27441	     196.83838	     115.73792	     109.55811
       0.19661	     140.68604	     133.89587	     135.34546	     109.32922
       0.20972	     171.96655	     147.70508	     145.79773	     134.42993
       0.22282	     137.17651	     133.59070	     129.85229	     127.56348
       0.23593	     137.40540	     157.31812	     131.60706	     134.96399
       0.24904	     126.80054	     197.60132	      96.81702	     142.28821
       0.26214	     152.20642	     153.73230	     123.21472	     101.47095
       0.27525	     176.01013	     115.50903	     141.75415	     156.78406
       0.28836	     190.12451	     131.68335	     147.85767	     162.65869
       0.30147	     140.68604	     110.93140	     144.57703	     157.47070
       0.31457	     151.36719	     105.43823	     173.49243	     121.91772
       0.32768	     136.48987	     158.23364	     142.59338	     189.59045
       0.34079	     130.46265	     116.95862	     136.41357	     124.35913
       0.35389	     148.46802	     142.97485	     134.73511	     138.47351
       0.36700	     148.92578	     117.03491	     126.64795	     164.48975
       0.38011	     117.34009	     107.19299	     113.90686	     106.50635
       0.39322	     174.17908	     118.78967	     141.67786	     169.98291
       0.40632	     125.04578	     213.62305	     111.69434	     158.92029
       0.41943	     190.20081	     152.81677	     135.87952	     138.32092
       0.43254	     120.01038	     127.18201	     124.28284	     141.90674
       0.44564	     170.89844	     161.74316	     158.53882	     109.40552
       0.45875	     132.98035	     149.38354	     151.13831	     160.44617
       0.47186	     149.30725	     127.56348	     119.55261	     124.96948
       0.48497	     143.66150	     175.01831	     113.67798	     139.31274
       0.49807	     127.79236	     129.47083	     136.56616	     162.88757
       0.51118	     169.98291	     142.44080	     122.29919	     107.95593
       0.52429	     166.24451	     143.12744	     147.24731	     123.29102
       0.53740	     149.53613	     133.51440	     126.11389	     156.25000
       0.55050	     158.92029	     173.03467	     120.01038	     135.42175
       0.56361	     142.36450	     139.46533	     127.86865	     142.97485
       0.57672	     145.03479	     127.79236	     122.98584	     117.34009
       0.58982	     141.67786	     149.23096	     137.10022	     110.09216
       0.60293	     129.01306	     121.84143	     135.57434	     143.89038
       0.61604	     162.50610	     157.92847	     125.27466	     146.48438
       0.62915	     121.61255	     121.45996	     133.81958	     111.46545
       0.64225	     160.75134	     130.69153	     173.41614	     149.30725
       0.65536	     133.13293	     181.27441	     155.86853	     123.74878
       0.66847	     127.71606	     159.60693	     131.07300	     157.01294
       0.68157	     164.10828	     133.20923	     136.10840	     136.79504
       0.69468	     143.81409	     139.69421	     154.87671	     183.18176
       0.70779	     120.62073	     126.41907	     144.42444	     128.63159
       0.72090	     108.33740	     174.63684	      90.71350	     184.70764
       0.73400	     128.40271	     173.87390	     152.89307	     180.51147
       0.74711	     119.40002	     149.45984	     137.93945	     165.48157
