ALV-7004/USB-FAST
Date :	"3/14/2024"
Time :	"12:35:27 PM"
Samplename : 	""
SampMemo(0) : 	""
SampMemo(1) : 	""
SampMemo(2) : 	""
SampMemo(3) : 	""
SampMemo(4) : 	""
SampMemo(5) : 	""
SampMemo(6) : 	""
SampMemo(7) : 	""
SampMemo(8) : 	""
SampMemo(9) : 	""
Temperature [K] :	     298.16000
Viscosity [cp]  :	       0.89000
Refractive Index:	       1.33200
Wavelength [nm] :	       0.00000
Angle [°]       :	       0.00000
Duration [s]    :	         1
FloatDur [ms]   :	          944
Stop TP [ms]   :	      3898
Runs            :	         1
Mode            :	"A-CH0+1  A-CH2+3 "
MeanCR0 [kHz]   :	      97.15822
MeanCR1 [kHz]   :	      96.17594
MeanCR2 [kHz]   :	      92.88258
MeanCR3 [kHz]   :	      99.25419

"Correlation"
  3.12500E-006	 -1.00000E+000	 -1.00000E+000	 -1.00000E+000	 -1.00000E+000
  6.25000E-006	 -1.00000E+000	 -1.00000E+000	 -1.00000E+000	 -1.00000E+000
  9.37500E-006	 -1.00000E+000	 -1.00000E+000	 -1.00000E+000	 -1.00000E+000
  1.25000E-005	 -1.00000E+000	 -1.00000E+000	 -1.00000E+000	 -1.00000E+000
  1.56250E-005	 -1.00000E+000	 -1.00000E+000	 -1.00000E+000	 -1.00000E+000
  1.87500E-005	 -1.00000E+000	 -1.00000E+000	 -1.00000E+000	 -1.00000E+000
  2.18750E-005	 -8.92237E-001	 -1.20196E-001	 -5.66991E-002	 -8.96740E-001
  2.50000E-005	  7.65696E+000	  6.84492E+000	  6.27128E+000	  1.35596E+001
  2.81250E-005	  2.26881E+000	  1.96934E+000	  1.67269E+000	  5.84956E+000
  3.12500E-005	  1.04750E+000	  1.05288E+000	  8.86602E-001	  2.26989E+000
  3.43750E-005	  9.75655E-001	  7.22950E-001	  5.32864E-001	  2.13221E+000
  3.75000E-005	  1.04750E+000	  7.59608E-001	  1.08312E+000	  2.20105E+000
  4.06250E-005	  8.31971E-001	  9.42901E-001	  6.90081E-001	  1.96011E+000
  4.37500E-005	  5.08682E-001	  7.96266E-001	  9.65210E-001	  1.75359E+000
  4.68750E-005	  8.31971E-001	  1.12619E+000	  2.18430E-001	  1.13404E+000
  5.00000E-005	  4.72761E-001	  9.79559E-001	  1.79126E-001	  1.52986E+000
  5.62500E-005	  3.82958E-001	  6.86291E-001	  4.34603E-001	  1.01357E+000
  6.25000E-005	  5.44603E-001	  7.22949E-001	  5.13212E-001	  1.04799E+000
  6.87500E-005	  6.52366E-001	  4.84669E-001	  6.11472E-001	  1.35776E+000
  7.50000E-005	  5.80524E-001	  4.11352E-001	  4.54255E-001	  8.24256E-001
  8.12500E-005	  8.31971E-001	  6.86291E-001	  4.54255E-001	  7.55416E-001
  8.75000E-005	  6.34405E-001	  4.48011E-001	  7.29385E-001	  1.16846E+000
  9.37500E-005	  5.98484E-001	  7.77937E-001	  4.14951E-001	  9.27516E-001
  1.00000E-004	  5.80524E-001	  6.31303E-001	  5.23038E-001	  6.43551E-001
  1.12500E-004	  7.24208E-001	  6.40468E-001	  5.03385E-001	  6.77971E-001
  1.25000E-004	  4.27860E-001	  4.75504E-001	  4.34603E-001	  8.50071E-001
  1.37500E-004	  4.63781E-001	  4.57175E-001	  4.93559E-001	  5.31686E-001
  1.50000E-004	  4.54800E-001	  3.38035E-001	  4.93559E-001	  4.54241E-001
  1.62500E-004	  4.18879E-001	  5.39657E-001	  6.01646E-001	  7.72626E-001
  1.75000E-004	  5.35623E-001	  6.31303E-001	  4.44429E-001	  6.09131E-001
  1.87500E-004	  3.47037E-001	  3.65529E-001	  3.55995E-001	  4.19822E-001
  2.00000E-004	  5.13172E-001	  5.48821E-001	  4.44429E-001	  4.92964E-001
  2.25000E-004	  5.44602E-001	  6.40467E-001	  5.72168E-001	  5.66106E-001
  2.50000E-004	  3.69488E-001	  4.89251E-001	  4.73907E-001	  6.30643E-001
  2.75000E-004	  3.60507E-001	  5.30492E-001	  4.39516E-001	  4.11216E-001
  3.00000E-004	  5.62563E-001	  4.66339E-001	  4.24777E-001	  5.40291E-001
  3.25000E-004	  3.11116E-001	  5.44239E-001	  4.54255E-001	  6.22038E-001
  3.50000E-004	  4.99701E-001	  4.57175E-001	  5.96733E-001	  6.04828E-001
  3.75000E-004	  4.32349E-001	  3.51782E-001	  5.13211E-001	  3.59586E-001
  4.00000E-004	  4.03163E-001	  5.30491E-001	  4.78819E-001	  4.11216E-001
  4.50000E-004	  4.72760E-001	  5.28200E-001	  5.37776E-001	  5.29534E-001
  5.00000E-004	  5.33377E-001	  5.19035E-001	  4.19863E-001	  4.28426E-001
  5.50000E-004	  4.83985E-001	  5.28200E-001	  3.97755E-001	  4.92963E-001
  6.00000E-004	  4.86230E-001	  5.05288E-001	  4.05124E-001	  5.61803E-001
  6.50000E-004	  4.05408E-001	  4.36554E-001	  5.03385E-001	  5.63954E-001
  7.00000E-004	  5.78278E-001	  4.73212E-001	  4.81276E-001	  5.61803E-001
  7.50000E-004	  4.68270E-001	  4.75503E-001	  4.78819E-001	  4.62846E-001
  8.00000E-004	  5.17660E-001	  5.07578E-001	  5.77079E-001	  5.12323E-001
  9.00000E-004	  4.39083E-001	  4.11350E-001	  4.93557E-001	  5.14474E-001
  1.00000E-003	  4.81739E-001	  4.11350E-001	  4.81275E-001	  5.05869E-001
  1.10000E-003	  5.08680E-001	  4.93831E-001	  4.13721E-001	  5.19852E-001
  1.20000E-003	  4.52553E-001	  4.75502E-001	  4.60394E-001	  5.70406E-001
  1.30000E-003	  5.01944E-001	  3.43761E-001	  4.70220E-001	  5.11247E-001
  1.40000E-003	  5.16537E-001	  4.96123E-001	  4.17405E-001	  5.27382E-001
  1.50000E-003	  5.03067E-001	  4.81230E-001	  4.55481E-001	  5.38138E-001
  1.60000E-003	  4.67721E-001	  4.11348E-001	  4.70832E-001	  4.60153E-001
  1.80000E-003	  4.74456E-001	  4.45715E-001	  4.54865E-001	  5.37060E-001
  2.00000E-003	  4.71088E-001	  4.53161E-001	  4.84343E-001	  4.49934E-001
  2.20000E-003	  4.73333E-001	  4.35977E-001	  4.83729E-001	  5.11245E-001
  2.40000E-003	  4.82875E-001	  4.92111E-001	  4.66533E-001	  5.13396E-001
  2.60000E-003	  4.41341E-001	  4.76072E-001	  4.56707E-001	  5.19312E-001
  2.80000E-003	  4.98591E-001	  4.60034E-001	  4.52408E-001	  5.21463E-001
  3.00000E-003	  4.59863E-001	  3.91873E-001	  4.88028E-001	  5.12858E-001
  3.20000E-003	  4.74467E-001	  4.37977E-001	  4.62843E-001	  4.76820E-001
  3.60000E-003	  4.75870E-001	  4.38550E-001	  4.48104E-001	  5.08282E-001
  4.00000E-003	  4.73906E-001	  4.45423E-001	  4.89558E-001	  4.68753E-001
  4.40000E-003	  4.64068E-001	  4.52011E-001	  4.65914E-001	  4.94299E-001
  4.80000E-003	  4.67155E-001	  4.72917E-001	  4.41656E-001	  5.00483E-001
  5.20000E-003	  4.72487E-001	  4.51438E-001	  4.89865E-001	  4.77089E-001
  5.60000E-003	  4.53123E-001	  5.00984E-001	  4.80346E-001	  4.99946E-001
  6.00000E-003	  4.67996E-001	  4.75208E-001	  4.97559E-001	  4.99408E-001
  6.40000E-003	  4.76422E-001	  4.52430E-001	  4.82963E-001	  4.83129E-001
  7.20000E-003	  4.79228E-001	  4.54149E-001	  4.47804E-001	  4.77885E-001
  8.00000E-003	  4.59443E-001	  4.75771E-001	  4.31069E-001	  4.81112E-001
  8.80000E-003	  4.64915E-001	  4.52860E-001	  4.26310E-001	  4.89448E-001
  9.60000E-003	  4.62109E-001	  4.61452E-001	  4.57630E-001	  4.41180E-001
  1.04000E-002	  4.64915E-001	  4.47848E-001	  4.63464E-001	  4.99667E-001
  1.12000E-002	  4.43992E-001	  4.60449E-001	  4.53485E-001	  4.72239E-001
  1.20000E-002	  4.48062E-001	  4.54578E-001	  4.71909E-001	  4.90524E-001
  1.28000E-002	  4.62931E-001	  4.51981E-001	  4.71752E-001	  4.76402E-001
  1.44000E-002	  4.40481E-001	  4.46826E-001	  4.54480E-001	  4.85814E-001
  1.60000E-002	  4.72894E-001	  4.33795E-001	  4.59332E-001	  4.82654E-001
  1.76000E-002	  4.50022E-001	  4.18832E-001	  4.28012E-001	  4.94822E-001
  1.92000E-002	  4.42741E-001	  4.43190E-001	  4.44286E-001	  4.71764E-001
  2.08000E-002	  4.45969E-001	  4.33453E-001	  4.42674E-001	  4.62771E-001
  2.24000E-002	  4.44916E-001	  4.63381E-001	  4.39527E-001	  4.68284E-001
  2.40000E-002	  4.55424E-001	  4.29802E-001	  4.44456E-001	  4.92216E-001
  2.56000E-002	  4.47438E-001	  4.31481E-001	  4.34821E-001	  4.74175E-001
  2.88000E-002	  4.40247E-001	  4.36759E-001	  4.20426E-001	  4.65553E-001
  3.20000E-002	  4.36844E-001	  4.29457E-001	  4.33976E-001	  4.71267E-001
  3.52000E-002	  4.14675E-001	  4.19934E-001	  4.33362E-001	  4.72040E-001
  3.84000E-002	  4.32740E-001	  4.34755E-001	  4.16988E-001	  4.50644E-001
  4.16000E-002	  4.38774E-001	  4.23800E-001	  4.15183E-001	  4.75551E-001
  4.48000E-002	  4.26757E-001	  4.18144E-001	  4.14070E-001	  4.47888E-001
  4.80000E-002	  4.31107E-001	  4.25018E-001	  4.16335E-001	  4.64089E-001
  5.12000E-002	  4.20664E-001	  4.23155E-001	  4.16225E-001	  4.49818E-001
  5.76000E-002	  4.18417E-001	  4.11449E-001	  4.11577E-001	  4.32391E-001
  6.40000E-002	  4.13469E-001	  4.00188E-001	  4.11026E-001	  4.34391E-001
  7.04000E-002	  4.14381E-001	  3.99937E-001	  4.00297E-001	  4.28643E-001
  7.68000E-002	  4.08015E-001	  3.99006E-001	  4.01010E-001	  4.36221E-001
  8.32000E-002	  4.06366E-001	  3.89502E-001	  3.93563E-001	  4.15902E-001
  8.96000E-002	  4.00609E-001	  3.89231E-001	  3.97840E-001	  4.18221E-001
  9.60000E-002	  3.97083E-001	  3.89724E-001	  3.74800E-001	  4.11883E-001
  1.02400E-001	  3.87910E-001	  3.84112E-001	  3.79944E-001	  4.07231E-001
  1.15200E-001	  3.82776E-001	  3.76274E-001	  3.74601E-001	  4.03248E-001
  1.28000E-001	  3.74826E-001	  3.74606E-001	  3.69430E-001	  3.98780E-001
  1.40800E-001	  3.65013E-001	  3.62398E-001	  3.59037E-001	  3.87453E-001
  1.53600E-001	  3.55478E-001	  3.52172E-001	  3.47301E-001	  3.80700E-001
  1.66400E-001	  3.38822E-001	  3.43249E-001	  3.42396E-001	  3.74273E-001
  1.79200E-001	  3.36790E-001	  3.34439E-001	  3.34951E-001	  3.70733E-001
  1.92000E-001	  3.31136E-001	  3.29128E-001	  3.31367E-001	  3.59573E-001
  2.04800E-001	  3.27439E-001	  3.27024E-001	  3.20951E-001	  3.54762E-001
  2.30400E-001	  3.12012E-001	  3.11748E-001	  3.05020E-001	  3.37792E-001
  2.56000E-001	  2.89508E-001	  3.03584E-001	  2.92642E-001	  3.28263E-001
  2.81600E-001	  2.76683E-001	  2.91486E-001	  2.78156E-001	  3.22951E-001
  3.07200E-001	  2.67624E-001	  2.77928E-001	  2.64880E-001	  3.08824E-001
  3.32800E-001	  2.51375E-001	  2.61014E-001	  2.55422E-001	  2.97057E-001
  3.58400E-001	  2.46251E-001	  2.47495E-001	  2.39467E-001	  2.83784E-001
  3.84000E-001	  2.30161E-001	  2.34227E-001	  2.33034E-001	  2.68422E-001
  4.09600E-001	  2.21857E-001	  2.29571E-001	  2.21118E-001	  2.56867E-001
  4.60800E-001	  2.00818E-001	  2.07924E-001	  2.04571E-001	  2.38565E-001
  5.12000E-001	  1.81583E-001	  1.85074E-001	  1.84167E-001	  2.20161E-001
  5.63200E-001	  1.67332E-001	  1.64261E-001	  1.65652E-001	  2.01588E-001
  6.14400E-001	  1.49577E-001	  1.42299E-001	  1.57753E-001	  1.86367E-001
  6.65600E-001	  1.36662E-001	  1.32047E-001	  1.40493E-001	  1.69952E-001
  7.16800E-001	  1.21224E-001	  1.14789E-001	  1.31916E-001	  1.52019E-001
  7.68000E-001	  1.08207E-001	  9.82965E-002	  1.18460E-001	  1.39126E-001
  8.19200E-001	  9.80653E-002	  8.73874E-002	  1.10149E-001	  1.27229E-001
  9.21600E-001	  7.71604E-002	  6.98114E-002	  9.35229E-002	  9.99731E-002
  1.02400E+000	  6.25491E-002	  5.05885E-002	  7.94603E-002	  8.07474E-002
  1.12640E+000	  5.43715E-002	  4.23334E-002	  6.80026E-002	  6.72524E-002
  1.22880E+000	  4.55489E-002	  2.80905E-002	  5.83247E-002	  4.72547E-002
  1.33120E+000	  3.80508E-002	  1.89081E-002	  4.82286E-002	  3.64449E-002
  1.43360E+000	  3.21027E-002	  1.26793E-002	  3.93383E-002	  2.60245E-002
  1.53600E+000	  2.80275E-002	  9.47528E-003	  3.14788E-002	  1.79078E-002
  1.63840E+000	  2.28451E-002	  4.16927E-003	  2.61981E-002	  1.12030E-002
  1.84320E+000	  1.90675E-002	 -1.73008E-003	  1.72841E-002	  4.50518E-004
  2.04800E+000	  1.62518E-002	 -3.73858E-003	  8.37482E-003	 -4.87908E-003
  2.25280E+000	  1.72205E-002	 -2.21083E-003	  3.33652E-003	 -5.33182E-003
  2.45760E+000	  1.66162E-002	  9.55275E-004	  5.52291E-004	 -3.59464E-003
  2.66240E+000	  1.91578E-002	 -2.84782E-003	  2.17367E-004	  3.50346E-003
  2.86720E+000	  1.65505E-002	 -8.99512E-003	  4.40314E-003	  1.38042E-002
  3.07200E+000	  1.37300E-002	 -1.24753E-002	  9.46950E-003	  2.13905E-002
  3.27680E+000	  1.23382E-002	 -1.30296E-002	  1.07438E-002	  2.06003E-002
  3.68640E+000	  1.92665E-002	 -7.53494E-003	  5.23045E-003	  1.46195E-002
  4.09600E+000	  1.41112E-002	  6.20315E-003	  5.37360E-004	  1.68919E-003
  4.50560E+000	  1.87592E-002	  1.70427E-002	 -6.37613E-003	 -5.80195E-003
  4.91520E+000	  1.60593E-002	  1.55131E-002	 -1.73560E-002	 -8.89647E-003
  5.32480E+000	  5.66764E-003	  9.42927E-003	 -1.79065E-002	 -1.15569E-002
  5.73440E+000	 -2.42149E-003	  6.80031E-003	 -9.18578E-003	 -1.53985E-002
  6.14400E+000	 -1.35660E-002	  1.18379E-002	  1.98817E-003	 -5.28476E-003
  6.55360E+000	 -2.10926E-002	  1.97603E-002	  9.58283E-003	  5.58584E-003
  7.37280E+000	 -1.37197E-002	  1.38834E-002	 -8.24667E-004	  1.02264E-002
  8.19200E+000	 -2.25725E-002	  7.40500E-004	 -1.60916E-003	  3.18304E-003
  9.01120E+000	 -2.51940E-002	  9.03346E-003	 -4.15561E-004	  1.33779E-003
  9.83040E+000	 -3.19874E-002	  2.67824E-002	  8.40347E-003	  5.16599E-003
  1.06496E+001	 -2.38427E-002	  2.84197E-002	  3.27135E-003	  2.38951E-002
  1.14688E+001	 -1.46628E-002	  2.33214E-002	  6.38271E-003	  2.72886E-002
  1.22880E+001	 -1.46424E-002	  1.25346E-005	  6.17560E-004	  1.93679E-002
  1.31072E+001	 -8.71787E-003	 -5.14291E-003	 -4.82400E-003	  1.65535E-002
  1.47456E+001	 -1.22390E-003	 -6.37343E-003	 -1.36433E-002	  6.63985E-003
  1.63840E+001	 -2.68234E-003	  2.83807E-004	 -1.75597E-002	  1.85279E-003
  1.80224E+001	 -4.97909E-003	  7.29143E-003	 -8.22713E-003	 -9.18026E-003
  1.96608E+001	  9.49376E-004	 -5.22882E-003	 -7.88391E-004	 -6.34832E-003
  2.12992E+001	  9.37563E-003	 -1.14893E-002	  8.61763E-003	 -1.48044E-002
  2.29376E+001	  5.03822E-003	  1.26754E-003	 -3.82879E-003	 -6.89425E-003
  2.45760E+001	  1.16610E-002	 -5.02191E-003	  3.16626E-003	  3.55854E-003
  2.62144E+001	  6.22799E-003	 -7.49708E-003	  1.19728E-002	 -3.51222E-004
  2.94912E+001	 -5.11804E-003	 -2.55900E-003	 -4.28821E-004	  2.54127E-003
  3.27680E+001	  1.12170E-003	 -7.28897E-003	  9.48412E-004	  8.18142E-003
  3.60448E+001	 -2.91294E-003	  3.28109E-003	 -9.79610E-003	  2.69846E-003
  3.93216E+001	 -4.72880E-004	 -7.30318E-003	  2.59867E-004	 -1.21336E-002
  4.25984E+001	 -5.34647E-004	  2.80609E-003	 -4.93772E-003	  4.38597E-003
  4.58752E+001	 -3.45474E-003	  4.53974E-003	  1.63409E-003	 -1.23500E-002
  4.91520E+001	 -9.46333E-003	  8.62072E-003	 -5.07538E-003	 -7.41783E-003
  5.24288E+001	 -6.51173E-003	  2.20413E-003	  4.87651E-003	 -9.45697E-004
  5.89824E+001	  1.06969E-002	  1.77740E-002	 -2.48528E-003	 -7.57174E-003
  6.55360E+001	  6.09462E-004	  4.50085E-003	  8.63458E-003	  4.47144E-003
  7.20896E+001	 -9.88024E-003	  8.09671E-004	  9.68236E-004	 -1.23806E-002
  7.86432E+001	  2.91994E-004	  5.96423E-003	  4.93653E-003	 -2.40549E-003
  8.51968E+001	 -1.00205E-002	  2.54249E-003	  9.02959E-003	 -1.63619E-002
  9.17504E+001	  6.62702E-004	 -7.81136E-004	  2.66674E-004	 -1.12806E-003
  9.83040E+001	 -4.73599E-003	 -1.52565E-002	 -2.65527E-003	 -1.27512E-003
  1.04858E+002	  6.18998E-004	 -5.94657E-003	  1.35814E-003	 -5.38288E-003
  1.17965E+002	 -9.48213E-004	  1.53735E-003	 -3.26426E-003	  1.99072E-003
  1.31072E+002	 -1.20662E-002	 -3.67494E-003	  9.47008E-003	 -2.15203E-003
  1.44179E+002	  2.59877E-004	  3.91587E-003	  1.86298E-003	  5.75571E-003
  1.57286E+002	  7.77219E-003	 -1.45070E-003	  1.18236E-002	  1.17185E-004
  1.70394E+002	  2.71591E-003	 -2.38968E-003	 -6.88183E-003	 -4.15074E-003
  1.83501E+002	 -1.77136E-003	 -1.99198E-003	 -3.89130E-003	 -2.54234E-003
  1.96608E+002	 -1.76504E-003	 -2.54369E-003	  1.24611E-002	 -3.54471E-003
  2.09715E+002	  2.13404E-005	 -5.35321E-003	  8.10524E-003	  3.10728E-003
  2.35930E+002	  1.81751E-003	  3.36418E-003	  2.74099E-003	  2.50818E-003
  2.62144E+002	 -1.28155E-003	 -1.50262E-003	 -3.11032E-003	 -4.90367E-003
  2.88358E+002	 -5.16729E-004	  6.02683E-004	  9.73744E-004	 -1.11389E-004
  3.14573E+002	  2.54991E-003	  5.66167E-003	  3.42925E-003	  2.97254E-003
  3.40787E+002	 -3.11780E-003	 -3.44883E-003	  3.22735E-003	  4.82568E-003
  3.67002E+002	 -3.21831E-004	  8.17665E-003	 -4.94791E-003	 -1.31084E-003
  3.93216E+002	  1.87152E-003	 -3.08642E-004	  1.67666E-003	 -1.01664E-002

"Count Rate"
       0.01311	      70.26672	     124.74060	      73.31848	      77.05688
       0.02621	     116.57715	     103.53088	      98.49548	     110.62622
       0.03932	      87.58545	      91.40015	      93.15491	      85.60181
       0.05243	     111.84692	      71.18225	      86.13586	      93.30750
       0.06554	     113.06763	     109.55811	      83.61816	     102.69165
       0.07864	     119.17114	     151.90125	      72.93701	      66.14685
       0.09175	     115.73792	     118.63708	     153.88489	      53.78723
       0.10486	      84.07593	      67.52014	      62.25586	      73.69995
       0.11796	      92.54456	     128.40271	      71.64001	     119.62891
       0.13107	      77.74353	     100.78430	      61.87439	      80.33752
       0.14418	      78.20129	      93.68896	      83.61816	     103.91235
       0.15729	     111.38916	      93.07861	      93.30750	      85.44922
       0.17039	      93.38379	      77.59094	      81.25305	     112.22839
       0.18350	      73.62366	     116.04309	      94.07043	     170.05920
       0.19661	     130.15747	     122.75696	      79.49829	      80.49011
       0.20972	      84.38110	     110.54993	      63.01880	      90.56091
       0.22282	     103.37830	      89.11133	      79.42200	      79.80347
       0.23593	      86.89880	      99.79248	      68.66455	     109.63440
       0.24904	     110.16846	     100.17395	     105.59082	      90.94238
       0.26214	      88.11951	     108.94775	      68.28308	     104.06494
       0.27525	     114.05945	      79.42200	      69.58008	      99.48730
       0.28836	      63.47656	      70.19043	     114.74609	      90.02686
       0.30147	      81.48193	      93.07861	      75.60730	      94.60449
       0.31457	     100.32654	      94.07043	      66.29944	      83.84705
       0.32768	      68.05420	      95.59631	      94.45190	     143.58521
       0.34079	      88.88245	      81.86340	      94.14673	     117.41638
       0.35389	      84.99146	      85.14404	     122.68066	     114.13574
       0.36700	      98.03772	      85.98328	      94.52820	     100.78430
       0.38011	      96.13037	      86.66992	     110.01587	      92.31567
       0.39322	      77.13318	     102.38647	      70.49561	     124.89319
       0.40632	     102.15759	     108.10852	      90.86609	      92.62085
       0.41943	      69.96155	      79.95605	     105.74341	      79.57458
       0.43254	     148.23914	      94.45190	      84.15222	      90.86609
       0.44564	      91.70532	      94.37561	      79.87976	      97.88513
       0.45875	      86.13586	     110.09216	      64.54468	      84.45740
       0.47186	     117.72156	      73.01331	      81.55823	     110.62622
       0.48497	      90.94238	     118.48450	     132.21741	     105.28564
       0.49807	      82.39746	     130.69153	      84.91516	     103.75977
       0.51118	     127.33459	     111.16028	     108.71887	      79.65088
       0.52429	     104.67529	      81.78711	      86.44104	      70.64819
       0.53740	     118.63708	     102.99683	      88.04321	      92.77344
       0.55050	      94.14673	     108.03223	     103.22571	      83.08411
       0.56361	      65.76538	     134.42993	     118.71338	      83.23669
       0.57672	     118.86597	      94.29932	     112.38098	      94.90967
       0.58982	      94.60449	      61.18774	      86.36475	     103.37830
       0.60293	      84.07593	      91.09497	      83.61816	      99.71619
       0.61604	      77.51465	      68.05420	      81.48193	     119.85779
       0.62915	      88.72986	     100.47913	     106.43005	     107.34558
       0.64225	     102.99683	     102.92053	      94.37561	      76.37024
       0.65536	      86.97510	      93.84155	      80.33752	      89.72168
       0.66847	      72.17407	      69.88525	      65.99426	     136.03210
       0.68157	     117.56897	      89.03503	     104.67529	     141.75415
       0.69468	     133.89587	      79.65088	     119.70520	     116.34827
       0.70779	      78.35388	      90.40833	     108.94775	     114.36462
       0.72090	      98.72437	     107.87964	      95.74890	      81.02417
       0.73400	      95.59631	      54.70276	     107.49817	      92.69714
       0.74711	     109.55811	     108.03223	      87.81433	     119.09485
