ALV-7004/USB-FAST
Date :	"3/14/2024"
Time :	"12:30:54 PM"
Samplename : 	""
SampMemo(0) : 	""
SampMemo(1) : 	""
SampMemo(2) : 	""
SampMemo(3) : 	""
SampMemo(4) : 	""
SampMemo(5) : 	""
SampMemo(6) : 	""
SampMemo(7) : 	""
SampMemo(8) : 	""
SampMemo(9) : 	""
Temperature [K] :	     298.16000
Viscosity [cp]  :	       0.89000
Refractive Index:	       1.33200
Wavelength [nm] :	       0.00000
Angle [°]       :	       0.00000
Duration [s]    :	         1
FloatDur [ms]   :	          944
Stop TP [ms]   :	      3169
Runs            :	         1
Mode            :	"A-CH0+1  A-CH2+3 "
MeanCR0 [kHz]   :	     151.18917
MeanCR1 [kHz]   :	     156.77347
MeanCR2 [kHz]   :	     143.68798
MeanCR3 [kHz]   :	     146.95273

"Correlation"
  3.12500E-006	 -1.00000E+000	 -1.00000E+000	 -1.00000E+000	 -1.00000E+000
  6.25000E-006	 -1.00000E+000	 -1.00000E+000	 -1.00000E+000	 -1.00000E+000
  9.37500E-006	 -1.00000E+000	 -1.00000E+000	 -1.00000E+000	 -1.00000E+000
  1.25000E-005	 -1.00000E+000	 -1.00000E+000	 -1.00000E+000	 -1.00000E+000
  1.56250E-005	 -1.00000E+000	 -1.00000E+000	 -1.00000E+000	 -1.00000E+000
  1.87500E-005	 -1.00000E+000	 -1.00000E+000	 -1.00000E+000	 -1.00000E+000
  2.18750E-005	 -9.25829E-001	 -3.51574E-001	 -9.67057E-002	 -9.52894E-001
  2.50000E-005	  5.42324E+000	  5.09796E+000	  4.68254E+000	  9.03351E+000
  2.81250E-005	  1.46249E+000	  1.06944E+000	  1.03652E+000	  3.80478E+000
  3.12500E-005	  1.00263E+000	  8.34907E-001	  5.93083E-001	  2.10898E+000
  3.43750E-005	  6.02101E-001	  9.17685E-001	  7.08047E-001	  1.79494E+000
  3.75000E-005	  8.39449E-001	  6.00370E-001	  5.43812E-001	  1.51230E+000
  4.06250E-005	  8.54284E-001	  4.76203E-001	  9.21553E-001	  1.24537E+000
  4.37500E-005	  6.61438E-001	  3.65833E-001	  6.42353E-001	  1.32388E+000
  4.68750E-005	  6.46604E-001	  5.17592E-001	  6.58777E-001	  1.33958E+000
  5.00000E-005	  5.65015E-001	  5.17592E-001	  7.73741E-001	  1.03340E+000
  5.62500E-005	  5.65015E-001	  4.21018E-001	  7.81953E-001	  1.04910E+000
  6.25000E-005	  6.46604E-001	  6.21064E-001	  7.08047E-001	  9.62737E-001
  6.87500E-005	  5.20513E-001	  5.65879E-001	  5.43812E-001	  7.97867E-001
  7.50000E-005	  6.09518E-001	  5.72777E-001	  4.86330E-001	  8.92079E-001
  8.12500E-005	  5.50181E-001	  4.76203E-001	  4.12424E-001	  8.21420E-001
  8.75000E-005	  4.09256E-001	  4.14120E-001	  5.52024E-001	  8.44973E-001
  9.37500E-005	  3.42501E-001	  3.65833E-001	  5.19177E-001	  6.09445E-001
  1.00000E-004	  4.57467E-001	  3.86527E-001	  4.32953E-001	  5.78041E-001
  1.12500E-004	  5.90975E-001	  4.58958E-001	  4.74012E-001	  5.85892E-001
  1.25000E-004	  4.87135E-001	  5.79675E-001	  6.01294E-001	  6.13370E-001
  1.37500E-004	  5.65015E-001	  4.48611E-001	  5.56130E-001	  5.42711E-001
  1.50000E-004	  4.87135E-001	  5.03796E-001	  4.98647E-001	  7.35060E-001
  1.62500E-004	  4.72301E-001	  5.14143E-001	  6.58777E-001	  5.11308E-001
  1.75000E-004	  5.09387E-001	  4.10671E-001	  4.57588E-001	  4.83829E-001
  1.87500E-004	  5.01970E-001	  5.58981E-001	  5.60235E-001	  4.13171E-001
  2.00000E-004	  5.18658E-001	  5.65879E-001	  5.45864E-001	  5.38786E-001
  2.25000E-004	  4.74155E-001	  4.67580E-001	  5.60235E-001	  4.09245E-001
  2.50000E-004	  4.94552E-001	  5.24490E-001	  4.43217E-001	  5.85891E-001
  2.75000E-004	  5.90975E-001	  4.24467E-001	  4.45270E-001	  4.03357E-001
  3.00000E-004	  5.63161E-001	  5.10694E-001	  4.88382E-001	  4.79903E-001
  3.25000E-004	  5.00115E-001	  4.07221E-001	  5.21229E-001	  5.25046E-001
  3.50000E-004	  4.33361E-001	  4.72754E-001	  5.19176E-001	  4.99531E-001
  3.75000E-004	  4.72301E-001	  4.39988E-001	  5.43812E-001	  4.79903E-001
  4.00000E-004	  4.83426E-001	  4.53783E-001	  4.81196E-001	  5.16213E-001
  4.50000E-004	  5.04750E-001	  4.75340E-001	  4.82223E-001	  5.31915E-001
  5.00000E-004	  5.14021E-001	  4.76202E-001	  5.26361E-001	  4.73033E-001
  5.50000E-004	  4.82499E-001	  4.62406E-001	  5.27387E-001	  5.06400E-001
  6.00000E-004	  4.79717E-001	  4.60681E-001	  5.00699E-001	  5.17195E-001
  6.50000E-004	  4.36142E-001	  4.24466E-001	  4.03185E-001	  4.86772E-001
  7.00000E-004	  4.81572E-001	  4.46885E-001	  4.43217E-001	  4.43592E-001
  7.50000E-004	  4.94552E-001	  4.89999E-001	  4.66826E-001	  4.65182E-001
  8.00000E-004	  4.92696E-001	  4.77494E-001	  4.71444E-001	  4.92179E-001
  9.00000E-004	  5.04285E-001	  4.34812E-001	  4.56560E-001	  4.86782E-001
  1.00000E-003	  3.96273E-001	  4.89997E-001	  4.35004E-001	  5.23583E-001
  1.10000E-003	  4.94550E-001	  4.65423E-001	  4.28845E-001	  4.78440E-001
  1.20000E-003	  5.05676E-001	  4.59818E-001	  4.78629E-001	  4.68626E-001
  1.30000E-003	  4.73690E-001	  4.59387E-001	  4.47835E-001	  4.81875E-001
  1.40000E-003	  4.92696E-001	  4.57231E-001	  4.98645E-001	  5.12788E-001
  1.50000E-003	  4.38922E-001	  4.46884E-001	  4.42189E-001	  4.82856E-001
  1.60000E-003	  4.80187E-001	  4.81157E-001	  4.74777E-001	  4.71813E-001
  1.80000E-003	  4.71148E-001	  4.63911E-001	  4.62203E-001	  4.91441E-001
  2.00000E-003	  4.73466E-001	  4.87624E-001	  4.98386E-001	  5.00028E-001
  2.20000E-003	  4.77870E-001	  4.48822E-001	  4.79909E-001	  4.90705E-001
  2.40000E-003	  4.65585E-001	  4.59815E-001	  4.70928E-001	  5.06652E-001
  2.60000E-003	  4.81810E-001	  4.56151E-001	  4.53221E-001	  4.96593E-001
  2.80000E-003	  4.14128E-001	  4.41277E-001	  4.64769E-001	  4.56602E-001
  3.00000E-003	  5.05220E-001	  4.63911E-001	  4.77856E-001	  4.67397E-001
  3.20000E-003	  4.78686E-001	  4.75880E-001	  4.81187E-001	  4.74875E-001
  3.60000E-003	  4.77411E-001	  4.57988E-001	  4.66945E-001	  4.68251E-001
  4.00000E-003	  4.48196E-001	  4.39665E-001	  4.88116E-001	  4.82726E-001
  4.40000E-003	  4.63262E-001	  4.36862E-001	  4.78236E-001	  4.80150E-001
  4.80000E-003	  4.79023E-001	  4.48199E-001	  4.59118E-001	  4.54389E-001
  5.20000E-003	  4.61060E-001	  4.53804E-001	  4.58220E-001	  4.65675E-001
  5.60000E-003	  4.80878E-001	  4.62211E-001	  4.71051E-001	  4.71686E-001
  6.00000E-003	  4.66971E-001	  4.54676E-001	  4.57964E-001	  4.58192E-001
  6.40000E-003	  4.57758E-001	  4.55485E-001	  4.65802E-001	  4.63212E-001
  7.20000E-003	  4.76590E-001	  4.25844E-001	  4.58360E-001	  4.81244E-001
  8.00000E-003	  4.64305E-001	  4.50203E-001	  4.64776E-001	  4.77932E-001
  8.80000E-003	  4.56541E-001	  4.47876E-001	  4.54190E-001	  4.61862E-001
  9.60000E-003	  4.70969E-001	  4.55098E-001	  4.50084E-001	  4.50392E-001
  1.04000E-002	  4.72466E-001	  4.38499E-001	  4.52394E-001	  4.47448E-001
  1.12000E-002	  4.76058E-001	  4.53157E-001	  4.48930E-001	  4.57579E-001
  1.20000E-002	  4.50282E-001	  4.32085E-001	  4.50533E-001	  4.59971E-001
  1.28000E-002	  4.53818E-001	  4.31806E-001	  4.60052E-001	  4.54830E-001
  1.44000E-002	  4.36666E-001	  4.34501E-001	  4.38035E-001	  4.47603E-001
  1.60000E-002	  4.40635E-001	  4.42019E-001	  4.30946E-001	  4.59697E-001
  1.76000E-002	  4.38501E-001	  4.23884E-001	  4.27086E-001	  4.39241E-001
  1.92000E-002	  4.27694E-001	  4.30163E-001	  4.33887E-001	  4.34334E-001
  2.08000E-002	  4.30215E-001	  4.23237E-001	  4.26348E-001	  4.38842E-001
  2.24000E-002	  4.37130E-001	  4.14399E-001	  4.27279E-001	  4.39118E-001
  2.40000E-002	  4.28428E-001	  4.18710E-001	  4.17463E-001	  4.20851E-001
  2.56000E-002	  4.17844E-001	  4.12490E-001	  4.06774E-001	  4.25555E-001
  2.88000E-002	  4.16126E-001	  4.17313E-001	  4.14330E-001	  4.24758E-001
  3.20000E-002	  4.15619E-001	  4.07895E-001	  3.95674E-001	  4.06587E-001
  3.52000E-002	  4.03614E-001	  4.05457E-001	  3.96493E-001	  4.03832E-001
  3.84000E-002	  4.04440E-001	  3.87470E-001	  3.84404E-001	  3.99876E-001
  4.16000E-002	  3.90508E-001	  3.81548E-001	  3.86848E-001	  3.93446E-001
  4.48000E-002	  3.79092E-001	  3.78368E-001	  3.68856E-001	  3.84782E-001
  4.80000E-002	  3.77248E-001	  3.75269E-001	  3.67894E-001	  3.78331E-001
  5.12000E-002	  3.77463E-001	  3.69313E-001	  3.65433E-001	  3.79770E-001
  5.76000E-002	  3.57794E-001	  3.54969E-001	  3.50004E-001	  3.58044E-001
  6.40000E-002	  3.55326E-001	  3.42861E-001	  3.42765E-001	  3.52972E-001
  7.04000E-002	  3.39000E-001	  3.30594E-001	  3.29636E-001	  3.42083E-001
  7.68000E-002	  3.27992E-001	  3.18518E-001	  3.16133E-001	  3.33429E-001
  8.32000E-002	  3.18944E-001	  3.22578E-001	  3.01402E-001	  3.15999E-001
  8.96000E-002	  3.07941E-001	  3.02536E-001	  2.89506E-001	  3.12056E-001
  9.60000E-002	  2.98031E-001	  2.92256E-001	  2.85116E-001	  3.02731E-001
  1.02400E-001	  2.91712E-001	  2.87478E-001	  2.73601E-001	  2.99189E-001
  1.15200E-001	  2.72631E-001	  2.73623E-001	  2.53491E-001	  2.76225E-001
  1.28000E-001	  2.58048E-001	  2.58913E-001	  2.48092E-001	  2.61347E-001
  1.40800E-001	  2.46128E-001	  2.50521E-001	  2.33281E-001	  2.49794E-001
  1.53600E-001	  2.26032E-001	  2.38393E-001	  2.19201E-001	  2.34162E-001
  1.66400E-001	  2.13631E-001	  2.28716E-001	  2.04880E-001	  2.23012E-001
  1.79200E-001	  2.05064E-001	  2.17112E-001	  1.93674E-001	  2.08670E-001
  1.92000E-001	  1.95022E-001	  2.11310E-001	  1.85406E-001	  1.94496E-001
  2.04800E-001	  1.85339E-001	  2.00562E-001	  1.77552E-001	  1.86499E-001
  2.30400E-001	  1.67064E-001	  1.82346E-001	  1.62383E-001	  1.73055E-001
  2.56000E-001	  1.49220E-001	  1.70591E-001	  1.48400E-001	  1.53549E-001
  2.81600E-001	  1.36731E-001	  1.56604E-001	  1.33644E-001	  1.41241E-001
  3.07200E-001	  1.26838E-001	  1.44082E-001	  1.23509E-001	  1.27887E-001
  3.32800E-001	  1.12876E-001	  1.34890E-001	  1.11899E-001	  1.18818E-001
  3.58400E-001	  1.04624E-001	  1.23686E-001	  1.04286E-001	  1.10578E-001
  3.84000E-001	  9.27939E-002	  1.18988E-001	  9.62380E-002	  1.05165E-001
  4.09600E-001	  8.81847E-002	  1.12477E-001	  8.83169E-002	  1.01163E-001
  4.60800E-001	  7.70272E-002	  9.92209E-002	  7.94092E-002	  8.99561E-002
  5.12000E-001	  6.80762E-002	  8.84034E-002	  6.99319E-002	  8.15459E-002
  5.63200E-001	  6.80380E-002	  7.89453E-002	  6.12975E-002	  7.49075E-002
  6.14400E-001	  6.20285E-002	  6.66731E-002	  5.50666E-002	  6.48358E-002
  6.65600E-001	  5.66702E-002	  6.15342E-002	  4.63410E-002	  5.86409E-002
  7.16800E-001	  5.37997E-002	  5.48557E-002	  4.34671E-002	  5.15562E-002
  7.68000E-001	  5.21536E-002	  5.22349E-002	  4.14880E-002	  4.69305E-002
  8.19200E-001	  4.43102E-002	  4.23693E-002	  4.10297E-002	  4.32334E-002
  9.21600E-001	  3.27043E-002	  3.12876E-002	  3.82509E-002	  3.57685E-002
  1.02400E+000	  2.69292E-002	  2.40888E-002	  3.29017E-002	  2.64264E-002
  1.12640E+000	  2.51426E-002	  1.63533E-002	  2.63598E-002	  2.25904E-002
  1.22880E+000	  2.03933E-002	  1.41496E-002	  2.21554E-002	  1.68364E-002
  1.33120E+000	  1.75321E-002	  9.64233E-003	  2.08997E-002	  1.25005E-002
  1.43360E+000	  1.51883E-002	  8.30813E-003	  2.36165E-002	  1.40219E-002
  1.53600E+000	  1.88168E-002	  3.72854E-003	  2.43659E-002	  1.25192E-002
  1.63840E+000	  1.77726E-002	  3.08383E-003	  2.60099E-002	  9.40023E-003
  1.84320E+000	  1.87887E-002	  3.15583E-003	  2.74342E-002	  3.92799E-003
  2.04800E+000	  1.14420E-002	  2.85630E-003	  2.02153E-002	 -1.41653E-003
  2.25280E+000	  7.80014E-003	  3.45455E-003	  1.38624E-002	 -1.14449E-003
  2.45760E+000	  1.29165E-002	  6.27599E-003	  1.31897E-002	 -1.22377E-003
  2.66240E+000	  9.19821E-003	  8.51251E-003	  7.06692E-003	 -4.47969E-003
  2.86720E+000	  6.65276E-003	  1.57560E-002	  1.17672E-002	 -3.36766E-003
  3.07200E+000	  6.90412E-003	  1.68975E-002	  1.36481E-002	 -3.94301E-003
  3.27680E+000	  3.53361E-003	  2.17545E-002	  1.09318E-002	  5.41655E-004
  3.68640E+000	  1.21053E-005	  2.00864E-002	 -8.94798E-003	  6.26587E-003
  4.09600E+000	  1.23386E-002	  1.42613E-002	 -2.68504E-003	  6.55916E-003
  4.50560E+000	  1.72341E-002	  1.16920E-002	 -8.53046E-003	  1.07604E-002
  4.91520E+000	  6.57406E-003	  1.75324E-003	 -1.16800E-003	 -1.88169E-003
  5.32480E+000	  5.87526E-003	 -9.53368E-003	 -5.27297E-003	  8.96682E-004
  5.73440E+000	  1.72911E-003	 -3.68606E-003	 -4.90213E-003	 -2.13525E-004
  6.14400E+000	 -4.07475E-003	  1.48549E-003	 -1.22890E-002	 -1.73604E-004
  6.55360E+000	 -5.90390E-003	  6.19233E-003	 -9.97881E-003	  1.65702E-003
  7.37280E+000	 -5.67806E-003	  9.48970E-003	 -5.02767E-003	  9.74694E-003
  8.19200E+000	 -2.66289E-003	  9.37542E-003	 -1.19782E-004	 -5.06779E-004
  9.01120E+000	 -5.42559E-003	  2.57108E-003	 -2.07366E-003	  1.12534E-002
  9.83040E+000	 -6.62325E-003	 -9.58056E-003	  5.73289E-003	  4.44837E-004
  1.06496E+001	 -3.81223E-003	  4.64691E-003	  3.66838E-003	  7.20180E-003
  1.14688E+001	 -4.63237E-003	  1.52547E-002	 -6.10239E-003	  3.68376E-003
  1.22880E+001	 -6.31615E-003	  6.85371E-003	 -8.60420E-003	  9.01523E-003
  1.31072E+001	 -7.41905E-003	 -6.27963E-004	 -9.26243E-003	  2.00071E-003
  1.47456E+001	  1.22395E-003	 -4.54613E-003	 -8.26407E-003	 -2.64275E-003
  1.63840E+001	 -1.91704E-003	 -6.48442E-003	  8.83154E-003	 -1.11592E-002
  1.80224E+001	 -7.33243E-003	 -2.57703E-003	  1.68596E-003	 -1.51200E-003
  1.96608E+001	 -5.66750E-003	 -3.07492E-005	 -4.25580E-006	  3.44314E-003
  2.12992E+001	 -1.09441E-003	  5.39739E-003	 -7.03724E-003	 -2.37476E-004
  2.29376E+001	 -3.52309E-003	  6.73000E-003	  2.02312E-003	 -8.88637E-004
  2.45760E+001	 -1.95835E-003	  1.72546E-003	  1.37522E-002	  4.57185E-003
  2.62144E+001	 -3.54353E-003	  6.42723E-003	  9.92647E-003	  1.14440E-002
  2.94912E+001	 -4.67845E-003	 -6.51103E-003	  1.00462E-002	 -5.09506E-003
  3.27680E+001	 -1.60807E-003	 -3.66062E-003	 -1.23073E-002	  4.10896E-003
  3.60448E+001	  7.11058E-004	 -9.38202E-003	  1.61659E-003	 -3.15859E-003
  3.93216E+001	  6.74961E-003	 -4.84290E-003	 -3.22546E-003	  7.87155E-004
  4.25984E+001	  3.62640E-003	 -1.16374E-002	 -3.67606E-003	 -1.52434E-003
  4.58752E+001	 -3.05853E-003	 -1.52607E-003	  3.14297E-003	  2.15544E-003
  4.91520E+001	 -7.80493E-003	  2.09072E-003	 -1.05876E-002	  1.25979E-003
  5.24288E+001	 -1.41277E-003	 -2.57345E-004	  3.64032E-005	  7.77166E-003
  5.89824E+001	  1.00936E-003	 -2.01714E-003	 -3.32531E-003	 -1.95023E-003
  6.55360E+001	 -4.93552E-004	  3.58963E-003	 -2.67386E-003	 -1.00250E-003
  7.20896E+001	  1.93605E-003	  7.96332E-003	  3.27687E-003	  4.84026E-003
  7.86432E+001	  4.79573E-004	  4.29485E-003	  4.91321E-003	 -1.50382E-004
  8.51968E+001	 -8.12940E-004	  2.41756E-003	 -2.63384E-003	 -6.80107E-003
  9.17504E+001	  5.42507E-004	 -2.45700E-003	 -2.06284E-003	  1.61603E-003
  9.83040E+001	  1.81045E-003	  1.05448E-003	 -1.37822E-003	 -7.00363E-004
  1.04858E+002	 -2.64820E-003	 -6.02154E-003	 -4.64593E-003	  2.56053E-003
  1.17965E+002	 -4.19988E-003	 -3.44441E-003	 -5.42716E-003	  1.55279E-003
  1.31072E+002	  1.57279E-003	 -2.71403E-004	  1.16185E-004	 -3.58838E-003
  1.44179E+002	 -7.35769E-004	  5.75943E-003	  1.59747E-004	  1.99945E-003
  1.57286E+002	 -8.11216E-004	  5.97304E-006	 -6.55135E-004	 -2.12601E-003
  1.70394E+002	 -9.00712E-004	  3.13622E-003	 -8.73402E-004	 -6.38752E-004
  1.83501E+002	  4.54253E-003	  1.86587E-004	  1.21275E-006	 -1.96798E-003
  1.96608E+002	 -3.32327E-003	 -7.67170E-003	 -3.90126E-003	  1.06133E-003
  2.09715E+002	  3.42287E-003	  3.47012E-003	  3.11930E-003	 -3.69430E-003
  2.35930E+002	 -4.80063E-003	  2.75072E-003	  4.02303E-003	  6.91491E-004
  2.62144E+002	  2.96875E-003	 -6.85506E-003	  1.69526E-003	  1.88108E-004
  2.88358E+002	  2.44034E-003	 -7.41496E-003	  5.06372E-003	 -3.14835E-003
  3.14573E+002	 -8.70891E-004	 -5.20749E-003	 -2.12764E-003	 -1.99605E-003
  3.40787E+002	  1.59714E-003	  2.24602E-004	 -4.42350E-003	 -6.49143E-003
  3.67002E+002	 -7.19137E-003	  3.51039E-003	 -8.49314E-004	 -6.55953E-003
  3.93216E+002	 -1.54945E-003	 -4.38700E-003	 -5.55497E-003	 -5.27080E-004

"Count Rate"
       0.01311	     104.06494	     129.24194	     154.80042	     165.86304
       0.02621	     174.25537	     159.22546	     143.81409	     153.19824
       0.03932	     114.59351	     134.96399	     138.16833	     179.21448
       0.05243	     161.05652	     158.69141	     166.47339	     191.11633
       0.06554	     153.27454	     131.91223	     153.50342	     122.45178
       0.07864	     149.84131	     150.45166	     177.61230	     128.17383
       0.09175	     162.73499	     203.01819	     137.02393	     127.63977
       0.10486	     151.90125	     185.85205	     161.59058	     184.40247
       0.11796	     200.27161	     147.32361	     164.48975	     107.26929
       0.13107	     150.37537	     120.31555	     123.21472	     132.59888
       0.14418	     138.01575	     122.37549	     144.42444	     107.19299
       0.15729	     185.08911	     135.11658	     172.65320	     146.78955
       0.17039	     164.41345	     143.20374	     115.12756	     164.03198
       0.18350	     151.90125	     138.24463	     126.49536	     161.20911
       0.19661	     132.67517	     149.23096	     114.97498	     145.18738
       0.20972	     130.92041	     138.24463	     114.74609	     147.70508
       0.22282	     130.38635	     166.77856	     123.44360	     151.13831
       0.23593	     159.91211	     192.94739	     140.76233	     116.19568
       0.24904	     157.85217	     135.65063	     144.04297	     130.53894
       0.26214	     171.66138	     202.94189	     147.93396	     139.16016
       0.27525	     171.50879	     156.55518	     116.11938	     131.83594
       0.28836	     127.63977	     139.38904	     142.82227	     116.65344
       0.30147	     157.08923	     137.32910	     161.43799	     149.23096
       0.31457	     118.71338	     152.20642	     145.56885	     160.29358
       0.32768	     136.26099	     161.81946	     161.20911	     159.83582
       0.34079	     144.11926	     126.03760	     111.46545	     114.44092
       0.35389	     166.77856	     169.06738	     160.21729	     125.19836
       0.36700	     200.11902	     211.02905	     142.66968	     160.06470
       0.38011	     100.70801	     186.92017	     118.02673	     160.90393
       0.39322	     135.49805	     118.71338	     146.56067	     166.62598
       0.40632	     162.20093	     158.92029	     111.69434	     143.43262
       0.41943	     178.37524	     149.45984	     137.78687	     186.38611
       0.43254	     170.51697	     184.32617	     144.57703	     158.30994
       0.44564	     147.93396	     249.32861	     117.79785	     166.62598
       0.45875	     125.73242	     146.40808	     124.28284	     131.60706
       0.47186	     124.13025	     181.42700	     131.60706	     166.24451
       0.48497	     121.99402	     124.74060	     116.19568	     145.49255
       0.49807	     150.37537	     155.63965	     132.67517	     184.32617
       0.51118	     108.26111	     164.94751	     194.16809	     156.55518
       0.52429	     124.96948	     150.22278	     121.45996	     127.56348
       0.53740	     162.65869	     174.78943	     176.01013	     132.98035
       0.55050	     155.41077	     137.86316	     114.28833	     134.88770
       0.56361	     114.74609	     127.94495	     141.14380	     157.39441
       0.57672	     183.63953	     141.29639	     120.62073	     165.78674
       0.58982	     126.95313	     179.29077	     207.67212	     150.98572
       0.60293	     166.93115	     163.19275	     151.82495	     131.91223
       0.61604	     141.60156	     158.23364	     136.87134	     185.16541
       0.62915	     181.96106	     150.45166	     154.64783	     122.60437
       0.64225	     151.97754	     138.70239	     154.49524	     128.70789
       0.65536	     146.56067	     135.87952	     141.37268	     168.15186
       0.66847	     140.99121	     172.80579	     161.97205	     140.38086
       0.68157	     162.81128	     185.16541	     124.13025	     154.72412
       0.69468	     169.52515	     129.92859	     102.15759	     125.50354
       0.70779	     149.76501	     138.39722	      97.04590	     149.38354
       0.72090	     125.35095	     110.70251	     153.04565	     171.66138
       0.73400	     123.44360	     170.82214	     144.04297	     115.35645
       0.74711	     145.11108	     130.38635	     141.37268	     130.46265
