ALV-7004/USB-FAST
Date :	"3/14/2024"
Time :	"12:32:53 PM"
Samplename : 	""
SampMemo(0) : 	""
SampMemo(1) : 	""
SampMemo(2) : 	""
SampMemo(3) : 	""
SampMemo(4) : 	""
SampMemo(5) : 	""
SampMemo(6) : 	""
SampMemo(7) : 	""
SampMemo(8) : 	""
SampMemo(9) : 	""
Temperature [K] :	     298.16000
Viscosity [cp]  :	       0.89000
Refractive Index:	       1.33200
Wavelength [nm] :	       0.00000
Angle [°]       :	       0.00000
Duration [s]    :	         1
FloatDur [ms]   :	          944
Stop TP [ms]   :	      3217
Runs            :	         1
Mode            :	"A-CH0+1  A-CH2+3 "
MeanCR0 [kHz]   :	     148.19252
MeanCR1 [kHz]   :	     143.13273
MeanCR2 [kHz]   :	     133.33956
MeanCR3 [kHz]   :	     138.81259

"Correlation"
  3.12500E-006	 -1.00000E+000	 -1.00000E+000	 -1.00000E+000	 -1.00000E+000
  6.25000E-006	 -1.00000E+000	 -1.00000E+000	 -1.00000E+000	 -1.00000E+000
  9.37500E-006	 -1.00000E+000	 -1.00000E+000	 -1.00000E+000	 -1.00000E+000
  1.25000E-005	 -1.00000E+000	 -1.00000E+000	 -1.00000E+000	 -1.00000E+000
  1.56250E-005	 -1.00000E+000	 -1.00000E+000	 -1.00000E+000	 -1.00000E+000
  1.87500E-005	 -1.00000E+000	 -1.00000E+000	 -1.00000E+000	 -1.00000E+000
  2.18750E-005	 -8.45596E-001	 -4.86913E-001	 -2.56204E-001	 -9.64805E-001
  2.50000E-005	  5.25336E+000	  5.05774E+000	  5.12202E+000	  9.76964E+000
  2.81250E-005	  1.81015E+000	  1.38337E+000	  9.64385E-001	  3.48735E+000
  3.12500E-005	  8.21965E-001	  4.89608E-001	  7.54597E-001	  2.69546E+000
  3.43750E-005	  6.67562E-001	  8.20632E-001	  7.54597E-001	  1.71001E+000
  3.75000E-005	  9.76369E-001	  5.39262E-001	  8.69027E-001	  1.78040E+000
  4.06250E-005	  8.21965E-001	  5.55813E-001	  1.00253E+000	  1.34046E+000
  4.37500E-005	  6.98442E-001	  5.55813E-001	  9.07170E-001	  1.86838E+000
  4.68750E-005	  6.83002E-001	  5.55813E-001	  3.15948E-001	  1.16449E+000
  5.00000E-005	  6.59841E-001	  3.73750E-001	  5.92487E-001	  1.15569E+000
  5.62500E-005	  3.12433E-001	  3.15821E-001	  3.44555E-001	  1.01491E+000
  6.25000E-005	  6.05800E-001	  5.72364E-001	  4.39913E-001	  1.05890E+000
  6.87500E-005	  7.91085E-001	  3.07545E-001	  5.44808E-001	  6.98154E-001
  7.50000E-005	  5.05437E-001	  4.39955E-001	  4.39913E-001	  8.30135E-001
  8.12500E-005	  4.89997E-001	  4.81333E-001	  4.68521E-001	  5.92569E-001
  8.75000E-005	  6.13520E-001	  3.90301E-001	  3.92234E-001	  6.45362E-001
  9.37500E-005	  6.44401E-001	  7.04774E-001	  5.92487E-001	  5.66173E-001
  1.00000E-004	  5.90359E-001	  5.59951E-001	  5.59111E-001	  6.01368E-001
  1.12500E-004	  5.67199E-001	  4.64781E-001	  5.54344E-001	  5.70572E-001
  1.25000E-004	  5.17018E-001	  4.48230E-001	  6.21094E-001	  4.78186E-001
  1.37500E-004	  7.13882E-001	  4.81332E-001	  4.58985E-001	  4.95783E-001
  1.50000E-004	  6.01940E-001	  5.02021E-001	  4.63753E-001	  4.34192E-001
  1.62500E-004	  4.82277E-001	  5.43399E-001	  5.06664E-001	  6.62959E-001
  1.75000E-004	  4.89997E-001	  6.42707E-001	  4.44681E-001	  6.67358E-001
  1.87500E-004	  5.40178E-001	  5.88915E-001	  5.49576E-001	  5.52975E-001
  2.00000E-004	  5.63338E-001	  5.30986E-001	  5.18584E-001	  5.85970E-001
  2.25000E-004	  5.51758E-001	  4.99952E-001	  5.61495E-001	  5.30978E-001
  2.50000E-004	  4.99647E-001	  4.89608E-001	  5.35272E-001	  4.36391E-001
  2.75000E-004	  5.42108E-001	  5.08228E-001	  5.16200E-001	  4.36391E-001
  3.00000E-004	  4.89997E-001	  4.52368E-001	  4.99512E-001	  5.06781E-001
  3.25000E-004	  5.69129E-001	  5.20641E-001	  4.58985E-001	  4.18794E-001
  3.50000E-004	  3.76124E-001	  4.58574E-001	  4.04154E-001	  4.40791E-001
  3.75000E-004	  4.53326E-001	  4.79263E-001	  4.47065E-001	  5.17780E-001
  4.00000E-004	  5.10261E-001	  4.24437E-001	  5.06663E-001	  4.81484E-001
  4.50000E-004	  4.36920E-001	  5.42364E-001	  4.63752E-001	  3.97896E-001
  5.00000E-004	  4.70695E-001	  4.49264E-001	  5.35271E-001	  4.66087E-001
  5.50000E-004	  4.86136E-001	  5.23744E-001	  4.80440E-001	  4.60587E-001
  6.00000E-004	  5.02541E-001	  4.58574E-001	  4.89976E-001	  4.33091E-001
  6.50000E-004	  4.66835E-001	  5.44433E-001	  5.62686E-001	  4.68286E-001
  7.00000E-004	  4.59115E-001	  4.97883E-001	  5.03087E-001	  5.02381E-001
  7.50000E-004	  4.33060E-001	  5.64087E-001	  5.51959E-001	  4.80384E-001
  8.00000E-004	  4.83722E-001	  5.13915E-001	  5.01298E-001	  4.69935E-001
  9.00000E-004	  5.09295E-001	  4.64779E-001	  5.01298E-001	  3.81398E-001
  1.00000E-003	  4.76967E-001	  4.99433E-001	  4.44083E-001	  4.66635E-001
  1.10000E-003	  4.76484E-001	  4.42538E-001	  4.85802E-001	  4.47388E-001
  1.20000E-003	  5.14603E-001	  4.74089E-001	  4.93550E-001	  5.08429E-001
  1.30000E-003	  4.68282E-001	  4.65296E-001	  5.15602E-001	  4.83683E-001
  1.40000E-003	  4.62492E-001	  4.81330E-001	  4.35739E-001	  4.49038E-001
  1.50000E-003	  4.62974E-001	  5.23225E-001	  4.84014E-001	  4.86982E-001
  1.60000E-003	  4.93139E-001	  5.12361E-001	  5.10235E-001	  4.87816E-001
  1.80000E-003	  4.70713E-001	  4.41760E-001	  4.63748E-001	  4.60045E-001
  2.00000E-003	  4.66370E-001	  4.87017E-001	  4.62556E-001	  4.67469E-001
  2.20000E-003	  4.83741E-001	  4.81328E-001	  4.81330E-001	  4.55645E-001
  2.40000E-003	  5.04972E-001	  4.88052E-001	  5.06969E-001	  4.64169E-001
  2.60000E-003	  4.96297E-001	  4.96080E-001	  5.03096E-001	  4.88366E-001
  2.80000E-003	  4.62762E-001	  4.72029E-001	  4.87004E-001	  4.42722E-001
  3.00000E-003	  5.15115E-001	  4.87804E-001	  4.82236E-001	  4.46572E-001
  3.20000E-003	  4.93901E-001	  4.78230E-001	  4.71503E-001	  4.48640E-001
  3.60000E-003	  4.83154E-001	  4.64912E-001	  4.69566E-001	  4.28155E-001
  4.00000E-003	  4.83033E-001	  4.81592E-001	  4.64947E-001	  4.32142E-001
  4.40000E-003	  4.79294E-001	  4.89609E-001	  4.74334E-001	  4.46154E-001
  4.80000E-003	  4.68799E-001	  4.70472E-001	  4.47961E-001	  4.66501E-001
  5.20000E-003	  4.58183E-001	  4.86894E-001	  4.81039E-001	  4.39555E-001
  5.60000E-003	  4.75795E-001	  4.75655E-001	  4.87297E-001	  4.35568E-001
  6.00000E-003	  4.78932E-001	  4.47983E-001	  4.90426E-001	  4.36393E-001
  6.40000E-003	  4.85347E-001	  4.77908E-001	  4.72610E-001	  4.48424E-001
  7.20000E-003	  4.70690E-001	  4.53986E-001	  4.77614E-001	  4.45193E-001
  8.00000E-003	  4.63332E-001	  4.37769E-001	  4.73442E-001	  4.51586E-001
  8.80000E-003	  4.62597E-001	  4.55419E-001	  4.49006E-001	  4.32281E-001
  9.60000E-003	  4.66166E-001	  4.64471E-001	  4.51911E-001	  4.24387E-001
  1.04000E-002	  4.56083E-001	  4.48243E-001	  4.74559E-001	  4.42672E-001
  1.12000E-002	  4.55480E-001	  4.45527E-001	  4.56479E-001	  4.36955E-001
  1.20000E-002	  4.61150E-001	  4.48243E-001	  4.49774E-001	  4.32625E-001
  1.28000E-002	  4.51471E-001	  4.36586E-001	  4.53924E-001	  4.33933E-001
  1.44000E-002	  4.52074E-001	  4.47738E-001	  4.56680E-001	  4.20357E-001
  1.60000E-002	  4.43057E-001	  4.40885E-001	  4.35038E-001	  4.16679E-001
  1.76000E-002	  4.44343E-001	  4.39786E-001	  4.46224E-001	  4.24344E-001
  1.92000E-002	  4.37025E-001	  4.32513E-001	  4.52010E-001	  4.09255E-001
  2.08000E-002	  4.23393E-001	  4.25530E-001	  4.25561E-001	  4.04169E-001
  2.24000E-002	  4.20880E-001	  4.23978E-001	  4.06116E-001	  4.08018E-001
  2.40000E-002	  4.19030E-001	  4.24409E-001	  4.27498E-001	  4.05979E-001
  2.56000E-002	  4.12724E-001	  4.09948E-001	  4.07099E-001	  3.91183E-001
  2.88000E-002	  4.01319E-001	  4.06305E-001	  3.93334E-001	  3.85065E-001
  3.20000E-002	  3.98012E-001	  3.91300E-001	  3.95763E-001	  3.76729E-001
  3.52000E-002	  3.84877E-001	  3.84592E-001	  3.75990E-001	  3.63730E-001
  3.84000E-002	  3.74010E-001	  3.69884E-001	  3.62832E-001	  3.55522E-001
  4.16000E-002	  3.60855E-001	  3.61414E-001	  3.65589E-001	  3.38972E-001
  4.48000E-002	  3.49868E-001	  3.53294E-001	  3.52998E-001	  3.32115E-001
  4.80000E-002	  3.41286E-001	  3.48267E-001	  3.19210E-001	  3.19380E-001
  5.12000E-002	  3.33602E-001	  3.33757E-001	  3.16867E-001	  3.11180E-001
  5.76000E-002	  3.15739E-001	  3.19964E-001	  3.01422E-001	  2.96262E-001
  6.40000E-002	  3.02594E-001	  2.98903E-001	  2.87956E-001	  2.86666E-001
  7.04000E-002	  2.84370E-001	  2.91555E-001	  2.69479E-001	  2.72148E-001
  7.68000E-002	  2.65990E-001	  2.70269E-001	  2.58518E-001	  2.52786E-001
  8.32000E-002	  2.54362E-001	  2.59748E-001	  2.38176E-001	  2.44459E-001
  8.96000E-002	  2.43337E-001	  2.49848E-001	  2.32597E-001	  2.27898E-001
  9.60000E-002	  2.25492E-001	  2.35422E-001	  2.10934E-001	  2.12052E-001
  1.02400E-001	  2.16474E-001	  2.25557E-001	  1.99150E-001	  2.03283E-001
  1.15200E-001	  1.95955E-001	  2.01837E-001	  1.78189E-001	  1.84477E-001
  1.28000E-001	  1.83208E-001	  1.84291E-001	  1.58169E-001	  1.70946E-001
  1.40800E-001	  1.63575E-001	  1.66522E-001	  1.46813E-001	  1.50334E-001
  1.53600E-001	  1.52653E-001	  1.51498E-001	  1.28692E-001	  1.35318E-001
  1.66400E-001	  1.41292E-001	  1.34151E-001	  1.16409E-001	  1.21777E-001
  1.79200E-001	  1.33132E-001	  1.29888E-001	  1.13236E-001	  1.16719E-001
  1.92000E-001	  1.23551E-001	  1.22853E-001	  9.38251E-002	  1.04567E-001
  2.04800E-001	  1.14292E-001	  1.09160E-001	  8.68832E-002	  9.99204E-002
  2.30400E-001	  9.69545E-002	  9.16713E-002	  7.13695E-002	  8.40165E-002
  2.56000E-001	  8.22857E-002	  8.10801E-002	  5.72884E-002	  7.67011E-002
  2.81600E-001	  7.02744E-002	  6.74909E-002	  4.82916E-002	  6.82703E-002
  3.07200E-001	  6.03024E-002	  5.58073E-002	  3.85886E-002	  6.00922E-002
  3.32800E-001	  5.28858E-002	  4.66037E-002	  2.67702E-002	  5.57519E-002
  3.58400E-001	  4.89210E-002	  4.15416E-002	  2.06208E-002	  4.27267E-002
  3.84000E-001	  4.84381E-002	  3.93274E-002	  1.58993E-002	  3.99519E-002
  4.09600E-001	  4.39848E-002	  3.27752E-002	  1.56242E-002	  3.25115E-002
  4.60800E-001	  3.45676E-002	  2.63678E-002	  1.36711E-002	  2.38676E-002
  5.12000E-001	  2.56824E-002	  2.32254E-002	  1.30391E-002	  1.87217E-002
  5.63200E-001	  2.14991E-002	  1.74151E-002	  1.02283E-002	  1.60713E-002
  6.14400E-001	  1.90734E-002	  1.35554E-002	  1.05867E-002	  1.35701E-002
  6.65600E-001	  1.57686E-002	  1.59692E-002	  7.93549E-003	  9.92064E-003
  7.16800E-001	  1.68673E-002	  2.24132E-002	  4.89162E-003	  8.90694E-003
  7.68000E-001	  1.52891E-002	  2.20901E-002	  1.05908E-004	  1.00304E-002
  8.19200E-001	  1.15644E-002	  2.19725E-002	  8.45937E-004	  6.46526E-003
  9.21600E-001	  6.05547E-003	  1.78724E-002	  6.44150E-003	  5.48574E-004
  1.02400E+000	  7.34906E-003	  8.20109E-003	  1.19333E-002	  6.98376E-004
  1.12640E+000	  9.29273E-003	  6.73295E-003	  7.71885E-003	  3.24960E-003
  1.22880E+000	  1.08672E-002	  1.05328E-002	  1.59079E-003	 -3.16988E-003
  1.33120E+000	  1.14800E-002	  6.81373E-003	  1.49592E-003	 -1.04807E-003
  1.43360E+000	  1.04121E-002	  5.22708E-003	 -5.36206E-005	  2.51569E-003
  1.53600E+000	  6.53140E-003	  4.95959E-003	  6.19899E-003	  3.10405E-003
  1.63840E+000	  6.15685E-003	  5.69404E-003	  6.72164E-003	  3.31458E-003
  1.84320E+000	  4.30916E-003	  3.63754E-003	  9.46603E-003	  2.85718E-003
  2.04800E+000	 -2.15752E-003	 -1.90574E-003	  6.98174E-003	  7.16342E-004
  2.25280E+000	 -4.09891E-003	  3.61817E-003	  6.53586E-003	 -9.18992E-004
  2.45760E+000	 -2.53889E-003	  5.69634E-003	 -6.59322E-003	 -1.51659E-003
  2.66240E+000	 -7.73414E-003	  3.38941E-003	 -9.11065E-003	  8.81445E-004
  2.86720E+000	 -9.64844E-004	  4.15507E-003	  3.71952E-003	  1.08496E-002
  3.07200E+000	  2.69170E-003	  7.95660E-004	  7.04196E-003	  1.22246E-002
  3.27680E+000	 -6.04373E-003	 -6.99750E-004	 -4.44232E-003	  8.49358E-003
  3.68640E+000	 -1.93893E-003	 -3.28538E-003	 -3.26760E-003	 -6.87353E-003
  4.09600E+000	  4.90576E-003	 -3.53325E-003	  2.96010E-003	 -4.09515E-003
  4.50560E+000	  1.61571E-003	 -4.44773E-003	  7.12210E-003	  1.11584E-003
  4.91520E+000	  1.08956E-002	 -5.53795E-003	  4.52466E-003	 -1.53797E-003
  5.32480E+000	  4.50443E-003	 -2.78267E-003	  8.30136E-003	  2.20094E-003
  5.73440E+000	  3.72894E-003	  5.81202E-003	 -1.79390E-003	  6.47771E-003
  6.14400E+000	  6.51801E-003	  7.29142E-003	  4.93582E-003	  8.43533E-003
  6.55360E+000	  6.31986E-003	  6.14975E-003	 -5.49020E-003	  5.80705E-003
  7.37280E+000	  3.41363E-003	  1.99027E-003	 -4.37006E-003	  5.77762E-004
  8.19200E+000	  5.60562E-003	 -1.92075E-003	 -1.71987E-003	  7.19284E-003
  9.01120E+000	 -1.24372E-003	  5.15123E-004	 -3.07020E-003	  3.99301E-003
  9.83040E+000	  1.96601E-003	 -3.07778E-003	 -6.44808E-004	  5.24073E-003
  1.06496E+001	  2.33929E-003	 -1.15448E-003	 -4.39728E-003	 -6.23558E-004
  1.14688E+001	 -1.53775E-003	 -5.74475E-003	 -5.36156E-003	 -5.53328E-003
  1.22880E+001	  3.76998E-003	  1.35661E-003	 -3.90894E-003	 -3.20659E-003
  1.31072E+001	 -4.56371E-003	 -3.36226E-004	 -1.87945E-004	  3.32474E-003
  1.47456E+001	 -2.74606E-003	 -1.20498E-003	 -2.85290E-003	  3.32087E-003
  1.63840E+001	 -1.88545E-004	 -5.65761E-003	  1.82297E-003	  4.42708E-003
  1.80224E+001	  2.28862E-003	 -3.11191E-003	  8.33911E-003	  1.20943E-003
  1.96608E+001	  7.70997E-003	 -3.68130E-003	  3.84257E-003	  5.09540E-003
  2.12992E+001	 -3.09516E-004	 -1.61079E-003	 -5.62154E-004	 -2.68082E-004
  2.29376E+001	  2.34101E-003	  2.79555E-003	  4.56698E-003	 -3.69667E-003
  2.45760E+001	 -7.85923E-003	  6.35196E-003	  2.18820E-003	  1.21394E-003
  2.62144E+001	 -3.57303E-003	  1.23530E-005	 -2.63452E-003	  2.63932E-004
  2.94912E+001	  2.46559E-003	 -6.03921E-003	  1.12029E-004	 -1.05971E-003
  3.27680E+001	  8.20235E-004	  1.88581E-003	 -5.49762E-003	 -2.09736E-003
  3.60448E+001	 -1.47510E-003	  2.81664E-003	 -5.99952E-004	  9.80359E-004
  3.93216E+001	  2.44061E-004	  8.23165E-004	  1.29320E-004	  1.48628E-003
  4.25984E+001	 -8.68206E-004	 -3.11883E-003	  1.19650E-003	  1.09099E-003
  4.58752E+001	 -1.35982E-003	 -3.12402E-003	  1.82387E-003	 -1.50188E-003
  4.91520E+001	  5.74091E-003	  8.28281E-003	 -1.70108E-003	 -6.51487E-003
  5.24288E+001	  1.84138E-003	  4.44473E-003	 -1.90118E-003	 -1.77776E-003
  5.89824E+001	  4.96883E-003	  3.41827E-003	  2.93320E-003	  2.34602E-004
  6.55360E+001	 -5.02982E-004	 -4.71444E-003	  1.87525E-003	  3.04200E-003
  7.20896E+001	 -4.88132E-003	  3.43066E-003	  1.05066E-003	 -1.29625E-003
  7.86432E+001	  1.60553E-003	 -1.77416E-003	 -7.91590E-004	  4.62121E-003
  8.51968E+001	 -6.12929E-003	 -1.82419E-003	 -2.02396E-003	 -5.66526E-004
  9.17504E+001	 -7.56079E-003	 -1.66640E-003	  8.58599E-004	  2.80111E-003
  9.83040E+001	 -1.41395E-003	 -3.01065E-005	  1.76938E-003	  1.25143E-003
  1.04858E+002	 -1.91571E-003	  1.89313E-003	 -3.67795E-004	  4.98594E-004
  1.17965E+002	 -2.21962E-003	  1.96485E-003	 -3.75704E-004	 -8.57550E-004
  1.31072E+002	 -2.00739E-003	  2.17875E-003	 -4.15071E-004	 -6.03290E-004
  1.44179E+002	 -1.49291E-003	 -2.27402E-003	 -1.35247E-003	  9.25092E-004
  1.57286E+002	  6.40342E-004	 -8.42066E-004	 -1.62436E-003	  2.27609E-003
  1.70394E+002	  2.42130E-003	  1.29118E-004	 -1.39475E-003	  1.43372E-003
  1.83501E+002	 -6.81548E-004	 -1.50238E-003	 -4.81099E-005	 -1.91893E-004
  1.96608E+002	  5.62153E-003	 -1.83731E-003	 -9.49529E-004	 -1.85237E-004
  2.09715E+002	  3.23942E-003	 -1.92203E-004	  2.55416E-004	 -2.50253E-003
  2.35930E+002	  2.54430E-003	  5.50390E-004	  2.95657E-003	 -2.62545E-003
  2.62144E+002	  1.39236E-003	 -2.20359E-003	 -4.75313E-004	  8.91680E-004
  2.88358E+002	 -1.31091E-003	  1.13209E-003	  1.09858E-003	  2.08861E-003
  3.14573E+002	 -4.21904E-003	  4.75957E-004	  5.47061E-004	 -2.01678E-003
  3.40787E+002	 -9.94726E-004	  1.97876E-003	 -1.14278E-003	 -4.48773E-005
  3.67002E+002	 -1.98189E-003	 -2.42443E-003	 -4.04744E-004	 -1.74716E-003
  3.93216E+002	  3.46278E-003	 -6.08732E-004	 -2.35278E-003	 -7.56164E-004

"Count Rate"
       0.01311	     142.74597	     127.02942	     120.08667	     134.58252
       0.02621	     126.72424	     117.95044	     131.83594	     114.13574
       0.03932	     138.62610	     158.15735	     150.14648	     120.69702
       0.05243	     130.69153	     136.33728	     136.10840	     125.88501
       0.06554	     127.18201	     132.52258	     133.59070	     129.62341
       0.07864	     151.13831	     154.64783	     122.22290	     143.73779
       0.09175	     137.48169	     138.47351	     123.74878	     139.69421
       0.10486	     137.25281	     115.73792	     117.26379	     126.11389
       0.11796	     148.92578	     120.84961	     126.72424	     132.98035
       0.13107	     137.48169	     124.43542	     144.34814	     140.76233
       0.14418	     143.12744	     123.06213	     125.12207	     128.25012
       0.15729	     195.00732	     146.63696	     137.63428	     160.44617
       0.17039	     138.85498	     151.06201	     131.60706	     146.17920
       0.18350	     126.34277	     146.10291	     124.05396	     135.57434
       0.19661	     163.65051	     159.75952	     137.25281	     142.28821
       0.20972	     152.43530	     162.50610	     142.97485	     113.98315
       0.22282	     130.99670	     122.52808	     137.78687	     152.58789
       0.23593	     117.72156	     137.32910	     121.45996	     160.59875
       0.24904	     130.92041	     133.05664	     132.52258	     163.11646
       0.26214	     156.17371	     143.66150	     139.23645	     142.66968
       0.27525	     126.64795	     145.18738	     130.76782	     126.41907
       0.28836	     160.36987	     136.03210	     115.81421	     119.85779
       0.30147	     130.92041	     162.42981	     100.86060	     150.22278
       0.31457	     165.86304	     159.98840	     121.99402	     152.96936
       0.32768	     146.33179	     119.32373	     123.21472	     139.61792
       0.34079	     152.05383	     149.61243	     143.58521	     128.55530
       0.35389	     166.85486	     131.07300	     122.68066	     146.94214
       0.36700	     186.00464	     155.33447	     111.92322	     126.03760
       0.38011	     132.14111	     123.67249	     129.01306	     167.77039
       0.39322	     142.36450	     133.36182	     121.23108	     132.37000
       0.40632	     114.28833	     146.17920	     128.02124	     170.44067
       0.41943	     167.46521	     157.16553	     127.41089	     149.07837
       0.43254	     153.50342	     123.36731	     140.91492	     143.73779
       0.44564	     124.35913	     126.57166	     125.80872	     135.04028
       0.45875	     124.28284	     128.55530	     140.60974	     125.50354
       0.47186	     117.95044	     147.47620	     133.13293	     139.69421
       0.48497	     147.62878	     132.98035	     137.71057	     118.86597
       0.49807	     145.49255	     137.55798	     139.99939	     169.60144
       0.51118	     132.90405	     154.19006	     104.82788	     165.17639
       0.52429	     151.06201	     151.51978	     133.28552	     137.86316
       0.53740	     149.23096	     142.28821	     127.48718	     127.18201
       0.55050	     154.57153	     136.64246	     119.09485	     132.14111
       0.56361	     173.49243	     132.59888	     150.29907	     110.01587
       0.57672	     139.54163	     126.80054	     127.25830	     139.38904
       0.58982	     169.06738	     133.20923	     122.83325	     120.01038
       0.60293	     140.30457	     152.89307	     109.55811	     138.16833
       0.61604	     146.33179	      96.89331	     122.37549	     107.11670
       0.62915	     164.64233	     162.73499	     140.99121	     114.97498
       0.64225	     166.54968	     150.60425	     127.56348	     131.75964
       0.65536	     125.35095	     156.02112	     131.45447	     137.63428
       0.66847	     127.63977	     119.93408	     133.81958	     140.91492
       0.68157	     137.48169	     129.16565	     132.59888	     126.49536
       0.69468	     116.72974	     124.35913	     154.19006	     153.35083
       0.70779	     169.83032	     157.16553	     132.06482	     132.52258
       0.72090	     141.60156	     154.64783	     121.68884	     113.29651
       0.73400	     136.87134	     134.96399	     147.24731	     123.36731
       0.74711	     158.99658	     121.91772	     145.79773	     131.37817
