ALV-7004/USB-FAST
Date :	"3/14/2024"
Time :	"12:33:37 PM"
Samplename : 	""
SampMemo(0) : 	""
SampMemo(1) : 	""
SampMemo(2) : 	""
SampMemo(3) : 	""
SampMemo(4) : 	""
SampMemo(5) : 	""
SampMemo(6) : 	""
SampMemo(7) : 	""
SampMemo(8) : 	""
SampMemo(9) : 	""
Temperature [K] :	     298.16000
Viscosity [cp]  :	       0.89000
Refractive Index:	       1.33200
Wavelength [nm] :	       0.00000
Angle [°]       :	       0.00000
Duration [s]    :	         1
FloatDur [ms]   :	          944
Stop TP [ms]   :	      3303
Runs            :	         1
Mode            :	"A-CH0+1  A-CH2+3 "
MeanCR0 [kHz]   :	     123.43724
MeanCR1 [kHz]   :	     121.17386
MeanCR2 [kHz]   :	     119.02703
MeanCR3 [kHz]   :	     116.65132

"Correlation"
  3.12500E-006	 -1.00000E+000	 -1.00000E+000	 -1.00000E+000	 -1.00000E+000
  6.25000E-006	 -1.00000E+000	 -1.00000E+000	 -1.00000E+000	 -1.00000E+000
  9.37500E-006	 -1.00000E+000	 -1.00000E+000	 -1.00000E+000	 -1.00000E+000
  1.25000E-005	 -1.00000E+000	 -1.00000E+000	 -1.00000E+000	 -1.00000E+000
  1.56250E-005	 -1.00000E+000	 -1.00000E+000	 -1.00000E+000	 -1.00000E+000
  1.87500E-005	 -1.00000E+000	 -1.00000E+000	 -1.00000E+000	 -1.00000E+000
  2.18750E-005	 -9.10983E-001	 -4.68850E-001	 -3.77709E-001	 -9.50162E-001
  2.50000E-005	  5.52053E+000	  6.94416E+000	  6.94618E+000	  1.18831E+001
  2.81250E-005	  1.67052E+000	  1.37863E+000	  1.44130E+000	  5.20480E+000
  3.12500E-005	  1.13642E+000	  8.47480E-001	  2.68516E-001	  2.53848E+000
  3.43750E-005	  1.04740E+000	  4.77984E-001	  8.19005E-001	  2.71291E+000
  3.75000E-005	  4.02025E-001	  5.70358E-001	  9.14742E-001	  1.91551E+000
  4.06250E-005	  8.69366E-001	  8.01293E-001	  5.31793E-001	  1.94043E+000
  4.37500E-005	  9.13875E-001	  2.70142E-001	  7.47202E-001	  2.01518E+000
  4.68750E-005	  5.13296E-001	  5.01077E-001	  5.79662E-001	  1.34237E+000
  5.00000E-005	  5.80059E-001	  3.74063E-001	  6.27530E-001	  1.59156E+000
  5.62500E-005	  6.91331E-001	  4.43343E-001	  9.38676E-001	  1.14302E+000
  6.25000E-005	  6.24568E-001	  5.58811E-001	  5.31793E-001	  8.31536E-001
  6.87500E-005	  8.47112E-001	  4.20250E-001	  4.59990E-001	  1.08072E+000
  7.50000E-005	  5.02169E-001	  4.43343E-001	  6.87366E-001	  9.81049E-001
  8.12500E-005	  5.35551E-001	  5.58811E-001	  6.27530E-001	  5.57429E-001
  8.75000E-005	  4.57660E-001	  3.50969E-001	  6.63432E-001	  6.19726E-001
  9.37500E-005	  6.02314E-001	  6.97372E-001	  5.43760E-001	  6.57104E-001
  1.00000E-004	  6.85767E-001	  5.87677E-001	  6.15563E-001	  5.88577E-001
  1.12500E-004	  4.18715E-001	  3.56743E-001	  5.19826E-001	  6.13496E-001
  1.25000E-004	  4.68787E-001	  5.06850E-001	  3.94171E-001	  4.70213E-001
  1.37500E-004	  6.02314E-001	  4.02930E-001	  5.79662E-001	  5.76118E-001
  1.50000E-004	  5.02169E-001	  4.60663E-001	  4.95892E-001	  5.57429E-001
  1.62500E-004	  5.18860E-001	  4.66437E-001	  4.83925E-001	  4.57753E-001
  1.75000E-004	  5.63368E-001	  5.24170E-001	  4.77941E-001	  4.95131E-001
  1.87500E-004	  6.85767E-001	  5.47264E-001	  2.68516E-001	  6.50874E-001
  2.00000E-004	  6.38477E-001	  5.21283E-001	  3.88187E-001	  5.20050E-001
  2.25000E-004	  4.54878E-001	  5.29943E-001	  5.46752E-001	  4.76442E-001
  2.50000E-004	  4.85478E-001	  6.04997E-001	  4.65974E-001	  3.54963E-001
  2.75000E-004	  5.74495E-001	  6.45411E-001	  4.12121E-001	  4.76442E-001
  3.00000E-004	  4.74351E-001	  6.07884E-001	  5.04867E-001	  4.85787E-001
  3.25000E-004	  4.68787E-001	  5.03963E-001	  5.55727E-001	  4.23489E-001
  3.50000E-004	  4.88260E-001	  5.96337E-001	  4.86916E-001	  5.01361E-001
  3.75000E-004	  3.93679E-001	  4.57776E-001	  6.15563E-001	  5.23165E-001
  4.00000E-004	  5.24422E-001	  4.40456E-001	  5.10850E-001	  5.43411E-001
  4.50000E-004	  4.46532E-001	  4.47685E-001	  4.77940E-001	  4.85786E-001
  5.00000E-004	  4.71568E-001	  5.18409E-001	  5.67693E-001	  5.91691E-001
  5.50000E-004	  4.27060E-001	  4.85212E-001	  4.36055E-001	  4.59310E-001
  6.00000E-004	  5.31377E-001	  5.09749E-001	  5.93124E-001	  5.15377E-001
  6.50000E-004	  4.95214E-001	  4.83769E-001	  5.66198E-001	  4.77999E-001
  7.00000E-004	  5.06341E-001	  3.76961E-001	  5.45255E-001	  5.30951E-001
  7.50000E-004	  4.75741E-001	  4.69335E-001	  4.21096E-001	  5.20049E-001
  8.00000E-004	  4.62539E-001	  4.80881E-001	  4.78687E-001	  5.17712E-001
  9.00000E-004	  4.42371E-001	  5.10470E-001	  5.50489E-001	  4.98244E-001
  1.00000E-003	  4.54193E-001	  5.25625E-001	  4.77939E-001	  5.23942E-001
  1.10000E-003	  4.02730E-001	  5.36450E-001	  5.82651E-001	  5.30950E-001
  1.20000E-003	  5.09817E-001	  4.69334E-001	  4.85418E-001	  4.61645E-001
  1.30000E-003	  4.46531E-001	  4.39024E-001	  5.22815E-001	  5.04474E-001
  1.40000E-003	  5.06339E-001	  4.71499E-001	  4.89906E-001	  4.49964E-001
  1.50000E-003	  4.92430E-001	  4.54179E-001	  5.37026E-001	  4.51521E-001
  1.60000E-003	  4.51782E-001	  4.70775E-001	  5.14959E-001	  4.49196E-001
  1.80000E-003	  5.14721E-001	  5.18405E-001	  5.30292E-001	  5.03706E-001
  2.00000E-003	  4.74037E-001	  5.14075E-001	  4.81302E-001	  5.06432E-001
  2.20000E-003	  4.68821E-001	  4.46960E-001	  4.91399E-001	  4.69832E-001
  2.40000E-003	  4.62214E-001	  4.92064E-001	  5.38146E-001	  4.76840E-001
  2.60000E-003	  4.59084E-001	  4.80518E-001	  5.30666E-001	  4.89313E-001
  2.80000E-003	  4.87238E-001	  5.14436E-001	  4.94017E-001	  4.55828E-001
  3.00000E-003	  4.49335E-001	  4.61754E-001	  5.14585E-001	  5.10728E-001
  3.20000E-003	  4.50063E-001	  4.91518E-001	  5.23930E-001	  4.97317E-001
  3.60000E-003	  4.38923E-001	  4.82317E-001	  5.17025E-001	  4.90309E-001
  4.00000E-003	  4.52994E-001	  5.15153E-001	  4.97204E-001	  4.57589E-001
  4.40000E-003	  4.48299E-001	  4.79069E-001	  4.93651E-001	  4.85623E-001
  4.80000E-003	  4.85159E-001	  4.87549E-001	  5.02253E-001	  4.67907E-001
  5.20000E-003	  4.55254E-001	  4.77445E-001	  5.06740E-001	  4.81535E-001
  5.60000E-003	  4.69511E-001	  4.86647E-001	  4.69904E-001	  4.72385E-001
  6.00000E-003	  4.60458E-001	  5.10101E-001	  5.24504E-001	  4.53500E-001
  6.40000E-003	  4.67304E-001	  5.01006E-001	  4.82983E-001	  4.69481E-001
  7.20000E-003	  4.68782E-001	  4.76559E-001	  5.21128E-001	  4.43575E-001
  8.00000E-003	  4.40528E-001	  4.80619E-001	  4.87845E-001	  4.60804E-001
  8.80000E-003	  4.59740E-001	  4.94060E-001	  5.15051E-001	  4.60415E-001
  9.60000E-003	  4.67490E-001	  4.93519E-001	  4.93361E-001	  4.61778E-001
  1.04000E-002	  4.43123E-001	  4.66726E-001	  4.99999E-001	  4.67702E-001
  1.12000E-002	  4.80245E-001	  4.87668E-001	  4.94296E-001	  4.76755E-001
  1.20000E-002	  4.53295E-001	  4.97501E-001	  4.79898E-001	  4.69065E-001
  1.28000E-002	  4.64385E-001	  4.79026E-001	  4.75570E-001	  4.66262E-001
  1.44000E-002	  4.58039E-001	  4.69148E-001	  4.94222E-001	  4.59059E-001
  1.60000E-002	  4.67024E-001	  4.74426E-001	  4.84358E-001	  4.54435E-001
  1.76000E-002	  4.45668E-001	  4.71571E-001	  4.87210E-001	  4.55019E-001
  1.92000E-002	  4.50133E-001	  4.67557E-001	  4.86649E-001	  4.48984E-001
  2.08000E-002	  4.46916E-001	  4.64444E-001	  4.75897E-001	  4.48192E-001
  2.24000E-002	  4.44352E-001	  4.66158E-001	  4.72718E-001	  4.57391E-001
  2.40000E-002	  4.35851E-001	  4.61513E-001	  4.67342E-001	  4.47449E-001
  2.56000E-002	  4.39679E-001	  4.59945E-001	  4.73284E-001	  4.49106E-001
  2.88000E-002	  4.36993E-001	  4.53676E-001	  4.75294E-001	  4.48351E-001
  3.20000E-002	  4.31233E-001	  4.55395E-001	  4.72058E-001	  4.39677E-001
  3.52000E-002	  4.37916E-001	  4.54268E-001	  4.58839E-001	  4.38057E-001
  3.84000E-002	  4.20872E-001	  4.52689E-001	  4.73271E-001	  4.29881E-001
  4.16000E-002	  4.20969E-001	  4.47840E-001	  4.61400E-001	  4.23785E-001
  4.48000E-002	  4.17022E-001	  4.40497E-001	  4.50858E-001	  4.14708E-001
  4.80000E-002	  4.14066E-001	  4.33889E-001	  4.48824E-001	  4.21728E-001
  5.12000E-002	  4.05045E-001	  4.34839E-001	  4.53560E-001	  4.18567E-001
  5.76000E-002	  4.04903E-001	  4.26324E-001	  4.48182E-001	  4.12191E-001
  6.40000E-002	  4.01021E-001	  4.20466E-001	  4.44603E-001	  4.04294E-001
  7.04000E-002	  3.99379E-001	  4.19361E-001	  4.36958E-001	  3.95301E-001
  7.68000E-002	  3.90444E-001	  4.10476E-001	  4.15779E-001	  3.90628E-001
  8.32000E-002	  3.88867E-001	  3.98702E-001	  4.25829E-001	  3.92746E-001
  8.96000E-002	  3.74075E-001	  4.01581E-001	  4.12141E-001	  3.79044E-001
  9.60000E-002	  3.71257E-001	  3.87075E-001	  4.08495E-001	  3.75966E-001
  1.02400E-001	  3.61564E-001	  3.84626E-001	  4.02538E-001	  3.69306E-001
  1.15200E-001	  3.52455E-001	  3.74541E-001	  3.85141E-001	  3.55197E-001
  1.28000E-001	  3.44809E-001	  3.55861E-001	  3.72105E-001	  3.44203E-001
  1.40800E-001	  3.27708E-001	  3.44910E-001	  3.62390E-001	  3.24460E-001
  1.53600E-001	  3.13996E-001	  3.33510E-001	  3.55353E-001	  3.11574E-001
  1.66400E-001	  3.02326E-001	  3.22990E-001	  3.42594E-001	  3.06773E-001
  1.79200E-001	  2.93250E-001	  3.07145E-001	  3.28450E-001	  2.87798E-001
  1.92000E-001	  2.87951E-001	  3.02926E-001	  3.15890E-001	  2.78915E-001
  2.04800E-001	  2.75036E-001	  2.86082E-001	  3.01985E-001	  2.69693E-001
  2.30400E-001	  2.54293E-001	  2.69718E-001	  2.80968E-001	  2.47819E-001
  2.56000E-001	  2.37028E-001	  2.47521E-001	  2.62713E-001	  2.33561E-001
  2.81600E-001	  2.15757E-001	  2.25512E-001	  2.43793E-001	  2.15192E-001
  3.07200E-001	  1.95304E-001	  2.14397E-001	  2.22853E-001	  1.92881E-001
  3.32800E-001	  1.82600E-001	  1.94418E-001	  2.08859E-001	  1.73844E-001
  3.58400E-001	  1.66669E-001	  1.81800E-001	  1.94681E-001	  1.60231E-001
  3.84000E-001	  1.51176E-001	  1.67522E-001	  1.83174E-001	  1.47227E-001
  4.09600E-001	  1.36220E-001	  1.57261E-001	  1.69349E-001	  1.31762E-001
  4.60800E-001	  1.15882E-001	  1.31113E-001	  1.44299E-001	  1.08174E-001
  5.12000E-001	  9.40167E-002	  1.12418E-001	  1.24906E-001	  9.13079E-002
  5.63200E-001	  8.05210E-002	  9.66731E-002	  1.10279E-001	  7.70310E-002
  6.14400E-001	  6.42519E-002	  8.24238E-002	  9.50365E-002	  5.71176E-002
  6.65600E-001	  5.12626E-002	  7.07669E-002	  8.46657E-002	  4.70603E-002
  7.16800E-001	  4.42961E-002	  6.63221E-002	  7.78745E-002	  3.50336E-002
  7.68000E-001	  3.69886E-002	  5.64683E-002	  6.86138E-002	  3.09025E-002
  8.19200E-001	  3.27627E-002	  5.25013E-002	  5.82184E-002	  2.46426E-002
  9.21600E-001	  2.92027E-002	  4.32592E-002	  4.94787E-002	  1.48612E-002
  1.02400E+000	  2.34660E-002	  3.70409E-002	  3.22962E-002	  1.02235E-002
  1.12640E+000	  2.05084E-002	  3.02696E-002	  2.46313E-002	  6.53503E-003
  1.22880E+000	  1.65357E-002	  2.42984E-002	  1.68528E-002	  4.56819E-003
  1.33120E+000	  1.54349E-002	  2.40877E-002	  1.65048E-002	  3.28784E-003
  1.43360E+000	  1.51220E-002	  2.04567E-002	  1.99672E-002	  1.61736E-004
  1.53600E+000	  1.26890E-002	  1.73224E-002	  2.20882E-002	 -1.79332E-003
  1.63840E+000	  1.14826E-002	  1.85784E-002	  1.94175E-002	 -2.26114E-003
  1.84320E+000	  6.49847E-003	  1.51125E-002	  9.99484E-003	 -1.51150E-003
  2.04800E+000	  2.54189E-004	  1.61137E-002	  5.29342E-003	 -6.59520E-003
  2.25280E+000	 -7.04354E-003	  1.27718E-002	  3.82286E-003	 -9.47350E-003
  2.45760E+000	 -1.04290E-002	  1.17391E-004	  2.02151E-003	 -6.42581E-003
  2.66240E+000	 -8.01849E-003	 -7.85485E-003	  4.58411E-003	  2.05128E-003
  2.86720E+000	  5.31462E-004	 -1.64327E-002	  4.39818E-003	  4.61020E-003
  3.07200E+000	  7.43578E-003	 -1.40968E-002	  1.05769E-004	  5.39348E-004
  3.27680E+000	  8.78762E-003	 -9.19653E-003	 -1.46022E-003	 -2.80661E-003
  3.68640E+000	  1.27102E-002	 -1.52087E-002	  9.22500E-003	 -1.21279E-003
  4.09600E+000	  1.89923E-003	 -1.11283E-002	  1.73106E-002	  1.78452E-003
  4.50560E+000	  5.94869E-003	 -6.55664E-003	  8.68924E-003	  4.48630E-003
  4.91520E+000	  6.32408E-003	  5.58640E-004	  1.21322E-003	  1.14820E-002
  5.32480E+000	  2.05195E-003	  4.62898E-003	  4.92238E-004	 -4.94551E-003
  5.73440E+000	  7.52824E-004	  8.55943E-003	 -1.61096E-003	 -1.24566E-002
  6.14400E+000	  4.52312E-003	  1.34287E-002	 -1.18611E-002	 -1.04507E-002
  6.55360E+000	  6.04638E-003	  9.24458E-003	 -1.64794E-002	 -8.72763E-003
  7.37280E+000	  7.86286E-003	 -7.11973E-004	 -4.31776E-003	 -3.02666E-003
  8.19200E+000	 -1.06914E-002	  2.35322E-003	  1.66782E-003	  4.37976E-003
  9.01120E+000	 -8.95546E-004	  5.72610E-003	  1.12593E-002	  3.92444E-003
  9.83040E+000	 -2.68552E-003	  1.62411E-002	  1.57774E-002	 -6.29857E-003
  1.06496E+001	  3.41918E-003	  9.71530E-003	  5.85850E-003	 -1.21730E-002
  1.14688E+001	 -2.71067E-003	  1.22222E-002	 -3.11499E-003	 -2.57027E-003
  1.22880E+001	 -1.27050E-002	 -1.10830E-002	 -7.14269E-003	  8.88191E-003
  1.31072E+001	 -1.02654E-002	 -1.07391E-002	 -4.60424E-003	  4.21106E-003
  1.47456E+001	  1.00862E-002	  8.90188E-004	 -4.11384E-003	 -2.50684E-003
  1.63840E+001	 -7.41186E-003	  3.31741E-003	 -4.84012E-003	 -1.98560E-003
  1.80224E+001	 -4.48507E-003	  9.91636E-003	 -1.07399E-002	  8.27454E-003
  1.96608E+001	 -3.70423E-003	  1.02797E-002	  1.66124E-003	 -4.04185E-003
  2.12992E+001	  1.00484E-003	  2.76297E-003	  9.22256E-003	  2.18931E-003
  2.29376E+001	  8.20296E-004	 -2.03378E-002	  3.39624E-003	  9.99941E-003
  2.45760E+001	  1.31325E-002	  8.34275E-003	  1.68131E-006	  4.22165E-003
  2.62144E+001	  3.46243E-004	  5.85812E-003	  1.53116E-003	  5.36331E-003
  2.94912E+001	  7.75810E-003	 -4.62247E-004	 -1.87633E-003	 -1.39209E-003
  3.27680E+001	  6.34654E-003	 -2.72595E-003	  8.09259E-003	 -2.96888E-004
  3.60448E+001	 -1.72431E-003	  2.27452E-003	  8.39376E-004	  7.33759E-003
  3.93216E+001	 -4.23583E-003	 -8.80617E-003	 -3.13400E-003	  2.79019E-003
  4.25984E+001	 -4.40273E-003	 -1.17038E-002	 -6.18478E-003	 -1.57734E-002
  4.58752E+001	 -1.11814E-003	  6.69810E-003	  3.88824E-003	 -7.35411E-003
  4.91520E+001	  3.37465E-003	 -2.30999E-003	 -1.77686E-003	  1.20413E-002
  5.24288E+001	  7.69557E-004	 -3.65492E-003	 -3.12796E-003	  7.06991E-003
  5.89824E+001	  2.54790E-003	 -2.80337E-003	 -2.33781E-003	 -3.41374E-003
  6.55360E+001	 -1.67361E-003	 -1.01481E-002	  1.03274E-003	 -2.81749E-003
  7.20896E+001	  3.97384E-003	  1.00625E-003	 -7.05250E-003	  3.99460E-003
  7.86432E+001	  5.11178E-003	  1.57165E-004	 -6.55642E-003	 -4.07572E-003
  8.51968E+001	 -8.69960E-004	 -2.06458E-003	  6.84102E-003	  2.53640E-003
  9.17504E+001	 -5.31855E-003	 -1.10706E-003	 -4.46084E-003	 -2.19781E-004
  9.83040E+001	  1.00295E-003	  3.25173E-003	 -6.30343E-003	 -2.71496E-003
  1.04858E+002	  1.79497E-003	  7.56729E-003	  2.84097E-003	  3.88524E-003
  1.17965E+002	 -1.40472E-003	  4.46558E-003	 -1.78801E-003	 -2.84810E-003
  1.31072E+002	  2.06961E-003	  6.49178E-003	  4.05455E-003	 -9.84835E-004
  1.44179E+002	 -7.07714E-003	 -5.99523E-004	  2.39251E-003	 -3.20924E-003
  1.57286E+002	 -4.38373E-003	 -2.86824E-003	  4.47184E-003	 -1.64595E-003
  1.70394E+002	 -2.62033E-003	 -5.72926E-003	 -5.01773E-004	 -2.10832E-003
  1.83501E+002	 -4.25972E-004	 -6.56613E-003	 -2.16753E-003	 -1.65003E-003
  1.96608E+002	  1.13984E-003	 -3.36939E-004	 -7.76710E-003	 -9.78921E-004
  2.09715E+002	 -4.91592E-004	 -3.08824E-003	 -7.65473E-003	 -6.39796E-004
  2.35930E+002	  3.09235E-003	 -1.27217E-004	  5.20684E-004	 -2.65668E-003
  2.62144E+002	  2.18765E-003	  2.44738E-004	  9.77731E-004	  1.03575E-003
  2.88358E+002	 -1.29346E-003	 -5.26055E-003	  1.44130E-003	 -2.49823E-003
  3.14573E+002	 -1.87764E-003	 -3.45891E-003	 -3.04553E-003	  1.40494E-003
  3.40787E+002	 -2.71662E-003	 -1.23524E-003	 -5.74504E-003	  2.23488E-003
  3.67002E+002	 -2.02366E-003	  4.68347E-003	 -7.40064E-003	  1.75035E-003
  3.93216E+002	 -3.19707E-003	  4.32400E-003	  2.92660E-003	  7.67562E-004

"Count Rate"
       0.01311	     150.37537	     107.57446	      97.42737	      93.07861
       0.02621	     108.10852	      96.05408	     121.53625	      88.04321
       0.03932	     114.89868	      97.12219	      85.98328	     122.52808
       0.05243	     106.50635	      97.80884	     111.46545	     116.65344
       0.06554	     117.95044	     119.55261	     139.99939	     105.89600
       0.07864	     112.15210	     130.61523	     115.35645	     110.39734
       0.09175	     114.74609	     112.22839	      95.74890	     108.41370
       0.10486	     133.89587	     139.38904	     113.14392	     104.21753
       0.11796	     107.26929	     137.17651	     139.99939	      91.40015
       0.13107	      99.10583	     119.40002	      92.54456	     131.30188
       0.14418	     100.93689	     108.10852	      90.48462	     153.50342
       0.15729	     117.79785	     110.47363	     118.71338	     110.32104
       0.17039	     124.43542	     114.74609	     185.77576	     134.88770
       0.18350	     108.64258	      98.34290	     118.94226	     112.76245
       0.19661	     143.96667	     130.61523	     138.62610	     130.15747
       0.20972	      96.81702	     148.39172	     147.93396	     100.78430
       0.22282	     127.02942	     103.14941	     124.58801	     118.56079
       0.23593	     105.43823	     132.90405	     138.70239	     102.23389
       0.24904	     124.66431	     140.30457	     129.16565	     112.68616
       0.26214	     124.74060	     115.28015	      69.50378	     108.10852
       0.27525	     187.37793	      94.14673	     128.86047	     147.85767
       0.28836	     147.70508	      78.58276	      81.93970	     109.55811
       0.30147	     172.11914	      97.35107	     143.28003	     121.00220
       0.31457	     125.04578	     135.57434	     110.85510	     111.16028
       0.32768	     115.05127	     133.59070	     121.45996	     118.25562
       0.34079	     113.37280	     165.86304	     128.63159	     108.79517
       0.35389	     141.44897	     139.99939	     111.69434	     116.42456
       0.36700	     111.46545	     127.02942	     130.15747	     143.89038
       0.38011	     132.52258	      99.79248	      97.80884	     120.01038
       0.39322	     118.94226	      99.33472	     114.05945	     120.23926
       0.40632	     134.50623	     118.56079	     109.10034	      94.37561
       0.41943	     109.55811	     110.09216	      86.36475	     127.25830
       0.43254	     130.92041	     113.75427	      89.03503	     116.11938
       0.44564	     113.98315	     113.60168	     120.01038	     113.29651
       0.45875	     106.96411	     154.41895	     119.55261	      80.33752
       0.47186	     122.98584	      97.35107	     168.83850	     109.71069
       0.48497	     152.13013	      83.16040	     117.34009	     112.60986
       0.49807	      84.68628	     113.67798	      83.69446	     128.93677
       0.51118	     147.85767	     121.53625	      89.79797	     110.85510
       0.52429	     107.87964	      87.50916	      98.87695	     123.59619
       0.53740	     136.94763	     139.16016	     100.32654	      92.31567
       0.55050	     131.83594	      78.73535	     138.62610	     113.98315
       0.56361	     114.36462	     136.56616	      96.66443	      97.80884
       0.57672	     106.27747	     109.10034	     118.86597	     120.31555
       0.58982	      96.51184	     123.97766	     110.70251	     117.95044
       0.60293	     129.16565	     102.92053	     102.23389	     135.19287
       0.61604	     110.47363	     108.33740	     118.33191	     124.20654
       0.62915	     116.88232	     104.98047	     155.33447	     111.77063
       0.64225	     104.06494	     127.94495	      92.54456	     111.08398
       0.65536	     110.24475	     119.09485	     126.19019	     134.04846
       0.66847	     116.72974	     121.38367	     132.21741	      89.11133
       0.68157	     132.59888	     105.05676	     102.61536	     157.54700
       0.69468	      94.52820	     144.42444	     132.37000	     117.56897
       0.70779	     111.16028	     144.19556	     105.13306	     180.89294
       0.72090	     131.91223	     146.25549	     143.89038	     111.84692
       0.73400	     148.39172	     145.33997	     126.49536	     103.37830
       0.74711	     114.36462	     139.46533	     106.58264	     142.97485
