ALV-7004/USB-FAST
Date :	"3/14/2024"
Time :	"12:33:40 PM"
Samplename : 	""
SampMemo(0) : 	""
SampMemo(1) : 	""
SampMemo(2) : 	""
SampMemo(3) : 	""
SampMemo(4) : 	""
SampMemo(5) : 	""
SampMemo(6) : 	""
SampMemo(7) : 	""
SampMemo(8) : 	""
SampMemo(9) : 	""
Temperature [K] :	     298.16000
Viscosity [cp]  :	       0.89000
Refractive Index:	       1.33200
Wavelength [nm] :	       0.00000
Angle [°]       :	       0.00000
Duration [s]    :	         1
FloatDur [ms]   :	          944
Stop TP [ms]   :	      3315
Runs            :	         1
Mode            :	"A-CH0+1  A-CH2+3 "
MeanCR0 [kHz]   :	     120.06441
MeanCR1 [kHz]   :	     118.18886
MeanCR2 [kHz]   :	     113.97680
MeanCR3 [kHz]   :	     112.05038

"Correlation"
  3.12500E-006	 -1.00000E+000	 -1.00000E+000	 -1.00000E+000	 -1.00000E+000
  6.25000E-006	 -1.00000E+000	 -1.00000E+000	 -1.00000E+000	 -1.00000E+000
  9.37500E-006	 -1.00000E+000	 -1.00000E+000	 -1.00000E+000	 -1.00000E+000
  1.25000E-005	 -1.00000E+000	 -1.00000E+000	 -1.00000E+000	 -1.00000E+000
  1.56250E-005	 -1.00000E+000	 -1.00000E+000	 -1.00000E+000	 -1.00000E+000
  1.87500E-005	 -1.00000E+000	 -1.00000E+000	 -1.00000E+000	 -1.00000E+000
  2.18750E-005	 -9.05911E-001	 -2.23209E-001	 -1.38632E-001	 -9.72993E-001
  2.50000E-005	  5.77441E+000	  5.84547E+000	  5.89094E+000	  1.16664E+001
  2.81250E-005	  2.05789E+000	  1.37892E+000	  1.14037E+000	  4.88759E+000
  3.12500E-005	  9.28825E-001	  8.44880E-001	  1.00986E+000	  3.59124E+000
  3.43750E-005	  9.05302E-001	  5.05033E-001	  9.57654E-001	  2.21387E+000
  3.75000E-005	  7.40647E-001	  1.18473E+000	  5.66123E-001	  1.72774E+000
  4.06250E-005	  5.52469E-001	  7.72056E-001	  8.79348E-001	  1.53868E+000
  4.37500E-005	  7.40647E-001	  5.77858E-001	  6.44429E-001	  2.15985E+000
  4.68750E-005	  5.28946E-001	  6.26407E-001	  5.40021E-001	  1.56569E+000
  5.00000E-005	  6.93602E-001	  6.50682E-001	  6.96633E-001	  1.47117E+000
  5.62500E-005	  9.40586E-001	  5.53583E-001	  8.92399E-001	  1.21460E+000
  6.25000E-005	  7.52408E-001	  4.44347E-001	  7.35786E-001	  9.04013E-001
  6.87500E-005	  8.11213E-001	  3.71522E-001	  5.13919E-001	  9.31021E-001
  7.50000E-005	  6.58319E-001	  4.32209E-001	  6.70531E-001	  9.44524E-001
  8.12500E-005	  5.52469E-001	  6.26407E-001	  5.00868E-001	  8.77006E-001
  8.75000E-005	  7.28885E-001	  6.38544E-001	  7.09684E-001	  6.60948E-001
  9.37500E-005	  6.46558E-001	  4.68621E-001	  7.48837E-001	  5.25911E-001
  1.00000E-004	  6.40677E-001	  4.62552E-001	  5.00868E-001	  5.59670E-001
  1.12500E-004	  7.28885E-001	  3.77591E-001	  4.94342E-001	  5.93430E-001
  1.25000E-004	  5.28946E-001	  5.77857E-001	  6.18327E-001	  6.13685E-001
  1.37500E-004	  4.70141E-001	  4.56484E-001	  4.94342E-001	  4.04379E-001
  1.50000E-004	  5.99513E-001	  4.74690E-001	  5.33495E-001	  4.24634E-001
  1.62500E-004	  5.17185E-001	  5.29308E-001	  4.16036E-001	  5.73174E-001
  1.75000E-004	  6.05393E-001	  5.83926E-001	  4.29087E-001	  5.73174E-001
  1.87500E-004	  5.17185E-001	  4.80758E-001	  4.55189E-001	  4.04379E-001
  2.00000E-004	  6.34796E-001	  4.62552E-001	  4.94342E-001	  5.56294E-001
  2.25000E-004	  6.25975E-001	  5.56617E-001	  6.08538E-001	  6.74451E-001
  2.50000E-004	  5.99513E-001	  5.17170E-001	  4.61714E-001	  5.15783E-001
  2.75000E-004	  6.37736E-001	  4.53449E-001	  5.33495E-001	  6.33940E-001
  3.00000E-004	  5.81871E-001	  4.17037E-001	  4.22561E-001	  3.94251E-001
  3.25000E-004	  5.26006E-001	  4.53449E-001	  5.07393E-001	  4.51641E-001
  3.50000E-004	  4.90722E-001	  4.80758E-001	  4.16036E-001	  5.93429E-001
  3.75000E-004	  5.96572E-001	  4.77724E-001	  5.59597E-001	  5.19159E-001
  4.00000E-004	  5.21594E-001	  4.12485E-001	  5.15549E-001	  5.14095E-001
  4.50000E-004	  4.28976E-001	  3.92762E-001	  5.26969E-001	  5.76549E-001
  5.00000E-004	  5.17184E-001	  5.56616E-001	  5.07392E-001	  5.76549E-001
  5.50000E-004	  4.93649E-001	  5.26273E-001	  5.61228E-001	  4.66832E-001
  6.00000E-004	  4.43664E-001	  4.61034E-001	  4.53557E-001	  6.06917E-001
  6.50000E-004	  4.86298E-001	  5.65719E-001	  4.89447E-001	  4.55002E-001
  7.00000E-004	  5.65685E-001	  5.00481E-001	  4.43769E-001	  4.66818E-001
  7.50000E-004	  6.11259E-001	  4.38277E-001	  5.79173E-001	  4.80322E-001
  8.00000E-004	  5.14978E-001	  4.92135E-001	  4.67422E-001	  5.20001E-001
  9.00000E-004	  5.27474E-001	  4.14001E-001	  5.43281E-001	  4.56703E-001
  1.00000E-003	  5.37030E-001	  5.08824E-001	  5.43281E-001	  5.34349E-001
  1.10000E-003	  5.19388E-001	  4.83791E-001	  4.76395E-001	  5.07342E-001
  1.20000E-003	  4.53232E-001	  5.12617E-001	  4.67436E-001	  4.76958E-001
  1.30000E-003	  5.50996E-001	  4.48896E-001	  4.69067E-001	  4.96370E-001
  1.40000E-003	  4.98058E-001	  4.48896E-001	  4.64989E-001	  5.63873E-001
  1.50000E-003	  5.25990E-001	  4.79239E-001	  4.32361E-001	  5.00576E-001
  1.60000E-003	  4.76384E-001	  4.54583E-001	  4.37279E-001	  5.12403E-001
  1.80000E-003	  5.37395E-001	  5.05028E-001	  4.87853E-001	  4.74002E-001
  2.00000E-003	  5.06889E-001	  4.84926E-001	  4.79289E-001	  5.20843E-001
  2.20000E-003	  4.73811E-001	  4.32584E-001	  4.95603E-001	  4.92991E-001
  2.40000E-003	  4.53964E-001	  4.21584E-001	  4.89077E-001	  5.12825E-001
  2.60000E-003	  5.13505E-001	  4.50410E-001	  5.25784E-001	  5.45740E-001
  2.80000E-003	  4.99539E-001	  4.93650E-001	  4.88261E-001	  4.91303E-001
  3.00000E-003	  5.14227E-001	  5.05408E-001	  4.93563E-001	  4.86226E-001
  3.20000E-003	  5.05795E-001	  4.59332E-001	  5.16455E-001	  4.81607E-001
  3.60000E-003	  4.90175E-001	  4.73366E-001	  4.92988E-001	  4.85827E-001
  4.00000E-003	  4.84294E-001	  4.58763E-001	  4.73193E-001	  4.88148E-001
  4.40000E-003	  4.76943E-001	  4.80762E-001	  4.69318E-001	  5.11357E-001
  4.80000E-003	  4.81170E-001	  4.65780E-001	  4.73805E-001	  5.34777E-001
  5.20000E-003	  4.98995E-001	  4.46436E-001	  5.00112E-001	  4.84561E-001
  5.60000E-003	  5.14616E-001	  4.89296E-001	  4.99908E-001	  5.17054E-001
  6.00000E-003	  4.90910E-001	  4.58953E-001	  4.75232E-001	  5.24017E-001
  6.40000E-003	  5.11508E-001	  4.59538E-001	  4.94155E-001	  5.06825E-001
  7.20000E-003	  5.03882E-001	  4.66365E-001	  4.94549E-001	  5.17585E-001
  8.00000E-003	  4.91018E-001	  4.71012E-001	  4.84543E-001	  5.06508E-001
  8.80000E-003	  4.77602E-001	  4.84666E-001	  4.90457E-001	  4.89312E-001
  9.60000E-003	  4.88629E-001	  4.83325E-001	  4.66902E-001	  4.98490E-001
  1.04000E-002	  4.94509E-001	  4.66352E-001	  4.78397E-001	  5.04609E-001
  1.12000E-002	  4.92120E-001	  4.78110E-001	  4.98484E-001	  4.87730E-001
  1.20000E-002	  5.00206E-001	  4.58008E-001	  4.77901E-001	  5.01761E-001
  1.28000E-002	  4.87316E-001	  4.44148E-001	  4.74381E-001	  4.79259E-001
  1.44000E-002	  4.77851E-001	  4.63527E-001	  4.58575E-001	  4.87963E-001
  1.60000E-002	  4.92415E-001	  4.57505E-001	  4.55261E-001	  4.98407E-001
  1.76000E-002	  5.00088E-001	  4.54898E-001	  4.59989E-001	  4.73576E-001
  1.92000E-002	  4.98191E-001	  4.44372E-001	  4.53630E-001	  4.89401E-001
  2.08000E-002	  4.83109E-001	  4.49208E-001	  4.73690E-001	  4.69461E-001
  2.24000E-002	  4.95191E-001	  4.64652E-001	  4.58956E-001	  4.78640E-001
  2.40000E-002	  4.75115E-001	  4.37579E-001	  4.81820E-001	  4.68828E-001
  2.56000E-002	  4.76084E-001	  4.53182E-001	  4.65346E-001	  4.75641E-001
  2.88000E-002	  4.78427E-001	  4.44624E-001	  4.51452E-001	  4.73612E-001
  3.20000E-002	  4.58427E-001	  4.35568E-001	  4.51452E-001	  4.71515E-001
  3.52000E-002	  4.69399E-001	  4.46616E-001	  4.54015E-001	  4.70909E-001
  3.84000E-002	  4.60393E-001	  4.30422E-001	  4.56386E-001	  4.56717E-001
  4.16000E-002	  4.70285E-001	  4.33230E-001	  4.45347E-001	  4.55650E-001
  4.48000E-002	  4.62461E-001	  4.30409E-001	  4.47832E-001	  4.56470E-001
  4.80000E-002	  4.63045E-001	  4.22715E-001	  4.45383E-001	  4.53555E-001
  5.12000E-002	  4.56877E-001	  4.23415E-001	  4.36452E-001	  4.47523E-001
  5.76000E-002	  4.43236E-001	  4.19100E-001	  4.34323E-001	  4.44381E-001
  6.40000E-002	  4.42248E-001	  4.11608E-001	  4.19231E-001	  4.34687E-001
  7.04000E-002	  4.38623E-001	  4.00773E-001	  4.18224E-001	  4.38182E-001
  7.68000E-002	  4.37403E-001	  3.97372E-001	  4.14439E-001	  4.37338E-001
  8.32000E-002	  4.27718E-001	  3.98296E-001	  4.07862E-001	  4.24992E-001
  8.96000E-002	  4.19023E-001	  3.96505E-001	  4.04318E-001	  4.23765E-001
  9.60000E-002	  4.13967E-001	  3.93826E-001	  4.00723E-001	  4.18846E-001
  1.02400E-001	  4.10535E-001	  3.87346E-001	  3.90499E-001	  4.10652E-001
  1.15200E-001	  4.01505E-001	  3.73585E-001	  3.74859E-001	  3.99826E-001
  1.28000E-001	  3.91065E-001	  3.63464E-001	  3.74706E-001	  3.84190E-001
  1.40800E-001	  3.80125E-001	  3.56192E-001	  3.63298E-001	  3.83557E-001
  1.53600E-001	  3.63470E-001	  3.47605E-001	  3.51253E-001	  3.70289E-001
  1.66400E-001	  3.60768E-001	  3.33027E-001	  3.36563E-001	  3.60058E-001
  1.79200E-001	  3.49775E-001	  3.25631E-001	  3.37901E-001	  3.53922E-001
  1.92000E-001	  3.37252E-001	  3.22976E-001	  3.21043E-001	  3.38180E-001
  2.04800E-001	  3.32822E-001	  3.14843E-001	  3.15387E-001	  3.30431E-001
  2.30400E-001	  3.10036E-001	  3.01596E-001	  3.00042E-001	  3.19893E-001
  2.56000E-001	  2.93451E-001	  2.80852E-001	  2.86498E-001	  3.01236E-001
  2.81600E-001	  2.81605E-001	  2.69599E-001	  2.75705E-001	  2.87850E-001
  3.07200E-001	  2.65233E-001	  2.52878E-001	  2.54895E-001	  2.71587E-001
  3.32800E-001	  2.48007E-001	  2.36738E-001	  2.43274E-001	  2.57520E-001
  3.58400E-001	  2.31640E-001	  2.25724E-001	  2.34995E-001	  2.46626E-001
  3.84000E-001	  2.16659E-001	  2.12499E-001	  2.17965E-001	  2.35292E-001
  4.09600E-001	  2.03855E-001	  1.98808E-001	  2.05087E-001	  2.21789E-001
  4.60800E-001	  1.79940E-001	  1.78841E-001	  1.82268E-001	  1.96547E-001
  5.12000E-001	  1.59710E-001	  1.58525E-001	  1.58685E-001	  1.79560E-001
  5.63200E-001	  1.42862E-001	  1.39056E-001	  1.39011E-001	  1.60921E-001
  6.14400E-001	  1.25457E-001	  1.27901E-001	  1.19932E-001	  1.44859E-001
  6.65600E-001	  1.10822E-001	  1.14396E-001	  1.03964E-001	  1.27218E-001
  7.16800E-001	  9.78893E-002	  9.98406E-002	  8.98835E-002	  1.13297E-001
  7.68000E-001	  8.51811E-002	  8.67582E-002	  7.34451E-002	  1.02577E-001
  8.19200E-001	  7.81091E-002	  7.68399E-002	  6.21736E-002	  9.15722E-002
  9.21600E-001	  6.32965E-002	  6.11287E-002	  4.61227E-002	  7.34459E-002
  1.02400E+000	  4.73072E-002	  4.60571E-002	  3.16033E-002	  5.47590E-002
  1.12640E+000	  3.98057E-002	  3.08740E-002	  2.26669E-002	  4.45239E-002
  1.22880E+000	  3.31401E-002	  1.88877E-002	  1.78143E-002	  3.55667E-002
  1.33120E+000	  3.15890E-002	  1.26764E-002	  9.59948E-003	  2.87004E-002
  1.43360E+000	  3.09800E-002	  1.04334E-002	  2.49009E-003	  2.32592E-002
  1.53600E+000	  2.71309E-002	  7.18608E-003	  3.07804E-003	  1.52915E-002
  1.63840E+000	  2.15498E-002	  4.66875E-003	  4.87482E-003	  1.38455E-002
  1.84320E+000	  1.49543E-002	  2.34988E-003	  1.05459E-002	  8.53884E-003
  2.04800E+000	  7.89805E-003	  2.92323E-003	  1.22839E-002	  4.52270E-003
  2.25280E+000	  3.41785E-003	  1.00740E-003	  9.93370E-003	  5.64301E-003
  2.45760E+000	  1.32304E-003	 -3.92008E-003	  3.91165E-003	  2.79469E-003
  2.66240E+000	  6.10936E-004	 -1.29760E-002	 -2.00268E-004	  1.88137E-003
  2.86720E+000	 -9.54706E-004	 -1.70373E-002	 -2.58011E-003	 -8.88511E-003
  3.07200E+000	 -6.13539E-003	 -1.66120E-002	 -4.75727E-004	 -1.49300E-002
  3.27680E+000	 -1.53456E-002	 -1.80086E-002	 -2.30398E-003	 -1.07941E-002
  3.68640E+000	 -2.49406E-002	 -1.65610E-002	 -2.20273E-003	 -1.57991E-002
  4.09600E+000	 -2.13168E-002	  1.87289E-003	  2.99084E-003	 -1.56449E-002
  4.50560E+000	 -4.09191E-003	  6.97058E-003	 -8.63593E-004	 -4.66760E-003
  4.91520E+000	  1.21497E-002	  3.48504E-003	 -4.41044E-003	 -3.30322E-004
  5.32480E+000	  2.24661E-002	 -6.49660E-003	 -1.54440E-002	 -9.09333E-003
  5.73440E+000	  2.12443E-002	 -1.16820E-002	 -1.87067E-002	 -1.79460E-002
  6.14400E+000	  1.11042E-002	 -2.31599E-002	 -7.77159E-003	 -2.27798E-002
  6.55360E+000	  1.73685E-002	 -1.95564E-002	  3.53625E-003	 -1.95137E-002
  7.37280E+000	  1.37229E-002	 -6.55130E-003	  8.77930E-003	 -3.09923E-003
  8.19200E+000	  3.89226E-003	 -4.03574E-003	 -2.75425E-003	  8.02799E-003
  9.01120E+000	  4.95802E-003	 -4.62486E-003	 -8.53502E-003	 -9.70952E-004
  9.83040E+000	 -2.51445E-003	  1.40998E-002	 -8.32975E-003	 -1.56487E-003
  1.06496E+001	 -1.14200E-002	  2.14956E-002	 -3.34155E-003	  1.46659E-002
  1.14688E+001	  2.94513E-003	  6.17883E-003	 -2.37703E-003	  2.32987E-002
  1.22880E+001	  3.03305E-003	  8.83860E-004	 -4.78775E-003	  1.62493E-002
  1.31072E+001	  1.95359E-004	 -2.16674E-003	 -7.35192E-004	  4.67891E-003
  1.47456E+001	  1.44253E-002	  5.67029E-003	  8.32997E-003	  2.74989E-003
  1.63840E+001	  1.46077E-002	 -1.02307E-002	 -5.51551E-004	  5.40954E-003
  1.80224E+001	  4.85618E-003	 -1.57648E-002	  1.71452E-003	 -3.50746E-003
  1.96608E+001	 -3.03007E-003	 -6.84661E-003	 -4.19308E-003	 -4.91794E-003
  2.12992E+001	 -1.08515E-002	  8.30064E-003	  1.14641E-002	 -6.81772E-003
  2.29376E+001	  1.41612E-002	  1.67510E-002	  1.89953E-003	  1.52240E-002
  2.45760E+001	  1.69354E-003	 -8.43058E-003	  4.27272E-003	  1.51804E-002
  2.62144E+001	 -5.11044E-003	  6.47828E-003	  8.31764E-003	  1.56071E-003
  2.94912E+001	  6.61387E-003	  4.13646E-003	 -9.86899E-005	 -1.49437E-002
  3.27680E+001	 -1.69024E-002	  4.99369E-003	 -4.83955E-003	 -3.72205E-003
  3.60448E+001	 -5.63376E-004	  1.09669E-002	 -9.43947E-003	 -2.47502E-003
  3.93216E+001	 -1.09448E-002	  1.18987E-003	 -5.10538E-003	 -4.29615E-003
  4.25984E+001	 -9.09281E-004	  5.75043E-003	  1.25488E-002	 -5.27517E-003
  4.58752E+001	 -4.40272E-003	 -1.40052E-002	  2.39085E-003	 -7.32576E-003
  4.91520E+001	 -5.24946E-003	 -3.98562E-004	 -8.96634E-003	 -1.59557E-003
  5.24288E+001	 -5.67818E-003	 -1.82296E-003	 -7.29498E-003	  6.41911E-004
  5.89824E+001	  9.11548E-003	  4.21398E-003	 -5.05864E-003	 -5.32859E-003
  6.55360E+001	 -4.18716E-003	 -5.56661E-003	  5.43320E-004	  4.60903E-003
  7.20896E+001	 -1.46420E-003	  5.10310E-003	  4.19768E-003	  3.44431E-003
  7.86432E+001	  4.50165E-003	 -5.48383E-003	  8.35683E-003	 -2.56697E-003
  8.51968E+001	 -4.54653E-003	  4.78714E-003	  8.81984E-004	  2.20990E-003
  9.17504E+001	 -7.67945E-003	 -3.21339E-003	 -4.94812E-003	  1.18628E-004
  9.83040E+001	  6.10798E-003	 -1.29877E-005	  4.97123E-003	 -3.75897E-003
  1.04858E+002	 -5.47882E-003	 -1.32625E-003	  2.90235E-003	 -4.24440E-003
  1.17965E+002	 -1.02873E-002	 -4.13820E-004	 -4.34738E-003	 -6.04914E-003
  1.31072E+002	 -2.27556E-003	 -4.28433E-003	 -3.93167E-003	  1.16471E-003
  1.44179E+002	 -1.78276E-003	 -2.05927E-003	  9.43850E-003	  6.13636E-003
  1.57286E+002	  1.58896E-003	 -7.28912E-003	 -3.33998E-003	  6.67382E-003
  1.70394E+002	  1.27702E-004	 -8.72124E-004	  1.55593E-003	 -7.85360E-003
  1.83501E+002	 -7.19419E-003	 -7.24612E-003	 -2.41404E-003	 -2.95989E-003
  1.96608E+002	  1.00467E-002	 -1.80568E-003	 -1.18244E-002	  4.34274E-003
  2.09715E+002	  1.71674E-003	 -1.01971E-003	 -4.04057E-003	  5.06424E-003
  2.35930E+002	  2.01536E-003	  1.00709E-003	  3.52600E-003	  1.25771E-003
  2.62144E+002	  1.66872E-003	  4.58343E-003	 -1.77704E-004	 -7.97784E-003
  2.88358E+002	  8.67863E-004	  4.27380E-003	 -2.26520E-004	 -2.49416E-003
  3.14573E+002	 -1.27003E-003	  2.08253E-003	 -7.46427E-004	 -1.15113E-003
  3.40787E+002	  9.01235E-004	  9.41135E-004	 -1.07233E-003	 -1.67672E-003
  3.67002E+002	  3.04040E-003	  8.51241E-004	  3.33301E-003	 -3.32152E-003
  3.93216E+002	 -2.29458E-003	 -3.33772E-003	  3.17776E-003	  1.31338E-003

"Count Rate"
       0.01311	     130.76782	     136.79504	     135.04028	     122.60437
       0.02621	     117.11121	     112.53357	      95.29114	     117.72156
       0.03932	     141.67786	      72.02148	     112.53357	      93.07861
       0.05243	     110.01587	     145.56885	     105.59082	     153.35083
       0.06554	     101.47095	     116.80603	     126.72424	     117.64526
       0.07864	     135.26917	     128.70789	     147.09473	     113.29651
       0.09175	     168.76221	     140.22827	      74.38660	     122.45178
       0.10486	     102.84424	     116.57715	     118.25562	     100.55542
       0.11796	     131.75964	     124.81689	     104.82788	      96.13037
       0.13107	     119.01855	     134.35364	     101.08948	     105.13306
       0.14418	     130.92041	     143.05115	     141.29639	     125.57983
       0.15729	     121.00220	      78.27759	     101.92871	      94.68079
       0.17039	      96.58813	     132.67517	      91.62903	     104.59900
       0.18350	     142.51709	     121.38367	     133.97217	     122.60437
       0.19661	     118.33191	      80.56641	      94.22302	     110.16846
       0.20972	     118.33191	     141.98303	     118.40820	      80.71899
       0.22282	     131.37817	     140.83862	     134.88770	      84.83887
       0.23593	     117.18750	     127.63977	      82.70264	      88.34839
       0.24904	     112.07581	      95.44373	     111.77063	     119.62891
       0.26214	     143.96667	     104.21753	     129.08936	     108.79517
       0.27525	     105.66711	      85.22034	     116.11938	     113.60168
       0.28836	     151.90125	     107.26929	     132.06482	     135.72693
       0.30147	     102.92053	     101.39465	     122.90955	     113.52539
       0.31457	     111.23657	     100.63171	      94.52820	      94.98596
       0.32768	      70.57190	      91.09497	     103.98865	      94.52820
       0.34079	     127.63977	     110.24475	      82.32117	      96.96960
       0.35389	     134.73511	     101.54724	     116.50085	     121.30737
       0.36700	     106.12488	     104.06494	      99.10583	     113.52539
       0.38011	     109.17664	     107.42188	     100.32654	     149.23096
       0.39322	     120.62073	     128.32642	     136.26099	      96.43555
       0.40632	      98.11401	     100.32654	      92.62085	     115.96680
       0.41943	     161.59058	     159.68323	      97.42737	      85.14404
       0.43254	     166.62598	     114.36462	     147.62878	     123.82507
       0.44564	     129.77600	     128.32642	     129.08936	     109.86328
       0.45875	     108.18481	     134.35364	     128.40271	     142.74597
       0.47186	     123.21472	      96.28296	     102.99683	      81.40564
       0.48497	     140.38086	     134.58252	      85.75439	      95.06226
       0.49807	     125.80872	     106.96411	     104.98047	     179.13818
       0.51118	      96.05408	     109.78699	     114.97498	     123.44360
       0.52429	      84.60999	     142.05933	     115.73792	     125.50354
       0.53740	      97.96143	     108.79517	     145.64514	     107.04041
       0.55050	     118.02673	     105.97229	      90.78979	     105.20935
       0.56361	      59.81445	     108.87146	     105.28564	     134.04846
       0.57672	     117.11121	      83.84705	     113.67798	      99.33472
       0.58982	     103.60718	     122.22290	     105.20935	     132.29370
       0.60293	      91.70532	     103.68347	     107.19299	     118.94226
       0.61604	     133.97217	     103.53088	     113.29651	      63.55286
       0.62915	     141.83044	      82.24487	      85.67810	      69.35120
       0.64225	     149.68872	     146.40808	      89.03503	     107.57446
       0.65536	      99.02954	     109.10034	      92.69714	     138.85498
       0.66847	      93.99414	     135.49805	     140.53345	     108.18481
       0.68157	     101.77612	     101.47095	     111.00769	     123.90137
       0.69468	     121.00220	     115.20386	     123.82507	     117.79785
       0.70779	     132.52258	     114.51721	      81.71082	     110.47363
       0.72090	     157.77588	     117.56897	      84.15222	     153.96118
       0.73400	     134.50623	     117.11121	      98.19031	     133.59070
       0.74711	     130.76782	     107.19299	      93.07861	     102.38647
