ALV-7004/USB-FAST
Date :	"3/14/2024"
Time :	"12:31:50 PM"
Samplename : 	""
SampMemo(0) : 	""
SampMemo(1) : 	""
SampMemo(2) : 	""
SampMemo(3) : 	""
SampMemo(4) : 	""
SampMemo(5) : 	""
SampMemo(6) : 	""
SampMemo(7) : 	""
SampMemo(8) : 	""
SampMemo(9) : 	""
Temperature [K] :	     298.16000
Viscosity [cp]  :	       0.89000
Refractive Index:	       1.33200
Wavelength [nm] :	       0.00000
Angle [°]       :	       0.00000
Duration [s]    :	         1
FloatDur [ms]   :	          944
Stop TP [ms]   :	      3197
Runs            :	         1
Mode            :	"A-CH0+1  A-CH2+3 "
MeanCR0 [kHz]   :	     144.42444
MeanCR1 [kHz]   :	     152.98950
MeanCR2 [kHz]   :	     142.31364
MeanCR3 [kHz]   :	     142.05933

"Correlation"
  3.12500E-006	 -1.00000E+000	 -1.00000E+000	 -1.00000E+000	 -1.00000E+000
  6.25000E-006	 -1.00000E+000	 -1.00000E+000	 -1.00000E+000	 -1.00000E+000
  9.37500E-006	 -1.00000E+000	 -1.00000E+000	 -1.00000E+000	 -1.00000E+000
  1.25000E-005	 -1.00000E+000	 -1.00000E+000	 -1.00000E+000	 -1.00000E+000
  1.56250E-005	 -1.00000E+000	 -1.00000E+000	 -1.00000E+000	 -1.00000E+000
  1.87500E-005	 -1.00000E+000	 -1.00000E+000	 -1.00000E+000	 -1.00000E+000
  2.18750E-005	 -9.02461E-001	 -3.62563E-001	 -4.14020E-001	 -9.49593E-001
  2.50000E-005	  5.22623E+000	  5.27296E+000	  6.01501E+000	  9.87107E+000
  2.81250E-005	  1.61729E+000	  1.36141E+000	  1.24346E+000	  4.27591E+000
  3.12500E-005	  1.19462E+000	  8.54361E-001	  5.90516E-001	  2.84772E+000
  3.43750E-005	  9.18263E-001	  1.04269E+000	  7.07712E-001	  1.73877E+000
  3.75000E-005	  5.76877E-001	  5.50130E-001	  4.56578E-001	  9.32261E-001
  4.06250E-005	  7.55698E-001	  6.22566E-001	  5.40289E-001	  1.48674E+000
  4.37500E-005	  6.90673E-001	  6.66027E-001	  5.23547E-001	  1.77237E+000
  4.68750E-005	  8.69494E-001	  4.63207E-001	  3.39382E-001	  1.30191E+000
  5.00000E-005	  6.98801E-001	  5.13912E-001	  6.49114E-001	  1.11709E+000
  5.62500E-005	  7.23185E-001	  5.79104E-001	  5.98887E-001	  9.65866E-001
  6.25000E-005	  5.76877E-001	  5.42886E-001	  6.40743E-001	  7.47436E-001
  6.87500E-005	  5.93134E-001	  4.99425E-001	  3.81238E-001	  1.14229E+000
  7.50000E-005	  6.09390E-001	  4.12501E-001	  5.57032E-001	  5.37408E-001
  8.12500E-005	  6.66288E-001	  5.79104E-001	  7.07712E-001	  6.29820E-001
  8.75000E-005	  5.36236E-001	  5.57373E-001	  5.23547E-001	  7.05431E-001
  9.37500E-005	  6.50031E-001	  4.77694E-001	  7.07712E-001	  6.29820E-001
  1.00000E-004	  5.85005E-001	  5.17533E-001	  5.57031E-001	  6.13018E-001
  1.12500E-004	  6.33775E-001	  6.87758E-001	  5.73774E-001	  6.50823E-001
  1.25000E-004	  6.50031E-001	  5.10290E-001	  3.43567E-001	  6.04617E-001
  1.37500E-004	  5.03723E-001	  4.88559E-001	  5.02619E-001	  4.70199E-001
  1.50000E-004	  4.87466E-001	  5.39264E-001	  4.02165E-001	  4.87001E-001
  1.62500E-004	  4.83402E-001	  4.88559E-001	  5.10990E-001	  5.79413E-001
  1.75000E-004	  6.70352E-001	  5.03046E-001	  4.56578E-001	  4.95402E-001
  1.87500E-004	  4.67146E-001	  3.21956E-001	  4.31464E-001	  6.67625E-001
  2.00000E-004	  6.15486E-001	  4.34232E-001	  4.94248E-001	  6.04616E-001
  2.25000E-004	  5.34203E-001	  5.19344E-001	  5.23547E-001	  5.54210E-001
  2.50000E-004	  5.22011E-001	  4.86748E-001	  4.31464E-001	  5.03803E-001
  2.75000E-004	  5.60620E-001	  4.57774E-001	  4.96340E-001	  5.18505E-001
  3.00000E-004	  4.71210E-001	  5.19344E-001	  4.18907E-001	  4.63897E-001
  3.25000E-004	  4.67146E-001	  4.84937E-001	  4.83784E-001	  4.07190E-001
  3.50000E-004	  5.78909E-001	  3.72661E-001	  4.71227E-001	  6.38221E-001
  3.75000E-004	  5.19979E-001	  5.51940E-001	  4.67041E-001	  5.16405E-001
  4.00000E-004	  5.82972E-001	  4.88558E-001	  4.68087E-001	  4.65997E-001
  4.50000E-004	  5.57571E-001	  4.46002E-001	  5.36103E-001	  4.89100E-001
  5.00000E-004	  5.17946E-001	  5.08478E-001	  5.92608E-001	  5.65761E-001
  5.50000E-004	  5.31155E-001	  4.87653E-001	  4.58670E-001	  5.38457E-001
  6.00000E-004	  4.99658E-001	  4.58678E-001	  4.29371E-001	  4.47095E-001
  6.50000E-004	  4.93562E-001	  4.17028E-001	  4.47159E-001	  4.85950E-001
  7.00000E-004	  4.89498E-001	  4.98518E-001	  4.61809E-001	  5.36357E-001
  7.50000E-004	  4.88482E-001	  4.26082E-001	  4.93201E-001	  4.52345E-001
  8.00000E-004	  5.46902E-001	  4.64563E-001	  4.83782E-001	  4.80173E-001
  9.00000E-004	  5.29121E-001	  4.86293E-001	  4.54483E-001	  4.38692E-001
  1.00000E-003	  4.86448E-001	  4.63204E-001	  4.93199E-001	  4.79648E-001
  1.10000E-003	  5.60110E-001	  4.92189E-001	  4.89014E-001	  5.11677E-001
  1.20000E-003	  5.16929E-001	  4.73174E-001	  5.05756E-001	  5.13777E-001
  1.30000E-003	  5.06261E-001	  4.80871E-001	  4.85351E-001	  4.83848E-001
  1.40000E-003	  4.87464E-001	  4.72722E-001	  5.00524E-001	  5.09052E-001
  1.50000E-003	  5.11849E-001	  5.17089E-001	  4.61808E-001	  4.54444E-001
  1.60000E-003	  5.13889E-001	  4.70456E-001	  4.62067E-001	  4.68094E-001
  1.80000E-003	  4.66136E-001	  4.64344E-001	  4.41400E-001	  5.09837E-001
  2.00000E-003	  4.88743E-001	  4.76115E-001	  4.50295E-001	  4.75182E-001
  2.20000E-003	  4.76550E-001	  4.89697E-001	  4.73054E-001	  4.90409E-001
  2.40000E-003	  5.04237E-001	  4.77247E-001	  4.75147E-001	  4.56805E-001
  2.60000E-003	  5.19224E-001	  5.13465E-001	  4.59189E-001	  4.85946E-001
  2.80000E-003	  4.80106E-001	  4.68871E-001	  4.52911E-001	  4.87784E-001
  3.00000E-003	  4.90267E-001	  4.78378E-001	  4.58927E-001	  4.42890E-001
  3.20000E-003	  4.95375E-001	  4.69782E-001	  4.72395E-001	  4.57981E-001
  3.60000E-003	  4.88135E-001	  4.77365E-001	  4.62062E-001	  4.51155E-001
  4.00000E-003	  4.72641E-001	  4.81337E-001	  4.59707E-001	  4.88304E-001
  4.40000E-003	  5.16712E-001	  4.75348E-001	  4.72002E-001	  4.62969E-001
  4.80000E-003	  5.01206E-001	  4.75461E-001	  4.57745E-001	  4.67301E-001
  5.20000E-003	  4.88887E-001	  4.89609E-001	  4.57876E-001	  4.64676E-001
  5.60000E-003	  4.91427E-001	  4.58144E-001	  4.79065E-001	  4.72946E-001
  6.00000E-003	  4.68820E-001	  4.49882E-001	  4.85998E-001	  4.91454E-001
  6.40000E-003	  4.78093E-001	  4.48384E-001	  4.54803E-001	  4.84236E-001
  7.20000E-003	  4.79491E-001	  4.56647E-001	  4.56046E-001	  4.59229E-001
  8.00000E-003	  4.86772E-001	  4.50874E-001	  4.60297E-001	  4.54700E-001
  8.80000E-003	  4.81310E-001	  4.71304E-001	  4.56645E-001	  4.48006E-001
  9.60000E-003	  4.56925E-001	  4.57316E-001	  4.65474E-001	  4.52928E-001
  1.04000E-002	  4.69372E-001	  4.62635E-001	  4.49909E-001	  4.69927E-001
  1.12000E-002	  4.70504E-001	  4.67672E-001	  4.62466E-001	  4.60279E-001
  1.20000E-002	  4.54882E-001	  4.44819E-001	  4.57049E-001	  4.45446E-001
  1.28000E-002	  4.70284E-001	  4.55366E-001	  4.38215E-001	  4.50754E-001
  1.44000E-002	  4.57710E-001	  4.41207E-001	  4.53813E-001	  4.44026E-001
  1.60000E-002	  4.62812E-001	  4.46394E-001	  4.34094E-001	  4.33645E-001
  1.76000E-002	  4.57254E-001	  4.32274E-001	  4.33866E-001	  4.38141E-001
  1.92000E-002	  4.46522E-001	  4.51685E-001	  4.43218E-001	  4.29543E-001
  2.08000E-002	  4.46734E-001	  4.36235E-001	  4.32459E-001	  4.25474E-001
  2.24000E-002	  4.57911E-001	  4.31330E-001	  4.25887E-001	  4.21448E-001
  2.40000E-002	  4.53021E-001	  4.08241E-001	  4.07803E-001	  4.24139E-001
  2.56000E-002	  4.40773E-001	  4.17410E-001	  4.10460E-001	  4.17460E-001
  2.88000E-002	  4.35168E-001	  4.09511E-001	  4.09894E-001	  4.02053E-001
  3.20000E-002	  4.24800E-001	  4.09653E-001	  4.03768E-001	  4.01430E-001
  3.52000E-002	  4.15184E-001	  3.98726E-001	  3.90187E-001	  3.98164E-001
  3.84000E-002	  4.05372E-001	  3.99179E-001	  3.81538E-001	  3.83742E-001
  4.16000E-002	  4.00154E-001	  3.82921E-001	  3.67247E-001	  3.77890E-001
  4.48000E-002	  3.88892E-001	  3.80045E-001	  3.68000E-001	  3.67291E-001
  4.80000E-002	  3.83928E-001	  3.73536E-001	  3.56325E-001	  3.55707E-001
  5.12000E-002	  3.72521E-001	  3.66686E-001	  3.49109E-001	  3.55655E-001
  5.76000E-002	  3.65441E-001	  3.47403E-001	  3.30851E-001	  3.45747E-001
  6.40000E-002	  3.45597E-001	  3.33356E-001	  3.20561E-001	  3.26105E-001
  7.04000E-002	  3.40602E-001	  3.26043E-001	  3.11429E-001	  3.16737E-001
  7.68000E-002	  3.22742E-001	  3.16295E-001	  2.91850E-001	  3.06203E-001
  8.32000E-002	  3.12976E-001	  3.04544E-001	  2.86771E-001	  2.96621E-001
  8.96000E-002	  3.06902E-001	  2.92852E-001	  2.74261E-001	  2.83143E-001
  9.60000E-002	  2.91095E-001	  2.84265E-001	  2.55122E-001	  2.67185E-001
  1.02400E-001	  2.83523E-001	  2.77962E-001	  2.51695E-001	  2.63088E-001
  1.15200E-001	  2.61754E-001	  2.61595E-001	  2.33089E-001	  2.40130E-001
  1.28000E-001	  2.41716E-001	  2.46031E-001	  2.20381E-001	  2.26382E-001
  1.40800E-001	  2.36395E-001	  2.27189E-001	  1.99776E-001	  2.09122E-001
  1.53600E-001	  2.18295E-001	  2.14944E-001	  1.88595E-001	  1.97630E-001
  1.66400E-001	  2.04095E-001	  2.07020E-001	  1.74573E-001	  1.79570E-001
  1.79200E-001	  1.96357E-001	  1.94682E-001	  1.66128E-001	  1.65662E-001
  1.92000E-001	  1.88918E-001	  1.83968E-001	  1.56814E-001	  1.59116E-001
  2.04800E-001	  1.76634E-001	  1.74051E-001	  1.47676E-001	  1.49093E-001
  2.30400E-001	  1.56847E-001	  1.58035E-001	  1.29269E-001	  1.31671E-001
  2.56000E-001	  1.40671E-001	  1.44919E-001	  1.12936E-001	  1.11152E-001
  2.81600E-001	  1.21928E-001	  1.32271E-001	  1.02019E-001	  1.04662E-001
  3.07200E-001	  1.07729E-001	  1.18427E-001	  8.93090E-002	  9.32334E-002
  3.32800E-001	  9.86574E-002	  1.10216E-001	  8.40884E-002	  8.09262E-002
  3.58400E-001	  9.05993E-002	  1.02908E-001	  7.14238E-002	  7.03564E-002
  3.84000E-001	  9.00194E-002	  9.29452E-002	  6.28007E-002	  6.19236E-002
  4.09600E-001	  8.28649E-002	  8.65969E-002	  5.93276E-002	  5.34077E-002
  4.60800E-001	  6.90222E-002	  7.03823E-002	  5.06110E-002	  4.05320E-002
  5.12000E-001	  5.67569E-002	  5.69618E-002	  4.61727E-002	  3.02750E-002
  5.63200E-001	  4.58729E-002	  4.83979E-002	  4.22394E-002	  1.88483E-002
  6.14400E-001	  4.03786E-002	  4.35096E-002	  3.37810E-002	  1.42702E-002
  6.65600E-001	  3.79808E-002	  4.12328E-002	  2.63334E-002	  1.36538E-002
  7.16800E-001	  3.44178E-002	  3.64677E-002	  2.27685E-002	  1.40725E-002
  7.68000E-001	  3.24309E-002	  3.27503E-002	  2.07700E-002	  1.38955E-002
  8.19200E-001	  3.12215E-002	  2.61829E-002	  1.86625E-002	  1.34924E-002
  9.21600E-001	  2.65733E-002	  1.77826E-002	  1.42584E-002	  1.48839E-002
  1.02400E+000	  1.99437E-002	  8.94445E-003	  1.21302E-002	  8.55637E-003
  1.12640E+000	  1.84229E-002	  5.37475E-003	  1.01992E-002	  4.37427E-003
  1.22880E+000	  1.65563E-002	  1.83554E-003	  5.41864E-003	  1.96188E-003
  1.33120E+000	  1.58382E-002	 -7.13676E-004	  9.70878E-004	  6.15843E-003
  1.43360E+000	  1.82456E-002	 -1.98456E-003	  1.53172E-003	  1.03404E-002
  1.53600E+000	  1.62378E-002	 -1.07220E-003	 -4.88685E-003	  1.31116E-002
  1.63840E+000	  1.74029E-002	 -1.90324E-003	 -5.38193E-003	  1.34284E-002
  1.84320E+000	  1.79423E-002	  2.76866E-003	 -1.02889E-003	  8.49361E-003
  2.04800E+000	  1.69488E-002	  3.75248E-003	  1.75119E-003	 -4.38146E-003
  2.25280E+000	  1.79178E-002	  8.66084E-004	 -5.68701E-003	  2.75957E-004
  2.45760E+000	  9.95141E-003	  2.06758E-003	 -8.07596E-003	 -7.32680E-004
  2.66240E+000	  1.72903E-003	 -1.33022E-003	 -1.99514E-003	 -3.91022E-003
  2.86720E+000	 -1.79016E-003	 -4.40107E-003	  8.19101E-004	  2.53114E-003
  3.07200E+000	 -5.86481E-004	  5.27040E-003	  7.94855E-004	  2.19529E-003
  3.27680E+000	  1.10438E-003	  7.28073E-003	  7.17280E-004	  6.49221E-003
  3.68640E+000	  6.44922E-003	 -1.36461E-003	  5.67665E-003	 -9.12600E-004
  4.09600E+000	  8.36988E-003	 -3.96946E-003	  1.44441E-003	 -5.23215E-003
  4.50560E+000	  7.76200E-003	  1.31671E-003	 -1.98183E-003	  6.63960E-003
  4.91520E+000	  2.05463E-003	 -4.64456E-003	 -6.54254E-003	  5.82098E-004
  5.32480E+000	  1.51381E-003	  4.62225E-003	 -1.69266E-003	 -6.29535E-004
  5.73440E+000	 -8.35617E-003	  3.57786E-003	 -1.39222E-003	  1.34000E-004
  6.14400E+000	 -1.11223E-002	 -1.45271E-003	  6.77863E-003	 -1.05815E-002
  6.55360E+000	 -7.26595E-003	 -3.40319E-003	  1.52627E-003	 -6.53455E-003
  7.37280E+000	 -5.54674E-003	 -9.83523E-005	 -5.75549E-003	 -3.34480E-003
  8.19200E+000	 -5.77391E-004	  5.93161E-004	  2.91054E-003	 -6.00786E-003
  9.01120E+000	 -2.35191E-003	 -1.32296E-002	 -2.48438E-003	 -4.87208E-004
  9.83040E+000	 -7.32366E-003	 -1.64037E-002	  4.91553E-003	 -3.78109E-005
  1.06496E+001	 -1.98322E-003	 -8.67500E-003	  5.28888E-004	 -3.94450E-003
  1.14688E+001	 -6.87695E-003	 -6.37453E-003	  1.42428E-003	  6.57474E-003
  1.22880E+001	 -1.46934E-004	 -1.58446E-003	 -9.18592E-004	 -5.73521E-003
  1.31072E+001	 -2.58874E-003	 -8.00650E-003	 -7.62219E-004	  1.75145E-003
  1.47456E+001	  4.01783E-003	 -1.78972E-003	  1.49717E-003	  3.68621E-003
  1.63840E+001	 -3.71999E-003	  2.67738E-004	  5.84962E-003	 -5.32747E-004
  1.80224E+001	 -6.43565E-003	  7.60693E-003	 -1.35080E-003	 -2.40698E-003
  1.96608E+001	  1.54633E-003	  1.66051E-003	 -1.28809E-003	  3.31062E-004
  2.12992E+001	  5.96376E-004	 -3.65751E-006	 -1.19919E-003	  3.41450E-004
  2.29376E+001	 -4.48056E-003	  1.31819E-003	  4.43361E-004	 -7.68468E-003
  2.45760E+001	 -3.36687E-003	  2.07930E-003	 -7.71584E-003	 -6.46891E-003
  2.62144E+001	 -3.71900E-003	 -4.15378E-003	 -7.49901E-003	 -3.59054E-003
  2.94912E+001	 -6.73885E-003	 -6.25933E-003	 -2.00430E-003	  2.41269E-003
  3.27680E+001	 -1.92458E-003	 -2.37282E-003	 -2.09106E-003	  3.94968E-004
  3.60448E+001	  3.86954E-003	 -1.21104E-003	 -3.36607E-003	  2.92826E-003
  3.93216E+001	 -7.03456E-003	  9.84988E-003	 -1.01349E-003	 -5.39493E-003
  4.25984E+001	 -2.68329E-003	  2.88286E-003	 -3.17427E-004	 -5.59649E-003
  4.58752E+001	  2.46194E-003	  9.21865E-003	 -4.15766E-003	  1.05070E-004
  4.91520E+001	 -6.82378E-003	 -4.56830E-003	 -4.65879E-003	 -2.13481E-003
  5.24288E+001	 -5.72027E-003	 -2.98251E-003	 -3.10102E-003	 -3.69504E-003
  5.89824E+001	 -1.10994E-003	  5.63083E-004	  5.00758E-004	  4.18722E-003
  6.55360E+001	  6.68078E-003	  2.82773E-003	  6.83812E-004	  1.40538E-003
  7.20896E+001	  1.25985E-003	 -2.96945E-003	  2.87020E-003	  1.45719E-003
  7.86432E+001	  2.81082E-003	 -2.25778E-003	  1.50654E-003	 -2.07076E-003
  8.51968E+001	  6.09113E-003	  3.62896E-003	  1.40188E-003	  2.67517E-003
  9.17504E+001	  1.83833E-004	  1.57720E-003	 -1.84563E-003	  2.12294E-003
  9.83040E+001	  2.14714E-003	  5.51286E-004	  1.40046E-003	  2.11935E-003
  1.04858E+002	 -2.36618E-003	 -1.76164E-003	 -5.42874E-005	 -4.21556E-003
  1.17965E+002	 -4.22936E-003	  3.61607E-003	 -1.87345E-005	 -1.22246E-004
  1.31072E+002	  1.06369E-003	 -3.81444E-003	 -1.21165E-003	  1.59648E-003
  1.44179E+002	 -1.25536E-003	 -3.09930E-003	 -1.14799E-003	 -1.14606E-003
  1.57286E+002	  8.26995E-004	  3.89143E-003	  3.72509E-003	  3.80253E-003
  1.70394E+002	 -8.31280E-004	 -2.72274E-003	 -5.66828E-004	 -1.05757E-003
  1.83501E+002	 -1.66345E-003	  1.37020E-003	 -3.65020E-003	  2.20663E-003
  1.96608E+002	 -1.36106E-003	 -3.35877E-003	 -1.15848E-003	 -1.25613E-003
  2.09715E+002	 -1.48683E-003	 -8.39379E-004	 -5.96272E-004	  3.01066E-004
  2.35930E+002	  1.39668E-003	 -6.86286E-004	 -3.38360E-005	 -4.06116E-004
  2.62144E+002	  3.22089E-003	 -3.29248E-004	 -2.90106E-003	 -2.02189E-003
  2.88358E+002	 -1.97506E-003	 -6.56430E-004	 -1.39743E-003	 -1.81433E-003
  3.14573E+002	  2.09059E-003	 -1.95594E-003	  4.13826E-003	  3.76345E-004
  3.40787E+002	 -1.79953E-003	  1.57848E-004	 -6.31348E-004	  1.06148E-003
  3.67002E+002	  2.88436E-004	  6.70794E-004	 -2.13682E-003	  1.02358E-003
  3.93216E+002	  3.56276E-003	 -1.67949E-003	  1.41895E-003	  3.12649E-003

"Count Rate"
       0.01311	     130.46265	     162.88757	     149.45984	     131.60706
       0.02621	     130.69153	     158.61511	     130.84412	     100.86060
       0.03932	     144.95850	     130.61523	     115.66162	     149.23096
       0.05243	     126.49536	     147.93396	     154.95300	     130.53894
       0.06554	     196.68579	     158.30994	     132.21741	     144.80591
       0.07864	     112.15210	     127.56348	     133.51440	     169.67773
       0.09175	     150.07019	     132.21741	     152.20642	     144.34814
       0.10486	     151.44348	     179.97742	     138.70239	     145.56885
       0.11796	     125.80872	     106.58264	     142.89856	     111.84692
       0.13107	     197.83020	     133.59070	     179.21448	     114.97498
       0.14418	     130.38635	     171.05103	     148.16284	     159.75952
       0.15729	     110.47363	     157.69958	     117.11121	     145.33997
       0.17039	     140.99121	     150.60425	     129.08936	     131.98853
       0.18350	     123.67249	     113.06763	     151.74866	     114.21204
       0.19661	     168.91479	     154.34265	     145.64514	     158.61511
       0.20972	     159.30176	     129.62341	     160.82764	     124.43542
       0.22282	     137.86316	     176.01013	     144.34814	     146.40808
       0.23593	     133.13293	     148.39172	     130.61523	     146.17920
       0.24904	     128.25012	     163.72681	     152.89307	     130.53894
       0.26214	     172.57690	     152.96936	     140.07568	     145.33997
       0.27525	     128.55530	     148.92578	     126.95313	     167.23633
       0.28836	     158.38623	     144.34814	     154.34265	     156.02112
       0.30147	     108.41370	     116.72974	     102.38647	     119.01855
       0.31457	     109.25293	     166.24451	     128.02124	     131.83594
       0.32768	     128.25012	     168.83850	     138.93127	     116.42456
       0.34079	     168.83850	     117.41638	     141.22009	     132.06482
       0.35389	     117.26379	     183.10547	     180.43518	     122.14661
       0.36700	     136.26099	     169.06738	     114.66980	     145.41626
       0.38011	     153.19824	     147.24731	     133.66699	     130.53894
       0.39322	     127.10571	     156.32629	     133.28552	     141.60156
       0.40632	     123.97766	     172.19543	     153.73230	     160.90393
       0.41943	     145.18738	     143.50891	     150.52795	     114.59351
       0.43254	     160.36987	     154.87671	     155.02930	     144.34814
       0.44564	     129.85229	     150.68054	     146.40808	     167.38892
       0.45875	     128.70789	     128.47900	     111.38916	     117.87415
       0.47186	     188.36975	     155.10559	     146.86584	     161.59058
       0.48497	     155.63965	     175.17090	     122.83325	     107.72705
       0.49807	     151.44348	     119.85779	     135.42175	     140.30457
       0.51118	     133.28552	     167.00745	     168.15186	     113.14392
       0.52429	     149.30725	     182.49512	     130.61523	     126.03760
       0.53740	     131.75964	     162.73499	     127.71606	     153.04565
       0.55050	     110.09216	     145.79773	     162.50610	     144.11926
       0.56361	     143.73779	     181.88477	     181.57959	     149.91760
       0.57672	     142.36450	     169.14368	     171.66138	     102.61536
       0.58982	     152.74048	     180.51147	     131.98853	     127.18201
       0.60293	     171.73767	     134.65881	     126.34277	     158.08105
       0.61604	     119.55261	     151.74866	     118.63708	     149.45984
       0.62915	     103.53088	     196.60950	     139.16016	     130.31006
       0.64225	     136.87134	     128.70789	     159.53064	     121.68884
       0.65536	     151.82495	     141.29639	     122.98584	     150.52795
       0.66847	     150.14648	     141.83044	     137.40540	     122.90955
       0.68157	     153.50342	     138.16833	     167.77039	     161.59058
       0.69468	     149.45984	     136.41357	     117.11121	     147.01843
       0.70779	     133.43811	     153.04565	     121.76514	     135.87952
       0.72090	     139.08386	     144.34814	     113.75427	     146.48438
       0.73400	     129.69971	     125.42725	     144.57703	     108.10852
       0.74711	     160.98022	     183.94470	     155.18188	     162.50610
