ALV-7004/USB-FAST
Date :	"3/14/2024"
Time :	"12:37:50 PM"
Samplename : 	""
SampMemo(0) : 	""
SampMemo(1) : 	""
SampMemo(2) : 	""
SampMemo(3) : 	""
SampMemo(4) : 	""
SampMemo(5) : 	""
SampMemo(6) : 	""
SampMemo(7) : 	""
SampMemo(8) : 	""
SampMemo(9) : 	""
Temperature [K] :	     298.16000
Viscosity [cp]  :	       0.89000
Refractive Index:	       1.33200
Wavelength [nm] :	       0.00000
Angle [°]       :	       0.00000
Duration [s]    :	         1
FloatDur [ms]   :	          944
Stop TP [ms]   :	      4089
Runs            :	         1
Mode            :	"A-CH0+1  A-CH2+3 "
MeanCR0 [kHz]   :	     141.59520
MeanCR1 [kHz]   :	     142.64955
MeanCR2 [kHz]   :	     138.64730
MeanCR3 [kHz]   :	     140.59067

"Correlation"
  3.12500E-006	 -1.00000E+000	 -1.00000E+000	 -1.00000E+000	 -1.00000E+000
  6.25000E-006	 -1.00000E+000	 -1.00000E+000	 -1.00000E+000	 -1.00000E+000
  9.37500E-006	 -1.00000E+000	 -1.00000E+000	 -1.00000E+000	 -1.00000E+000
  1.25000E-005	 -1.00000E+000	 -1.00000E+000	 -1.00000E+000	 -1.00000E+000
  1.56250E-005	 -1.00000E+000	 -1.00000E+000	 -1.00000E+000	 -1.00000E+000
  1.87500E-005	 -1.00000E+000	 -1.00000E+000	 -1.00000E+000	 -1.00000E+000
  2.18750E-005	 -9.83087E-001	 -5.83412E-001	 -4.35542E-001	 -9.65690E-001
  2.50000E-005	  5.07162E+000	  5.73206E+000	  5.82641E+000	  9.99645E+000
  2.81250E-005	  1.60454E+000	  1.04961E+000	  1.55770E+000	  3.73482E+000
  3.12500E-005	  8.77299E-001	  6.99679E-001	  8.87405E-001	  2.32810E+000
  3.43750E-005	  4.20659E-001	  8.66314E-001	  8.52127E-001	  1.93353E+000
  3.75000E-005	  7.25085E-001	  2.83091E-001	  7.99209E-001	  1.71051E+000
  4.06250E-005	  5.55959E-001	  1.21625E+000	  3.75866E-001	  1.67620E+000
  4.37500E-005	  7.41998E-001	  2.33101E-001	  6.58095E-001	  1.67620E+000
  4.68750E-005	  2.00795E-001	  3.99736E-001	  5.87537E-001	  1.60758E+000
  5.00000E-005	  5.39047E-001	  4.74721E-001	  6.31635E-001	  1.08435E+000
  5.62500E-005	  4.37571E-001	  9.41300E-001	  5.87537E-001	  1.08435E+000
  6.25000E-005	  5.81328E-001	  4.24731E-001	  7.37471E-001	  6.55472E-001
  6.87500E-005	  3.27639E-001	  4.33063E-001	  4.11144E-001	  4.66765E-001
  7.50000E-005	  5.81328E-001	  6.83015E-001	  6.49275E-001	  8.35601E-001
  8.12500E-005	  4.88309E-001	  4.66390E-001	  6.75734E-001	  5.95429E-001
  8.75000E-005	  5.05222E-001	  4.74721E-001	  6.31635E-001	  4.49610E-001
  9.37500E-005	  5.22134E-001	  6.24693E-001	  6.22816E-001	  5.35386E-001
  1.00000E-004	  7.37770E-001	  4.91385E-001	  5.96357E-001	  7.24092E-001
  1.12500E-004	  5.39047E-001	  4.87219E-001	  6.22816E-001	  5.86851E-001
  1.25000E-004	  5.05221E-001	  5.12214E-001	  5.16980E-001	  4.75343E-001
  1.37500E-004	  4.71396E-001	  4.49726E-001	  4.81701E-001	  5.56830E-001
  1.50000E-004	  4.62940E-001	  4.74721E-001	  5.34619E-001	  4.28166E-001
  1.62500E-004	  4.67168E-001	  4.87219E-001	  7.41881E-001	  5.31097E-001
  1.75000E-004	  5.00993E-001	  5.78868E-001	  4.72882E-001	  5.56830E-001
  1.87500E-004	  3.95289E-001	  6.16361E-001	  6.97783E-001	  6.42605E-001
  2.00000E-004	  5.83442E-001	  4.99716E-001	  6.05176E-001	  5.33241E-001
  2.25000E-004	  4.31228E-001	  5.08048E-001	  5.69897E-001	  5.28952E-001
  2.50000E-004	  4.69282E-001	  5.43458E-001	  5.80922E-001	  5.24664E-001
  2.75000E-004	  5.22134E-001	  5.58039E-001	  4.75086E-001	  5.01075E-001
  3.00000E-004	  4.41799E-001	  4.53892E-001	  4.68471E-001	  4.45321E-001
  3.25000E-004	  4.03745E-001	  4.16399E-001	  4.92726E-001	  3.98144E-001
  3.50000E-004	  5.26362E-001	  4.60140E-001	  4.42013E-001	  4.45321E-001
  3.75000E-004	  4.69282E-001	  4.91385E-001	  4.77291E-001	  3.96000E-001
  4.00000E-004	  4.04802E-001	  4.41393E-001	  4.71778E-001	  3.88494E-001
  4.50000E-004	  4.62939E-001	  5.02840E-001	  4.39807E-001	  4.71053E-001
  5.00000E-004	  5.00992E-001	  4.54932E-001	  3.93504E-001	  4.36743E-001
  5.50000E-004	  4.76680E-001	  5.11172E-001	  5.15876E-001	  5.13941E-001
  6.00000E-004	  4.54483E-001	  5.32001E-001	  4.56344E-001	  4.59259E-001
  6.50000E-004	  5.29532E-001	  4.82011E-001	  4.90520E-001	  4.66764E-001
  7.00000E-004	  4.94650E-001	  5.08047E-001	  5.20286E-001	  5.39674E-001
  7.50000E-004	  5.29532E-001	  4.87218E-001	  5.19184E-001	  4.94641E-001
  8.00000E-004	  5.37987E-001	  5.04922E-001	  4.78403E-001	  4.32989E-001
  9.00000E-004	  4.31227E-001	  4.63784E-001	  4.98247E-001	  4.51216E-001
  1.00000E-003	  4.82493E-001	  4.27853E-001	  4.91081E-001	  5.25734E-001
  1.10000E-003	  4.87250E-001	  4.79937E-001	  4.83904E-001	  4.84454E-001
  1.20000E-003	  5.27945E-001	  4.69002E-001	  5.43437E-001	  4.87671E-001
  1.30000E-003	  4.35983E-001	  4.93477E-001	  5.68793E-001	  4.07256E-001
  1.40000E-003	  5.57542E-001	  4.66398E-001	  5.30758E-001	  4.34597E-001
  1.50000E-003	  5.16318E-001	  5.05974E-001	  4.52484E-001	  4.89279E-001
  1.60000E-003	  4.98357E-001	  4.93214E-001	  4.91079E-001	  4.60874E-001
  1.80000E-003	  4.50790E-001	  4.61720E-001	  4.99083E-001	  4.38637E-001
  2.00000E-003	  4.80652E-001	  4.81769E-001	  5.02115E-001	  4.74824E-001
  2.20000E-003	  4.74045E-001	  4.85934E-001	  4.88058E-001	  4.34080E-001
  2.40000E-003	  4.63210E-001	  4.52357E-001	  5.04595E-001	  5.07259E-001
  2.60000E-003	  4.84351E-001	  4.74749E-001	  4.55536E-001	  4.72144E-001
  2.80000E-003	  4.57925E-001	  4.58096E-001	  5.10372E-001	  4.24162E-001
  3.00000E-003	  4.94922E-001	  5.02100E-001	  4.78676E-001	  4.41050E-001
  3.20000E-003	  4.66520E-001	  4.76057E-001	  4.92463E-001	  4.46438E-001
  3.60000E-003	  4.68898E-001	  4.64471E-001	  4.71103E-001	  4.67749E-001
  4.00000E-003	  4.62820E-001	  4.86472E-001	  4.83644E-001	  4.56614E-001
  4.40000E-003	  4.27927E-001	  4.54316E-001	  4.89156E-001	  4.49108E-001
  4.80000E-003	  4.76176E-001	  4.59133E-001	  4.67382E-001	  4.37850E-001
  5.20000E-003	  4.62699E-001	  4.75027E-001	  4.78682E-001	  4.64655E-001
  5.60000E-003	  4.59396E-001	  4.58883E-001	  4.76753E-001	  4.34499E-001
  6.00000E-003	  4.66663E-001	  4.77891E-001	  4.89833E-001	  4.32757E-001
  6.40000E-003	  4.60486E-001	  4.73389E-001	  4.64765E-001	  4.39291E-001
  7.20000E-003	  4.75946E-001	  4.60501E-001	  4.67246E-001	  4.60256E-001
  8.00000E-003	  4.64054E-001	  4.44423E-001	  4.79028E-001	  4.65472E-001
  8.80000E-003	  4.56655E-001	  4.55944E-001	  4.66901E-001	  4.62657E-001
  9.60000E-003	  4.45291E-001	  4.54903E-001	  4.88675E-001	  4.53141E-001
  1.04000E-002	  4.61477E-001	  4.64146E-001	  4.67177E-001	  4.40598E-001
  1.12000E-002	  4.53538E-001	  4.75993E-001	  4.52224E-001	  4.32691E-001
  1.20000E-002	  4.60806E-001	  4.58027E-001	  4.83461E-001	  4.12654E-001
  1.28000E-002	  4.50754E-001	  4.48678E-001	  4.73438E-001	  4.21768E-001
  1.44000E-002	  4.53518E-001	  4.46790E-001	  4.62723E-001	  4.35372E-001
  1.60000E-002	  4.43564E-001	  4.50858E-001	  4.73575E-001	  4.21423E-001
  1.76000E-002	  4.37409E-001	  4.30061E-001	  4.64848E-001	  4.31776E-001
  1.92000E-002	  4.30604E-001	  4.46237E-001	  4.59852E-001	  4.17603E-001
  2.08000E-002	  4.30846E-001	  4.43275E-001	  4.33496E-001	  4.09037E-001
  2.24000E-002	  4.29689E-001	  4.26296E-001	  4.59002E-001	  4.09138E-001
  2.40000E-002	  4.26243E-001	  4.31840E-001	  4.54454E-001	  4.14689E-001
  2.56000E-002	  4.28678E-001	  4.21559E-001	  4.44192E-001	  4.10809E-001
  2.88000E-002	  4.19042E-001	  4.21830E-001	  4.32885E-001	  4.16041E-001
  3.20000E-002	  4.14884E-001	  4.10602E-001	  4.40489E-001	  3.97980E-001
  3.52000E-002	  4.04506E-001	  4.06511E-001	  4.22188E-001	  3.89620E-001
  3.84000E-002	  4.04153E-001	  3.97577E-001	  4.10715E-001	  3.89201E-001
  4.16000E-002	  3.91727E-001	  4.09451E-001	  4.10353E-001	  3.82734E-001
  4.48000E-002	  3.98159E-001	  3.87085E-001	  4.11305E-001	  3.78784E-001
  4.80000E-002	  3.82087E-001	  3.80836E-001	  4.01686E-001	  3.62494E-001
  5.12000E-002	  3.73472E-001	  3.76722E-001	  3.97070E-001	  3.63076E-001
  5.76000E-002	  3.70034E-001	  3.64639E-001	  3.83624E-001	  3.45035E-001
  6.40000E-002	  3.54419E-001	  3.52229E-001	  3.70849E-001	  3.42686E-001
  7.04000E-002	  3.43880E-001	  3.37787E-001	  3.59066E-001	  3.30472E-001
  7.68000E-002	  3.37594E-001	  3.33752E-001	  3.45273E-001	  3.12886E-001
  8.32000E-002	  3.23107E-001	  3.23836E-001	  3.33757E-001	  3.07125E-001
  8.96000E-002	  3.10320E-001	  3.09246E-001	  3.24035E-001	  2.98370E-001
  9.60000E-002	  3.07122E-001	  3.05106E-001	  3.20907E-001	  2.83835E-001
  1.02400E-001	  2.94952E-001	  2.93854E-001	  3.11916E-001	  2.79233E-001
  1.15200E-001	  2.76435E-001	  2.73172E-001	  2.92035E-001	  2.60385E-001
  1.28000E-001	  2.62154E-001	  2.55879E-001	  2.79606E-001	  2.44251E-001
  1.40800E-001	  2.45492E-001	  2.44075E-001	  2.60528E-001	  2.32171E-001
  1.53600E-001	  2.33833E-001	  2.30107E-001	  2.45359E-001	  2.15392E-001
  1.66400E-001	  2.24552E-001	  2.12854E-001	  2.38201E-001	  2.03236E-001
  1.79200E-001	  2.14522E-001	  2.03105E-001	  2.21185E-001	  1.97554E-001
  1.92000E-001	  1.97836E-001	  1.95977E-001	  2.10693E-001	  1.87012E-001
  2.04800E-001	  1.88523E-001	  1.84438E-001	  2.02667E-001	  1.76379E-001
  2.30400E-001	  1.72022E-001	  1.62404E-001	  1.87537E-001	  1.59328E-001
  2.56000E-001	  1.57446E-001	  1.46233E-001	  1.72977E-001	  1.40354E-001
  2.81600E-001	  1.41962E-001	  1.33766E-001	  1.57656E-001	  1.27913E-001
  3.07200E-001	  1.30258E-001	  1.23971E-001	  1.46650E-001	  1.16504E-001
  3.32800E-001	  1.21836E-001	  1.14725E-001	  1.39762E-001	  1.11042E-001
  3.58400E-001	  1.12695E-001	  1.05314E-001	  1.26019E-001	  1.00945E-001
  3.84000E-001	  1.05515E-001	  9.46300E-002	  1.22607E-001	  9.45855E-002
  4.09600E-001	  9.78840E-002	  8.95293E-002	  1.15328E-001	  8.58571E-002
  4.60800E-001	  8.88953E-002	  7.80051E-002	  1.02212E-001	  6.92699E-002
  5.12000E-001	  7.75910E-002	  7.08799E-002	  8.72680E-002	  6.12544E-002
  5.63200E-001	  6.55654E-002	  6.23234E-002	  7.64994E-002	  5.15601E-002
  6.14400E-001	  5.37583E-002	  5.95704E-002	  7.01132E-002	  4.59271E-002
  6.65600E-001	  4.60444E-002	  5.20058E-002	  6.05670E-002	  4.30014E-002
  7.16800E-001	  4.17196E-002	  4.55591E-002	  5.45676E-002	  3.77308E-002
  7.68000E-001	  3.76875E-002	  3.93466E-002	  5.32388E-002	  3.53795E-002
  8.19200E-001	  3.33368E-002	  3.76072E-002	  5.06615E-002	  3.27015E-002
  9.21600E-001	  2.01408E-002	  2.84697E-002	  4.43836E-002	  2.67242E-002
  1.02400E+000	  1.37683E-002	  2.61262E-002	  3.59086E-002	  1.90289E-002
  1.12640E+000	  1.00804E-002	  2.14281E-002	  3.09207E-002	  1.76409E-002
  1.22880E+000	  5.60138E-003	  1.32519E-002	  2.89729E-002	  1.63159E-002
  1.33120E+000	  8.50073E-003	  1.01184E-002	  2.81276E-002	  1.36903E-002
  1.43360E+000	  8.08306E-003	  1.24055E-002	  2.96312E-002	  1.53457E-002
  1.53600E+000	  6.14571E-003	  8.07921E-003	  2.73069E-002	  1.42469E-002
  1.63840E+000	  5.17430E-003	  5.49959E-003	  2.03598E-002	  1.64568E-002
  1.84320E+000	  1.74010E-003	  9.60288E-004	  1.32484E-002	  1.24789E-002
  2.04800E+000	 -3.40615E-003	  4.04944E-003	  1.39460E-003	  7.60103E-003
  2.25280E+000	  1.08427E-003	  3.01121E-003	 -4.73567E-003	 -2.30673E-003
  2.45760E+000	  4.35762E-003	 -2.81416E-004	 -7.48134E-003	 -3.63967E-003
  2.66240E+000	  4.68292E-003	 -1.87702E-004	 -6.45110E-003	 -1.35996E-003
  2.86720E+000	  9.37574E-003	  1.61870E-005	 -7.95021E-003	  4.89519E-003
  3.07200E+000	  1.11832E-002	 -9.95046E-004	 -9.94620E-003	  4.83859E-003
  3.27680E+000	  8.37074E-003	  5.95413E-004	 -6.32695E-003	  3.40973E-003
  3.68640E+000	  7.52633E-003	 -1.36735E-003	  3.46483E-003	  5.47577E-004
  4.09600E+000	  7.06325E-003	 -3.49485E-003	  4.80973E-004	  5.90543E-003
  4.50560E+000	  5.16505E-003	 -4.12224E-003	  3.21485E-003	  9.59916E-003
  4.91520E+000	 -9.77883E-003	 -5.09762E-003	  8.61464E-003	  9.57551E-003
  5.32480E+000	 -1.77872E-002	 -8.12158E-003	  2.16235E-004	  7.26268E-003
  5.73440E+000	 -1.04960E-002	 -3.13820E-003	  4.31510E-003	  4.57235E-003
  6.14400E+000	 -5.36616E-003	 -4.56605E-003	  8.50575E-005	 -3.46858E-003
  6.55360E+000	 -3.90428E-003	 -8.89292E-003	 -1.25840E-003	 -7.31147E-003
  7.37280E+000	 -3.43507E-003	  3.17934E-003	  1.23227E-003	 -3.91254E-003
  8.19200E+000	 -8.44219E-003	 -3.64743E-003	 -5.73851E-003	 -7.40577E-003
  9.01120E+000	 -7.15965E-003	  2.58213E-003	 -5.24392E-003	  1.04553E-003
  9.83040E+000	 -4.24232E-003	 -3.63928E-003	  5.70926E-003	 -7.93999E-003
  1.06496E+001	  3.43482E-003	 -1.22327E-002	 -2.96691E-004	 -3.93035E-003
  1.14688E+001	 -4.86122E-004	 -6.74228E-003	  8.67376E-004	 -8.48194E-003
  1.22880E+001	  1.18030E-003	 -4.26931E-003	 -7.72208E-003	 -6.18520E-003
  1.31072E+001	 -6.40474E-004	  2.27285E-003	 -1.05029E-002	 -5.69539E-003
  1.47456E+001	  9.34675E-003	  2.83421E-003	 -7.82026E-003	 -4.04942E-003
  1.63840E+001	  2.29945E-003	  4.28300E-003	 -4.43508E-003	  8.18630E-003
  1.80224E+001	 -4.20851E-003	 -3.89768E-003	 -3.97444E-003	 -5.43335E-003
  1.96608E+001	  1.54600E-002	  7.79331E-004	  2.26885E-004	  9.23530E-004
  2.12992E+001	  6.06353E-003	 -4.81787E-003	  7.67410E-003	  5.50115E-003
  2.29376E+001	  7.72697E-003	 -8.06669E-003	  2.30194E-003	  6.90849E-004
  2.45760E+001	 -1.22284E-002	 -5.08657E-003	  9.45171E-003	 -6.17736E-003
  2.62144E+001	 -7.74909E-004	  4.46021E-004	  1.35472E-002	  2.01960E-004
  2.94912E+001	  6.27658E-003	 -3.75902E-003	  4.64282E-003	  6.65765E-003
  3.27680E+001	  1.81649E-003	  1.17305E-002	  6.65184E-003	  1.28123E-003
  3.60448E+001	  9.03505E-003	 -8.50694E-004	  4.22237E-003	 -9.77634E-003
  3.93216E+001	  9.55194E-003	  1.42680E-003	 -4.68249E-003	 -4.24294E-003
  4.25984E+001	  5.15723E-003	 -3.39292E-003	  2.65016E-003	  4.45850E-003
  4.58752E+001	 -1.00063E-003	 -2.25985E-003	 -1.33595E-002	 -7.29401E-003
  4.91520E+001	  7.95163E-004	 -2.48278E-003	 -4.58390E-003	 -2.16598E-003
  5.24288E+001	 -9.18914E-004	 -1.84457E-003	  4.51996E-003	  2.35123E-003
  5.89824E+001	 -1.00432E-003	  2.00913E-003	 -1.58512E-003	  1.52407E-003
  6.55360E+001	  1.83377E-003	 -1.49290E-003	 -3.15904E-003	 -8.34674E-003
  7.20896E+001	  1.53405E-003	  2.25858E-003	 -2.16003E-003	  1.46609E-003
  7.86432E+001	 -2.47508E-003	  1.77054E-003	 -4.48692E-003	  8.31906E-003
  8.51968E+001	  2.08007E-003	 -1.21896E-003	  8.67366E-004	  4.00662E-003
  9.17504E+001	 -2.01801E-003	 -3.24140E-003	 -8.37496E-003	 -5.05727E-003
  9.83040E+001	 -3.43951E-003	 -5.18081E-003	  2.17970E-003	 -3.11187E-003
  1.04858E+002	  3.38049E-003	 -1.09860E-003	 -3.72127E-003	 -3.92519E-004
  1.17965E+002	 -1.41810E-003	  8.29285E-004	 -5.14530E-004	  3.48917E-003
  1.31072E+002	 -4.83844E-004	 -2.63566E-003	 -4.41277E-003	 -3.29043E-003
  1.44179E+002	  1.49526E-003	  3.96445E-003	  3.86216E-003	 -9.72057E-004
  1.57286E+002	  4.74387E-004	  2.66926E-004	 -4.25296E-003	 -4.15771E-003
  1.70394E+002	 -2.18039E-003	 -7.19415E-004	  7.32686E-003	 -5.38048E-004
  1.83501E+002	  3.65562E-003	  1.01958E-003	 -5.53437E-003	  1.27813E-003
  1.96608E+002	 -4.04726E-003	  7.85621E-004	  7.25418E-003	  3.71916E-003
  2.09715E+002	 -4.06977E-003	 -2.45895E-003	  1.33248E-003	  7.97439E-004
  2.35930E+002	 -6.87128E-003	 -6.46898E-004	 -1.96278E-004	 -1.62143E-003
  2.62144E+002	 -6.69450E-003	 -1.96404E-004	  3.14148E-004	 -7.35020E-004
  2.88358E+002	 -3.98789E-003	  1.23322E-003	 -3.25337E-003	  1.09709E-003
  3.14573E+002	 -7.33310E-005	 -1.01216E-003	 -3.91324E-003	  8.19873E-004
  3.40787E+002	 -8.90206E-005	  3.10915E-004	  2.09416E-003	 -2.35411E-003
  3.67002E+002	  1.50551E-003	 -3.53162E-004	  3.05236E-003	 -1.26683E-003
  3.93216E+002	  1.44413E-003	 -1.53786E-003	  2.12922E-003	 -4.86639E-004

"Count Rate"
       0.01311	     144.42444	     140.15198	     129.85229	     131.83594
       0.02621	     120.39185	     108.56628	     112.07581	     129.31824
       0.03932	     122.45178	     113.06763	     147.62878	     142.82227
       0.05243	     155.94482	     161.51428	     145.56885	     143.73779
       0.06554	     159.07288	     151.82495	     162.27722	     147.09473
       0.07864	     183.41064	     152.74048	     125.73242	     116.04309
       0.09175	     156.25000	     161.28540	     147.32361	     158.61511
       0.10486	     158.00476	     133.81958	     127.71606	      88.19580
       0.11796	     125.50354	     157.16553	     189.89563	     129.47083
       0.13107	     145.64514	     141.52527	     134.58252	     155.79224
       0.14418	     147.93396	     160.67505	     212.55493	     136.18469
       0.15729	     124.43542	     134.58252	     156.93665	     138.85498
       0.17039	     123.13843	     149.61243	     132.14111	     139.00757
       0.18350	     142.74597	     115.50903	     135.11658	     126.41907
       0.19661	     110.77881	     146.33179	     125.65613	     128.78418
       0.20972	     135.80322	     175.78125	     105.20935	     144.04297
       0.22282	     131.07300	     158.53882	     131.30188	     130.31006
       0.23593	     154.03748	     142.13562	     115.50903	     128.09753
       0.24904	     160.06470	     119.09485	     124.43542	     147.09473
       0.26214	     123.44360	     151.59607	     109.02405	     134.04846
       0.27525	     146.17920	     107.65076	     121.53625	     159.91211
       0.28836	     142.74597	     158.15735	     165.40527	     136.64246
       0.30147	     104.98047	     182.41882	     106.27747	     153.04565
       0.31457	     169.52515	     104.29382	     153.50342	     107.34558
       0.32768	      98.11401	     128.78418	     130.23376	     149.76501
       0.34079	     136.94763	     148.92578	     158.38623	     145.95032
       0.35389	     123.51990	     121.68884	     116.11938	     171.73767
       0.36700	     127.48718	     113.83057	     143.96667	     110.01587
       0.38011	     132.14111	     141.06750	     151.97754	     161.51428
       0.39322	     146.33179	     118.56079	     111.16028	     165.86304
       0.40632	     139.00757	     175.47607	     143.12744	     151.51978
       0.41943	     156.17371	     103.14941	     116.11938	     140.53345
       0.43254	     159.07288	     164.71863	     131.14929	     161.13281
       0.44564	     148.31543	     149.91760	     119.17114	     132.75146
       0.45875	     162.12463	     114.13574	     130.61523	     177.61230
       0.47186	     150.22278	     116.42456	     124.20654	     170.21179
       0.48497	     119.01855	     156.32629	     169.06738	     105.51453
       0.49807	     189.97192	     133.43811	     138.32092	     116.80603
       0.51118	     142.59338	     112.07581	     152.74048	     102.00500
       0.52429	     128.86047	     136.79504	     113.37280	     130.31006
       0.53740	     163.11646	     122.22290	     145.33997	     113.29651
       0.55050	     149.15466	     153.96118	     145.41626	     181.88477
       0.56361	     138.93127	     149.38354	     143.66150	     112.76245
       0.57672	     176.77307	     142.44080	     134.81140	     191.72668
       0.58982	     149.68872	     135.57434	     106.12488	     121.23108
       0.60293	     175.85754	     177.84119	     127.86865	     152.74048
       0.61604	     155.10559	     137.02393	     102.53906	     126.41907
       0.62915	     129.31824	     130.31006	     142.51709	     147.17102
       0.64225	     134.58252	     120.01038	     144.34814	     140.83862
       0.65536	     139.69421	     115.81421	     163.72681	     161.97205
       0.66847	     110.01587	     142.74597	     155.71594	     130.08118
       0.68157	     151.82495	     141.75415	     144.19556	     139.54163
       0.69468	     136.10840	     125.88501	     115.43274	     155.33447
       0.70779	     106.43005	     144.04297	     136.71875	     117.18750
       0.72090	     133.89587	     146.10291	     121.53625	     125.42725
       0.73400	     119.55261	     145.72144	     127.94495	     129.01306
       0.74711	     153.04565	     134.81140	     146.71326	     127.33459
