ALV-7004/USB-FAST
Date :	"3/14/2024"
Time :	"12:33:33 PM"
Samplename : 	""
SampMemo(0) : 	""
SampMemo(1) : 	""
SampMemo(2) : 	""
SampMemo(3) : 	""
SampMemo(4) : 	""
SampMemo(5) : 	""
SampMemo(6) : 	""
SampMemo(7) : 	""
SampMemo(8) : 	""
SampMemo(9) : 	""
Temperature [K] :	     298.16000
Viscosity [cp]  :	       0.89000
Refractive Index:	       1.33200
Wavelength [nm] :	       0.00000
Angle [°]       :	       0.00000
Duration [s]    :	         1
FloatDur [ms]   :	          944
Stop TP [ms]   :	      3292
Runs            :	         1
Mode            :	"A-CH0+1  A-CH2+3 "
MeanCR0 [kHz]   :	     122.93604
MeanCR1 [kHz]   :	     118.32343
MeanCR2 [kHz]   :	     115.28969
MeanCR3 [kHz]   :	     114.33707

"Correlation"
  3.12500E-006	 -1.00000E+000	 -1.00000E+000	 -1.00000E+000	 -1.00000E+000
  6.25000E-006	 -1.00000E+000	 -1.00000E+000	 -1.00000E+000	 -1.00000E+000
  9.37500E-006	 -1.00000E+000	 -1.00000E+000	 -1.00000E+000	 -1.00000E+000
  1.25000E-005	 -1.00000E+000	 -1.00000E+000	 -1.00000E+000	 -1.00000E+000
  1.56250E-005	 -1.00000E+000	 -1.00000E+000	 -1.00000E+000	 -1.00000E+000
  1.87500E-005	 -1.00000E+000	 -1.00000E+000	 -1.00000E+000	 -1.00000E+000
  2.18750E-005	 -9.55128E-001	 -5.15609E-001	 -2.85693E-001	 -9.74062E-001
  2.50000E-005	  6.51612E+000	  6.36274E+000	  5.27569E+000	  1.08536E+001
  2.81250E-005	  1.19875E+000	  1.32508E+000	  1.34701E+000	  4.26538E+000
  3.12500E-005	  1.35580E+000	  8.16466E-001	  1.04088E+000	  2.73505E+000
  3.43750E-005	  7.50023E-001	  5.25831E-001	  9.13321E-001	  2.34598E+000
  3.75000E-005	  8.39768E-001	  5.98490E-001	  7.85766E-001	  1.72347E+000
  4.06250E-005	  6.15406E-001	  7.43807E-001	  7.85766E-001	  1.20471E+000
  4.37500E-005	  7.72459E-001	  6.95368E-001	  4.54124E-001	  1.20471E+000
  4.68750E-005	  3.91044E-001	  1.86758E-001	  1.11741E+000	  1.10096E+000
  5.00000E-005	  4.92007E-001	  4.16843E-001	  6.96478E-001	  1.46409E+000
  5.62500E-005	  6.15406E-001	  6.83258E-001	  5.17901E-001	  1.32143E+000
  6.25000E-005	  6.71496E-001	  5.25831E-001	  7.73011E-001	  7.63771E-001
  6.87500E-005	  2.78863E-001	  7.92246E-001	  6.07190E-001	  9.06429E-001
  7.50000E-005	  6.71496E-001	  7.07478E-001	  3.64836E-001	  6.72989E-001
  8.12500E-005	  4.92007E-001	  5.74270E-001	  7.34744E-001	  8.28616E-001
  8.75000E-005	  5.59315E-001	  6.71149E-001	  4.79635E-001	  8.93460E-001
  9.37500E-005	  2.90081E-001	  4.65283E-001	  6.19945E-001	  5.56269E-001
  1.00000E-004	  4.97615E-001	  6.65094E-001	  3.90346E-001	  4.91424E-001
  1.12500E-004	  5.42488E-001	  4.71337E-001	  4.86013E-001	  6.92442E-001
  1.25000E-004	  5.70533E-001	  4.28953E-001	  6.64589E-001	  5.43300E-001
  1.37500E-004	  5.64924E-001	  5.31886E-001	  5.94434E-001	  5.23846E-001
  1.50000E-004	  4.92006E-001	  3.68404E-001	  5.37034E-001	  5.43300E-001
  1.62500E-004	  6.43451E-001	  5.37941E-001	  4.41368E-001	  5.56269E-001
  1.75000E-004	  5.87360E-001	  5.43996E-001	  4.79635E-001	  5.75722E-001
  1.87500E-004	  5.08834E-001	  5.92435E-001	  5.17901E-001	  5.10877E-001
  2.00000E-004	  4.86397E-001	  4.16843E-001	  5.68923E-001	  5.53026E-001
  2.25000E-004	  3.77021E-001	  4.98584E-001	  5.11523E-001	  6.34082E-001
  2.50000E-004	  4.24698E-001	  4.95556E-001	  5.72112E-001	  5.04393E-001
  2.75000E-004	  4.66765E-001	  4.19870E-001	  4.54124E-001	  5.46542E-001
  3.00000E-004	  3.12517E-001	  3.65376E-001	  5.33845E-001	  4.42790E-001
  3.25000E-004	  4.66765E-001	  5.59133E-001	  4.79634E-001	  3.71461E-001
  3.50000E-004	  4.21893E-001	  4.50145E-001	  6.35889E-001	  4.00642E-001
  3.75000E-004	  4.24698E-001	  4.95556E-001	  3.10624E-001	  5.10877E-001
  4.00000E-004	  4.34513E-001	  5.39454E-001	  4.60501E-001	  4.37926E-001
  4.50000E-004	  4.14881E-001	  4.87987E-001	  5.59355E-001	  4.86560E-001
  5.00000E-004	  5.15844E-001	  4.10787E-001	  4.55717E-001	  6.14628E-001
  5.50000E-004	  4.47133E-001	  4.98583E-001	  4.27018E-001	  4.33063E-001
  6.00000E-004	  5.10235E-001	  5.25830E-001	  5.45006E-001	  5.61131E-001
  6.50000E-004	  5.03224E-001	  4.86474E-001	  4.50934E-001	  4.99529E-001
  7.00000E-004	  4.41524E-001	  5.01611E-001	  4.42962E-001	  5.90311E-001
  7.50000E-004	  4.89201E-001	  3.92623E-001	  4.60501E-001	  5.25467E-001
  8.00000E-004	  5.25658E-001	  4.05488E-001	  4.95577E-001	  5.01149E-001
  9.00000E-004	  5.02521E-001	  4.72092E-001	  4.71660E-001	  5.68425E-001
  1.00000E-003	  4.70970E-001	  4.21382E-001	  4.98766E-001	  4.73590E-001
  1.10000E-003	  4.41523E-001	  3.96406E-001	  4.97969E-001	  4.44410E-001
  1.20000E-003	  4.30305E-001	  5.43237E-001	  4.86010E-001	  3.97397E-001
  1.30000E-003	  4.67465E-001	  4.84959E-001	  5.28263E-001	  4.77642E-001
  1.40000E-003	  4.43626E-001	  4.22896E-001	  5.21088E-001	  4.84937E-001
  1.50000E-003	  4.54844E-001	  5.06151E-001	  4.82821E-001	  4.17661E-001
  1.60000E-003	  4.46078E-001	  5.13717E-001	  5.39421E-001	  4.94675E-001
  1.80000E-003	  4.73772E-001	  4.63386E-001	  4.85609E-001	  4.46447E-001
  2.00000E-003	  4.84289E-001	  4.37274E-001	  5.09526E-001	  4.78464E-001
  2.20000E-003	  4.54842E-001	  4.39166E-001	  5.15106E-001	  4.37936E-001
  2.40000E-003	  4.77278E-001	  4.91389E-001	  5.36232E-001	  5.19398E-001
  2.60000E-003	  4.35561E-001	  5.03499E-001	  4.78434E-001	  4.82922E-001
  2.80000E-003	  4.52037E-001	  4.92525E-001	  4.78434E-001	  4.85354E-001
  3.00000E-003	  4.70968E-001	  4.49762E-001	  5.26267E-001	  4.52932E-001
  3.20000E-003	  4.77624E-001	  4.58083E-001	  4.73048E-001	  4.75272E-001
  3.60000E-003	  4.30473E-001	  4.27052E-001	  4.88195E-001	  4.77487E-001
  4.00000E-003	  4.66406E-001	  4.87222E-001	  4.72849E-001	  4.64518E-001
  4.40000E-003	  4.72190E-001	  4.60353E-001	  4.79027E-001	  4.65936E-001
  4.80000E-003	  4.62199E-001	  4.72274E-001	  5.06132E-001	  4.37363E-001
  5.20000E-003	  4.65179E-001	  4.56001E-001	  4.51935E-001	  4.34932E-001
  5.60000E-003	  4.77799E-001	  4.45405E-001	  4.86216E-001	  4.93496E-001
  6.00000E-003	  4.82356E-001	  4.73598E-001	  4.92593E-001	  4.49725E-001
  6.40000E-003	  4.84725E-001	  4.63276E-001	  4.79529E-001	  4.72074E-001
  7.20000E-003	  4.71141E-001	  4.45112E-001	  5.00655E-001	  4.72364E-001
  8.00000E-003	  4.41956E-001	  4.50883E-001	  4.54616E-001	  4.61509E-001
  8.80000E-003	  4.57206E-001	  4.82481E-001	  4.77237E-001	  4.69007E-001
  9.60000E-003	  4.46777E-001	  4.66587E-001	  4.63286E-001	  4.52579E-001
  1.04000E-002	  4.58696E-001	  4.75386E-001	  4.56011E-001	  4.57733E-001
  1.12000E-002	  4.70089E-001	  4.56843E-001	  4.55314E-001	  4.67460E-001
  1.20000E-002	  4.56329E-001	  4.64695E-001	  4.75556E-001	  4.69615E-001
  1.28000E-002	  4.62676E-001	  4.61201E-001	  4.74454E-001	  4.77493E-001
  1.44000E-002	  4.44303E-001	  4.47862E-001	  4.72225E-001	  4.63864E-001
  1.60000E-002	  4.38300E-001	  4.49706E-001	  4.56629E-001	  4.56683E-001
  1.76000E-002	  4.47590E-001	  4.58221E-001	  4.76873E-001	  4.68589E-001
  1.92000E-002	  4.55915E-001	  4.40340E-001	  4.71392E-001	  4.54808E-001
  2.08000E-002	  4.51446E-001	  4.51882E-001	  4.60629E-001	  4.50475E-001
  2.24000E-002	  4.27914E-001	  4.37029E-001	  4.55597E-001	  4.44648E-001
  2.40000E-002	  4.31639E-001	  4.46726E-001	  4.63532E-001	  4.55224E-001
  2.56000E-002	  4.39281E-001	  4.40392E-001	  4.64070E-001	  4.41819E-001
  2.88000E-002	  4.37769E-001	  4.47853E-001	  4.48424E-001	  4.40339E-001
  3.20000E-002	  4.31766E-001	  4.33851E-001	  4.51862E-001	  4.35880E-001
  3.52000E-002	  4.29565E-001	  4.30858E-001	  4.46095E-001	  4.31737E-001
  3.84000E-002	  4.22160E-001	  4.34051E-001	  4.44987E-001	  4.33029E-001
  4.16000E-002	  4.24251E-001	  4.31023E-001	  4.39780E-001	  4.23250E-001
  4.48000E-002	  4.15159E-001	  4.18240E-001	  4.38609E-001	  4.13965E-001
  4.80000E-002	  4.08739E-001	  4.13273E-001	  4.31832E-001	  4.23199E-001
  5.12000E-002	  4.12161E-001	  4.15394E-001	  4.32734E-001	  4.21502E-001
  5.76000E-002	  4.01436E-001	  4.09563E-001	  4.24848E-001	  4.02838E-001
  6.40000E-002	  4.00505E-001	  4.11040E-001	  4.07993E-001	  4.05980E-001
  7.04000E-002	  3.90011E-001	  3.91479E-001	  4.03196E-001	  3.99315E-001
  7.68000E-002	  3.76942E-001	  3.85330E-001	  3.96220E-001	  3.85822E-001
  8.32000E-002	  3.80897E-001	  3.80410E-001	  3.96557E-001	  3.77866E-001
  8.96000E-002	  3.70172E-001	  3.71268E-001	  3.91275E-001	  3.65044E-001
  9.60000E-002	  3.72232E-001	  3.74012E-001	  3.82430E-001	  3.72126E-001
  1.02400E-001	  3.62518E-001	  3.60994E-001	  3.69639E-001	  3.62323E-001
  1.15200E-001	  3.44563E-001	  3.52343E-001	  3.55417E-001	  3.44030E-001
  1.28000E-001	  3.37740E-001	  3.32868E-001	  3.45687E-001	  3.26730E-001
  1.40800E-001	  3.21845E-001	  3.22884E-001	  3.33672E-001	  3.18157E-001
  1.53600E-001	  3.14402E-001	  3.10902E-001	  3.15289E-001	  3.03274E-001
  1.66400E-001	  2.97888E-001	  3.00180E-001	  3.02227E-001	  2.90749E-001
  1.79200E-001	  3.01498E-001	  2.90717E-001	  2.95675E-001	  2.78415E-001
  1.92000E-001	  2.79321E-001	  2.79191E-001	  2.79391E-001	  2.63701E-001
  2.04800E-001	  2.69364E-001	  2.70425E-001	  2.69691E-001	  2.58731E-001
  2.30400E-001	  2.45896E-001	  2.44937E-001	  2.44397E-001	  2.40320E-001
  2.56000E-001	  2.29843E-001	  2.24873E-001	  2.23769E-001	  2.23932E-001
  2.81600E-001	  2.11154E-001	  2.07281E-001	  2.03066E-001	  2.00577E-001
  3.07200E-001	  1.97965E-001	  1.88583E-001	  1.86906E-001	  1.88350E-001
  3.32800E-001	  1.83232E-001	  1.72228E-001	  1.73629E-001	  1.72470E-001
  3.58400E-001	  1.73326E-001	  1.57972E-001	  1.53351E-001	  1.57918E-001
  3.84000E-001	  1.58341E-001	  1.44345E-001	  1.39288E-001	  1.43110E-001
  4.09600E-001	  1.48074E-001	  1.30100E-001	  1.29888E-001	  1.29025E-001
  4.60800E-001	  1.25058E-001	  1.09452E-001	  1.07735E-001	  1.10405E-001
  5.12000E-001	  1.05824E-001	  9.08240E-002	  8.63457E-002	  9.51913E-002
  5.63200E-001	  8.81018E-002	  7.08738E-002	  7.73684E-002	  7.94931E-002
  6.14400E-001	  7.06338E-002	  5.85445E-002	  6.58261E-002	  6.76590E-002
  6.65600E-001	  5.54813E-002	  4.74324E-002	  5.72526E-002	  5.76009E-002
  7.16800E-001	  4.59662E-002	  3.93866E-002	  4.68320E-002	  5.03537E-002
  7.68000E-001	  3.83004E-002	  2.95955E-002	  4.06012E-002	  4.10290E-002
  8.19200E-001	  2.75112E-002	  2.37579E-002	  3.45674E-002	  3.66741E-002
  9.21600E-001	  1.65353E-002	  1.26081E-002	  2.16205E-002	  2.85245E-002
  1.02400E+000	  1.34052E-002	  4.61007E-003	  9.48590E-003	  2.43045E-002
  1.12640E+000	  1.32987E-002	 -5.96581E-004	 -8.06711E-004	  2.04475E-002
  1.22880E+000	  9.05044E-003	 -6.21299E-003	 -4.40306E-003	  1.76308E-002
  1.33120E+000	  5.18645E-003	 -8.24429E-003	 -6.95275E-003	  1.85106E-002
  1.43360E+000	  6.90566E-003	 -1.02177E-002	 -4.68900E-003	  1.79581E-002
  1.53600E+000	  6.23950E-003	 -1.04966E-002	 -6.13003E-003	  1.84615E-002
  1.63840E+000	  3.38078E-003	 -6.63441E-003	 -1.32871E-002	  1.56566E-002
  1.84320E+000	  1.64975E-003	  2.71856E-004	 -2.12407E-002	  8.05906E-003
  2.04800E+000	  5.22813E-003	  3.76308E-003	 -1.91410E-002	  2.62366E-005
  2.25280E+000	  7.42313E-003	  1.10004E-002	 -1.56006E-002	 -4.01747E-003
  2.45760E+000	  2.02447E-003	  1.32780E-002	 -1.18505E-002	  5.40074E-004
  2.66240E+000	  2.65921E-003	  1.02495E-002	 -6.01447E-003	  6.07526E-003
  2.86720E+000	  4.00363E-003	  3.95129E-003	 -3.51898E-003	  6.36892E-003
  3.07200E+000	 -2.70407E-003	  1.08288E-003	 -2.39798E-003	  1.11151E-002
  3.27680E+000	 -4.73411E-003	  4.26304E-003	  5.01728E-003	  1.17594E-002
  3.68640E+000	 -5.22287E-003	  2.46221E-003	  1.12068E-002	  1.42019E-002
  4.09600E+000	  1.26322E-002	 -3.04637E-003	  4.59885E-003	 -1.07795E-002
  4.50560E+000	  1.66456E-002	 -4.70927E-003	  4.33772E-003	 -2.24807E-002
  4.91520E+000	  1.71793E-003	  3.56313E-003	  9.25817E-003	 -1.61783E-002
  5.32480E+000	 -3.56334E-003	  5.50072E-003	  1.27701E-002	 -9.50066E-003
  5.73440E+000	 -1.24777E-003	 -3.31129E-004	  1.03268E-002	 -2.78890E-003
  6.14400E+000	  3.78358E-003	 -4.64791E-003	  4.78130E-003	  6.80461E-003
  6.55360E+000	 -2.66604E-003	 -1.44050E-002	  6.73924E-003	  1.25023E-002
  7.37280E+000	 -1.90577E-003	 -1.35895E-002	 -5.28055E-004	  1.60562E-002
  8.19200E+000	 -1.44925E-002	  1.37076E-002	 -7.13803E-003	  1.15409E-002
  9.01120E+000	  2.13904E-003	  1.75242E-003	 -1.61605E-003	  9.59084E-003
  9.83040E+000	  1.10535E-002	 -1.75861E-003	  1.02208E-002	  1.77559E-002
  1.06496E+001	  1.28407E-002	 -7.06475E-004	  1.19373E-003	  5.57352E-003
  1.14688E+001	 -3.63962E-003	 -6.84085E-003	 -7.10682E-003	 -6.92112E-003
  1.22880E+001	 -6.91606E-003	 -4.41153E-003	 -2.44488E-003	 -1.62717E-002
  1.31072E+001	 -3.61180E-004	 -2.22617E-003	 -3.56168E-003	 -1.67957E-002
  1.47456E+001	  7.55052E-004	  5.43943E-003	 -7.86126E-003	 -1.28108E-002
  1.63840E+001	  1.09763E-003	  3.52753E-004	 -3.99975E-003	  2.23172E-003
  1.80224E+001	 -6.26927E-003	  1.85990E-003	 -6.80408E-003	 -5.90831E-003
  1.96608E+001	  2.13501E-003	 -1.06059E-003	  3.68026E-003	 -1.05256E-002
  2.12992E+001	 -7.08562E-003	 -4.57960E-003	 -1.06470E-002	  5.68561E-003
  2.29376E+001	 -1.85251E-003	  1.95963E-002	  2.32965E-003	 -7.62441E-003
  2.45760E+001	  8.52211E-003	 -9.92206E-003	 -2.72858E-003	 -4.56285E-003
  2.62144E+001	 -2.26219E-003	 -9.89387E-003	  1.83086E-003	 -2.60263E-003
  2.94912E+001	 -5.12980E-003	  2.89598E-003	 -2.27312E-003	 -6.69248E-004
  3.27680E+001	 -1.43716E-003	 -4.01041E-003	 -7.42898E-003	 -6.05856E-003
  3.60448E+001	 -7.23842E-003	  7.12010E-004	 -4.99872E-003	  2.18148E-003
  3.93216E+001	 -3.36622E-003	  2.54637E-003	 -6.66040E-003	  2.43438E-003
  4.25984E+001	  6.55806E-003	  1.94551E-003	 -2.41096E-003	 -3.63432E-003
  4.58752E+001	  4.53967E-003	 -6.95673E-003	 -1.08335E-002	  3.70445E-003
  4.91520E+001	 -5.42287E-004	  7.25255E-003	  3.22701E-003	  6.19999E-003
  5.24288E+001	 -7.00318E-003	  9.72593E-003	 -8.94109E-004	 -2.35201E-003
  5.89824E+001	  9.02970E-004	 -7.69442E-003	  5.53887E-003	  6.10208E-003
  6.55360E+001	  5.34047E-004	 -8.69381E-004	  2.80750E-003	 -5.50192E-003
  7.20896E+001	 -6.89912E-004	  1.19702E-002	  4.90755E-003	 -4.59668E-003
  7.86432E+001	 -4.34944E-003	 -6.06267E-003	  1.82683E-003	 -4.38385E-003
  8.51968E+001	  5.67946E-003	  3.35663E-003	 -7.88596E-003	 -1.35201E-003
  9.17504E+001	 -4.16921E-003	 -4.73333E-003	 -1.19259E-003	  1.29781E-003
  9.83040E+001	 -4.25327E-005	 -4.67698E-003	  5.00253E-003	 -4.37170E-003
  1.04858E+002	  3.60627E-003	 -1.03967E-003	  6.59542E-004	 -1.73545E-003
  1.17965E+002	 -2.45003E-003	 -7.82031E-004	 -2.98182E-004	 -1.41462E-003
  1.31072E+002	 -3.11841E-004	 -3.36955E-003	  4.35478E-004	 -1.18453E-003
  1.44179E+002	 -3.76325E-003	 -3.13877E-003	 -2.58708E-003	  6.67009E-004
  1.57286E+002	 -1.23155E-004	 -3.70684E-003	 -2.63696E-003	  2.29854E-003
  1.70394E+002	  1.37589E-003	 -3.42748E-003	  4.26080E-003	  2.78889E-003
  1.83501E+002	  7.19906E-003	 -9.02800E-004	  4.50284E-003	 -4.55942E-003
  1.96608E+002	 -5.40452E-004	  3.99250E-004	 -3.72349E-003	 -1.08233E-003
  2.09715E+002	 -1.42017E-003	 -4.48690E-004	 -1.93127E-003	  1.42081E-003
  2.35930E+002	 -4.82356E-003	 -1.10513E-003	  1.80847E-003	 -2.48214E-003
  2.62144E+002	 -3.94265E-003	  1.01776E-003	 -9.75369E-004	 -1.22252E-003
  2.88358E+002	 -1.21378E-003	  1.57783E-003	 -1.69708E-003	 -4.13246E-003
  3.14573E+002	  1.59223E-003	  1.92006E-003	  2.26104E-003	  3.17184E-003
  3.40787E+002	 -9.43799E-004	  2.41856E-003	  3.66969E-003	 -3.92918E-003
  3.67002E+002	  2.47992E-004	 -9.13877E-005	 -4.90327E-003	  4.48632E-003
  3.93216E+002	  4.32518E-004	 -1.03658E-003	  6.53628E-004	  5.43094E-005

"Count Rate"
       0.01311	     103.37830	     125.88501	     108.64258	      97.19849
       0.02621	     143.96667	     100.09766	      76.75171	     104.29382
       0.03932	     103.68347	     112.68616	     113.06763	     150.29907
       0.05243	     169.52515	     103.60718	      96.35925	      60.50110
       0.06554	     134.65881	     107.49817	     103.75977	     108.26111
       0.07864	     103.83606	     108.87146	     114.74609	     130.23376
       0.09175	     108.48999	     122.60437	     115.81421	     120.62073
       0.10486	     145.79773	      96.89331	     158.92029	      91.09497
       0.11796	     118.33191	     105.74341	     114.89868	     103.75977
       0.13107	     168.83850	     114.51721	     112.83875	     130.92041
       0.14418	     135.80322	     113.52539	      85.67810	     101.69983
       0.15729	      99.79248	     100.47913	     111.00769	     100.70801
       0.17039	     111.99951	     115.73792	     119.62891	      98.95325
       0.18350	     115.35645	      94.75708	     129.85229	     129.62341
       0.19661	     122.60437	      91.32385	     120.39185	      83.77075
       0.20972	     119.09485	     146.63696	     116.80603	      97.65625
       0.22282	     139.31274	     137.55798	      97.50366	     108.33740
       0.23593	     149.84131	     108.10852	      91.62903	     100.86060
       0.24904	     109.78699	     122.14661	     125.42725	     111.08398
       0.26214	      91.78162	     116.42456	     107.04041	     134.73511
       0.27525	     103.07312	     110.85510	      99.94507	     143.66150
       0.28836	     114.59351	     146.25549	     113.52539	     154.34265
       0.30147	     123.67249	     128.86047	     111.46545	     121.84143
       0.31457	     120.16296	     117.18750	     133.66699	     114.44092
       0.32768	     150.14648	     106.65894	     102.08130	     109.17664
       0.34079	     126.19019	     102.46277	     135.04028	      99.79248
       0.35389	     134.35364	      97.35107	     103.98865	     100.55542
       0.36700	     112.22839	     109.71069	     120.23926	     108.87146
       0.38011	     131.98853	     115.12756	     111.69434	     124.35913
       0.39322	     119.40002	     115.20386	      99.79248	      94.98596
       0.40632	     102.92053	     100.78430	      83.31299	     103.45459
       0.41943	     108.87146	     130.15747	     108.18481	     119.40002
       0.43254	     123.51990	     128.17383	     115.28015	     141.06750
       0.44564	      86.74622	      82.55005	     131.30188	      98.72437
       0.45875	      96.13037	      99.86877	      98.11401	      90.78979
       0.47186	     106.81152	     138.16833	      84.45740	     115.20386
       0.48497	     124.89319	     146.94214	     117.87415	     115.43274
       0.49807	     106.35376	     125.42725	     115.20386	     130.08118
       0.51118	     129.24194	     128.40271	     136.56616	      93.00232
       0.52429	     110.01587	     109.32922	     127.63977	      97.19849
       0.53740	     118.10303	     148.62061	     108.03223	     109.25293
       0.55050	     145.41626	     105.20935	     134.35364	     113.90686
       0.56361	     117.79785	     106.96411	     125.73242	      83.69446
       0.57672	     101.24207	     142.28821	     106.43005	     127.25830
       0.58982	     114.74609	     126.41907	     110.16846	     137.71057
       0.60293	     120.92590	     125.65613	     125.19836	      99.86877
       0.61604	     125.57983	     142.13562	     139.69421	      94.75708
       0.62915	     110.24475	     127.56348	     103.98865	      95.52002
       0.64225	     125.19836	      82.55005	      99.86877	     138.54980
       0.65536	     116.57715	     124.74060	     125.04578	     109.55811
       0.66847	     141.67786	     108.94775	     141.90674	     119.40002
       0.68157	     105.36194	      99.18213	     109.55811	     116.65344
       0.69468	     171.12732	     118.63708	     103.53088	      80.64270
       0.70779	     105.89600	     104.44641	     127.79236	     127.48718
       0.72090	     135.95581	      87.35657	      89.64539	     121.38367
       0.73400	     142.05933	     129.54712	     143.28003	     104.29382
       0.74711	      91.40015	     114.51721	     114.44092	      96.66443
