ALV-7004/USB-FAST
Date :	"3/14/2024"
Time :	"12:32:39 PM"
Samplename : 	""
SampMemo(0) : 	""
SampMemo(1) : 	""
SampMemo(2) : 	""
SampMemo(3) : 	""
SampMemo(4) : 	""
SampMemo(5) : 	""
SampMemo(6) : 	""
SampMemo(7) : 	""
SampMemo(8) : 	""
SampMemo(9) : 	""
Temperature [K] :	     298.16000
Viscosity [cp]  :	       0.89000
Refractive Index:	       1.33200
Wavelength [nm] :	       0.00000
Angle [°]       :	       0.00000
Duration [s]    :	         1
FloatDur [ms]   :	          944
Stop TP [ms]   :	      3213
Runs            :	         1
Mode            :	"A-CH0+1  A-CH2+3 "
MeanCR0 [kHz]   :	     145.30923
MeanCR1 [kHz]   :	     145.63561
MeanCR2 [kHz]   :	     141.43520
MeanCR3 [kHz]   :	     137.42130

"Correlation"
  3.12500E-006	 -1.00000E+000	 -1.00000E+000	 -1.00000E+000	 -1.00000E+000
  6.25000E-006	 -1.00000E+000	 -1.00000E+000	 -1.00000E+000	 -1.00000E+000
  9.37500E-006	 -1.00000E+000	 -1.00000E+000	 -1.00000E+000	 -1.00000E+000
  1.25000E-005	 -1.00000E+000	 -1.00000E+000	 -1.00000E+000	 -1.00000E+000
  1.56250E-005	 -1.00000E+000	 -1.00000E+000	 -1.00000E+000	 -1.00000E+000
  1.87500E-005	 -1.00000E+000	 -1.00000E+000	 -1.00000E+000	 -1.00000E+000
  2.18750E-005	 -9.35764E-001	 -2.32614E-001	 -2.71112E-001	 -9.82044E-001
  2.50000E-005	  5.48787E+000	  5.85851E+000	  5.57695E+000	  1.09943E+001
  2.81250E-005	  1.61763E+000	  1.09432E+000	  1.11886E+000	  4.00961E+000
  3.12500E-005	  7.18323E-001	  7.90566E-001	  1.00021E+000	  2.16018E+000
  3.43750E-005	  8.30737E-001	  7.58592E-001	  8.81549E-001	  1.87289E+000
  3.75000E-005	  7.02264E-001	  4.86810E-001	  8.13745E-001	  1.58560E+000
  4.06250E-005	  6.38028E-001	  8.06554E-001	  6.10335E-001	  1.31627E+000
  4.37500E-005	  6.05910E-001	  6.78656E-001	  9.15451E-001	  1.22649E+000
  4.68750E-005	  4.93496E-001	  6.94643E-001	  5.59482E-001	  9.21247E-001
  5.00000E-005	  5.09555E-001	  7.26618E-001	  3.89973E-001	  1.29831E+000
  5.62500E-005	  5.65762E-001	  3.98880E-001	  5.51006E-001	  1.07387E+000
  6.25000E-005	  5.49703E-001	  4.78816E-001	  5.00154E-001	  1.17263E+000
  6.87500E-005	  5.09555E-001	  5.26778E-001	  5.93384E-001	  9.39203E-001
  7.50000E-005	  6.46057E-001	  3.18944E-001	  4.91678E-001	  6.07024E-001
  8.12500E-005	  5.65762E-001	  3.50918E-001	  6.95089E-001	  7.77603E-001
  8.75000E-005	  5.09555E-001	  3.66906E-001	  6.18810E-001	  5.80091E-001
  9.37500E-005	  5.25614E-001	  4.86810E-001	  5.25580E-001	  7.50669E-001
  1.00000E-004	  3.32905E-001	  4.62829E-001	  5.51006E-001	  7.14758E-001
  1.12500E-004	  5.05540E-001	  4.06873E-001	  5.12867E-001	  5.17246E-001
  1.25000E-004	  5.41673E-001	  4.58832E-001	  6.27285E-001	  5.84580E-001
  1.37500E-004	  5.45688E-001	  5.38768E-001	  4.15399E-001	  4.67869E-001
  1.50000E-004	  5.17584E-001	  4.38848E-001	  6.14572E-001	  6.47424E-001
  1.62500E-004	  3.32905E-001	  5.26777E-001	  4.78965E-001	  5.98047E-001
  1.75000E-004	  5.57732E-001	  5.46761E-001	  6.23048E-001	  6.74358E-001
  1.87500E-004	  3.97141E-001	  5.54755E-001	  5.21342E-001	  6.29469E-001
  2.00000E-004	  4.57362E-001	  5.02796E-001	  5.12866E-001	  5.01535E-001
  2.25000E-004	  5.29628E-001	  4.40846E-001	  4.55657E-001	  5.30713E-001
  2.50000E-004	  4.81451E-001	  4.50838E-001	  3.37001E-001	  5.15002E-001
  2.75000E-004	  4.69407E-001	  5.30774E-001	  3.45476E-001	  5.50913E-001
  3.00000E-004	  4.87473E-001	  4.42844E-001	  4.45063E-001	  4.90313E-001
  3.25000E-004	  4.89481E-001	  3.94883E-001	  4.51419E-001	  5.08268E-001
  3.50000E-004	  4.55355E-001	  5.68743E-001	  6.06096E-001	  3.87068E-001
  3.75000E-004	  5.03532E-001	  5.74739E-001	  5.84908E-001	  4.79091E-001
  4.00000E-004	  4.27251E-001	  4.83811E-001	  5.74313E-001	  4.17368E-001
  4.50000E-004	  5.19591E-001	  4.97800E-001	  4.36587E-001	  5.61012E-001
  5.00000E-004	  4.60373E-001	  4.93803E-001	  5.32995E-001	  5.15001E-001
  5.50000E-004	  4.42306E-001	  5.13787E-001	  4.72607E-001	  4.84701E-001
  6.00000E-004	  4.64377E-001	  4.25857E-001	  4.31290E-001	  5.53157E-001
  6.50000E-004	  4.85454E-001	  4.72820E-001	  5.36173E-001	  4.62257E-001
  7.00000E-004	  4.28244E-001	  4.91804E-001	  5.04390E-001	  4.62257E-001
  7.50000E-004	  4.35270E-001	  5.24778E-001	  4.89558E-001	  5.01534E-001
  8.00000E-004	  4.47825E-001	  5.01296E-001	  5.12864E-001	  5.21172E-001
  9.00000E-004	  4.28755E-001	  4.86807E-001	  5.03330E-001	  4.44300E-001
  1.00000E-003	  5.01021E-001	  4.72319E-001	  4.83200E-001	  4.83578E-001
  1.10000E-003	  4.69907E-001	  4.83810E-001	  4.87438E-001	  4.37005E-001
  1.20000E-003	  4.39796E-001	  4.91304E-001	  4.95914E-001	  4.56644E-001
  1.30000E-003	  4.70409E-001	  4.80312E-001	  4.77374E-001	  5.43055E-001
  1.40000E-003	  4.58354E-001	  4.72818E-001	  4.57774E-001	  4.88066E-001
  1.50000E-003	  4.52332E-001	  4.77814E-001	  5.11275E-001	  5.12755E-001
  1.60000E-003	  4.36782E-001	  4.60326E-001	  4.74987E-001	  5.24256E-001
  1.80000E-003	  4.72915E-001	  4.81559E-001	  4.92468E-001	  5.00689E-001
  2.00000E-003	  4.43056E-001	  4.71067E-001	  5.00679E-001	  4.85258E-001
  2.20000E-003	  4.26495E-001	  4.96547E-001	  4.89555E-001	  4.83294E-001
  2.40000E-003	  4.51336E-001	  4.60076E-001	  4.67836E-001	  4.37564E-001
  2.60000E-003	  4.87971E-001	  4.88303E-001	  4.85317E-001	  4.54678E-001
  2.80000E-003	  4.57609E-001	  4.91301E-001	  4.72339E-001	  5.06019E-001
  3.00000E-003	  4.66130E-001	  4.38094E-001	  4.91938E-001	  4.52995E-001
  3.20000E-003	  4.38158E-001	  4.54211E-001	  4.88490E-001	  4.81887E-001
  3.60000E-003	  4.50453E-001	  4.71573E-001	  4.71672E-001	  4.68140E-001
  4.00000E-003	  4.27995E-001	  4.77443E-001	  4.83458E-001	  4.69121E-001
  4.40000E-003	  4.62999E-001	  4.81190E-001	  4.50483E-001	  4.43451E-001
  4.80000E-003	  4.61368E-001	  4.60082E-001	  4.81604E-001	  4.77538E-001
  5.20000E-003	  4.51582E-001	  4.47966E-001	  4.85312E-001	  4.81185E-001
  5.60000E-003	  4.50704E-001	  4.52713E-001	  4.65580E-001	  4.84692E-001
  6.00000E-003	  4.58733E-001	  4.73196E-001	  4.53662E-001	  4.71085E-001
  6.40000E-003	  4.54280E-001	  4.56409E-001	  4.55837E-001	  4.76336E-001
  7.20000E-003	  4.50516E-001	  4.53099E-001	  4.66431E-001	  4.79211E-001
  8.00000E-003	  4.25424E-001	  4.60395E-001	  4.66574E-001	  4.62869E-001
  8.80000E-003	  4.37343E-001	  4.53088E-001	  4.81815E-001	  4.46387E-001
  9.60000E-003	  4.51029E-001	  4.48529E-001	  4.74079E-001	  4.79772E-001
  1.04000E-002	  4.43877E-001	  4.40973E-001	  4.53364E-001	  4.74582E-001
  1.12000E-002	  4.24180E-001	  4.45969E-001	  4.69852E-001	  4.43511E-001
  1.20000E-002	  4.39737E-001	  4.51902E-001	  4.78592E-001	  4.64903E-001
  1.28000E-002	  4.38725E-001	  4.50435E-001	  4.71267E-001	  4.64637E-001
  1.44000E-002	  4.24955E-001	  4.24425E-001	  4.57461E-001	  4.50960E-001
  1.60000E-002	  4.28583E-001	  4.39382E-001	  4.54448E-001	  4.60919E-001
  1.76000E-002	  4.07756E-001	  4.29483E-001	  4.48135E-001	  4.36090E-001
  1.92000E-002	  4.07160E-001	  4.22177E-001	  4.31482E-001	  4.29848E-001
  2.08000E-002	  4.01953E-001	  4.22354E-001	  4.34505E-001	  4.22834E-001
  2.24000E-002	  3.90442E-001	  4.09395E-001	  4.26525E-001	  4.29883E-001
  2.40000E-002	  4.01179E-001	  4.06460E-001	  4.21228E-001	  4.31426E-001
  2.56000E-002	  4.02695E-001	  4.12485E-001	  4.28366E-001	  4.24628E-001
  2.88000E-002	  3.79739E-001	  3.96716E-001	  4.07104E-001	  4.15703E-001
  3.20000E-002	  3.69116E-001	  3.87661E-001	  3.90069E-001	  4.05248E-001
  3.52000E-002	  3.64850E-001	  3.82369E-001	  3.97341E-001	  3.93103E-001
  3.84000E-002	  3.59361E-001	  3.67287E-001	  3.83639E-001	  3.95429E-001
  4.16000E-002	  3.51713E-001	  3.59752E-001	  3.68330E-001	  3.64428E-001
  4.48000E-002	  3.35929E-001	  3.47054E-001	  3.74720E-001	  3.72686E-001
  4.80000E-002	  3.31462E-001	  3.51571E-001	  3.55106E-001	  3.55958E-001
  5.12000E-002	  3.26577E-001	  3.37143E-001	  3.61231E-001	  3.47198E-001
  5.76000E-002	  3.08491E-001	  3.22831E-001	  3.44034E-001	  3.31715E-001
  6.40000E-002	  2.98483E-001	  3.08868E-001	  3.20961E-001	  3.15461E-001
  7.04000E-002	  2.77744E-001	  2.99384E-001	  3.16698E-001	  3.08307E-001
  7.68000E-002	  2.69886E-001	  2.80142E-001	  3.03134E-001	  2.88842E-001
  8.32000E-002	  2.52033E-001	  2.73969E-001	  2.90603E-001	  2.81949E-001
  8.96000E-002	  2.39860E-001	  2.57623E-001	  2.73013E-001	  2.63511E-001
  9.60000E-002	  2.25789E-001	  2.55267E-001	  2.64060E-001	  2.55192E-001
  1.02400E-001	  2.16996E-001	  2.38199E-001	  2.49643E-001	  2.45633E-001
  1.15200E-001	  1.98148E-001	  2.16721E-001	  2.35404E-001	  2.31520E-001
  1.28000E-001	  1.87770E-001	  2.07688E-001	  2.14710E-001	  2.08410E-001
  1.40800E-001	  1.67084E-001	  1.90215E-001	  2.03493E-001	  1.98644E-001
  1.53600E-001	  1.53617E-001	  1.76200E-001	  1.85696E-001	  1.85625E-001
  1.66400E-001	  1.39300E-001	  1.63909E-001	  1.76708E-001	  1.70888E-001
  1.79200E-001	  1.29991E-001	  1.51557E-001	  1.64100E-001	  1.62064E-001
  1.92000E-001	  1.19102E-001	  1.48220E-001	  1.53400E-001	  1.52872E-001
  2.04800E-001	  1.11474E-001	  1.36945E-001	  1.47063E-001	  1.43469E-001
  2.30400E-001	  9.85381E-002	  1.22086E-001	  1.27258E-001	  1.30923E-001
  2.56000E-001	  8.87946E-002	  1.06842E-001	  1.10014E-001	  1.13822E-001
  2.81600E-001	  7.92072E-002	  9.34478E-002	  1.00345E-001	  9.91592E-002
  3.07200E-001	  6.89969E-002	  8.44894E-002	  8.94547E-002	  8.66694E-002
  3.32800E-001	  6.05120E-002	  7.31260E-002	  8.15486E-002	  7.92052E-002
  3.58400E-001	  5.90369E-002	  6.58456E-002	  7.08428E-002	  6.94913E-002
  3.84000E-001	  5.07284E-002	  5.98901E-002	  6.61995E-002	  6.48736E-002
  4.09600E-001	  4.42255E-002	  5.43761E-002	  5.88579E-002	  5.89915E-002
  4.60800E-001	  3.74770E-002	  4.54353E-002	  4.73867E-002	  4.83586E-002
  5.12000E-001	  3.26917E-002	  3.75293E-002	  3.53818E-002	  3.72578E-002
  5.63200E-001	  2.80490E-002	  3.44286E-002	  3.00020E-002	  2.74898E-002
  6.14400E-001	  2.10769E-002	  3.29148E-002	  2.73212E-002	  2.15029E-002
  6.65600E-001	  1.22569E-002	  3.01464E-002	  2.27127E-002	  1.67875E-002
  7.16800E-001	  9.87170E-003	  2.45057E-002	  1.60624E-002	  1.11820E-002
  7.68000E-001	  7.42012E-003	  1.90724E-002	  1.74679E-002	  3.81029E-003
  8.19200E-001	  1.02094E-002	  2.20019E-002	  1.65444E-002	  2.29602E-003
  9.21600E-001	  1.10019E-002	  2.07682E-002	  1.11351E-002	 -6.69286E-003
  1.02400E+000	  5.63996E-003	  1.71380E-002	  2.00878E-003	 -8.83595E-003
  1.12640E+000	  1.47284E-003	  1.90896E-002	 -7.51761E-004	 -1.09672E-002
  1.22880E+000	  3.07723E-003	  1.64789E-002	 -4.06590E-003	 -1.17738E-002
  1.33120E+000	  2.48586E-003	  1.02897E-002	 -6.86093E-003	 -1.12994E-002
  1.43360E+000	  4.54865E-003	  1.14352E-002	 -2.58250E-003	 -1.01260E-002
  1.53600E+000	  2.01215E-003	  9.61397E-003	 -2.49261E-003	 -1.01004E-002
  1.63840E+000	 -4.68438E-003	  9.40233E-003	 -4.36115E-003	 -1.04169E-002
  1.84320E+000	 -5.91125E-003	  8.77808E-003	 -1.76437E-003	 -4.71458E-003
  2.04800E+000	 -2.05644E-003	  1.20145E-002	  8.68880E-003	 -6.50682E-004
  2.25280E+000	  3.27347E-003	  9.82736E-003	  2.52661E-003	  2.35209E-003
  2.45760E+000	  1.50124E-004	 -7.60710E-004	  7.04340E-003	 -8.40837E-003
  2.66240E+000	 -1.23380E-002	 -1.49558E-003	  6.73443E-003	 -4.69208E-003
  2.86720E+000	 -1.26524E-002	 -1.84329E-003	  3.14757E-003	  1.23764E-004
  3.07200E+000	 -1.23696E-002	 -3.72758E-003	 -5.18505E-003	 -2.23752E-003
  3.27680E+000	 -1.40320E-002	 -8.01160E-003	 -5.19372E-003	 -4.33019E-003
  3.68640E+000	 -4.90650E-003	 -1.11233E-002	 -4.94442E-003	 -7.07953E-003
  4.09600E+000	 -5.75611E-003	 -5.95059E-003	  7.68001E-004	 -4.08540E-003
  4.50560E+000	  3.18937E-003	 -7.01584E-003	  3.92627E-003	  1.32589E-003
  4.91520E+000	  5.01471E-003	  4.05332E-003	  4.00860E-003	  7.94849E-003
  5.32480E+000	 -1.30743E-003	  9.43786E-003	  3.37829E-003	  4.78106E-004
  5.73440E+000	 -3.14705E-003	  4.92091E-003	 -1.32010E-002	 -2.86449E-003
  6.14400E+000	 -1.92230E-003	  1.02670E-002	 -1.01445E-002	 -6.85641E-003
  6.55360E+000	  1.67437E-003	  5.72646E-003	 -1.01785E-002	  1.68488E-003
  7.37280E+000	  8.93191E-004	  2.21657E-003	 -7.70977E-003	 -5.57200E-003
  8.19200E+000	 -4.31547E-003	 -7.49874E-003	 -2.29969E-003	  4.89504E-004
  9.01120E+000	 -7.34259E-003	 -1.48943E-003	  3.93481E-003	 -1.83716E-003
  9.83040E+000	 -4.88436E-003	 -2.26755E-003	  9.77150E-003	  2.54705E-003
  1.06496E+001	  7.49201E-004	 -1.29724E-003	  5.97177E-003	  6.03548E-003
  1.14688E+001	  3.98967E-003	 -1.69937E-003	  3.62024E-003	 -8.88836E-003
  1.22880E+001	  5.47468E-003	  6.33438E-003	 -3.17640E-003	 -6.62357E-004
  1.31072E+001	  3.39299E-003	  4.87348E-003	 -1.73015E-003	 -3.28177E-003
  1.47456E+001	 -5.59143E-003	 -2.69337E-004	  2.34391E-003	  1.28797E-003
  1.63840E+001	 -1.68559E-003	 -3.22381E-003	 -5.93997E-003	  2.05473E-003
  1.80224E+001	 -4.60689E-003	  2.30265E-003	 -5.97040E-003	  1.69116E-003
  1.96608E+001	 -4.09380E-003	 -1.91575E-003	 -3.15014E-003	 -2.13255E-003
  2.12992E+001	 -5.28963E-004	 -2.42838E-003	  3.70704E-004	 -2.42901E-003
  2.29376E+001	  8.50606E-004	  9.16189E-003	 -5.53421E-003	 -3.85905E-003
  2.45760E+001	  4.65024E-003	  4.84881E-003	  3.22058E-003	  1.15688E-003
  2.62144E+001	 -9.02919E-004	  2.12424E-003	  7.71681E-003	  3.35719E-003
  2.94912E+001	 -8.83903E-004	  6.23020E-003	 -8.15888E-005	  4.55274E-003
  3.27680E+001	  4.08430E-004	 -3.10922E-003	 -9.07370E-003	  4.54471E-003
  3.60448E+001	  6.32628E-003	  5.93285E-003	  3.57548E-003	 -3.51646E-003
  3.93216E+001	 -4.37267E-004	  6.97528E-003	  7.45050E-003	  1.63536E-003
  4.25984E+001	 -7.68983E-004	  5.17554E-004	 -3.47785E-004	 -1.01896E-002
  4.58752E+001	  3.17792E-003	  2.51273E-003	 -4.65066E-003	  3.85045E-003
  4.91520E+001	 -5.01498E-003	  1.84100E-003	  1.92511E-003	 -5.32974E-003
  5.24288E+001	 -3.22994E-003	  1.63834E-003	  1.41872E-003	 -2.03786E-003
  5.89824E+001	 -1.92837E-003	  2.46844E-005	 -1.85137E-003	  7.90542E-004
  6.55360E+001	  9.38423E-004	 -7.12168E-004	 -3.13601E-003	 -6.99079E-004
  7.20896E+001	  2.53429E-004	  1.88522E-003	 -8.62902E-004	 -2.38780E-003
  7.86432E+001	 -1.26076E-004	  4.47411E-003	 -3.22440E-003	 -4.05633E-003
  8.51968E+001	  4.20746E-004	 -2.01336E-003	  2.27346E-004	 -9.40783E-004
  9.17504E+001	  5.50007E-004	 -1.68062E-003	  2.22711E-003	  2.96047E-003
  9.83040E+001	 -1.81916E-003	 -1.60488E-003	 -1.17834E-003	 -3.05343E-003
  1.04858E+002	 -1.92005E-003	  4.89711E-005	 -1.06718E-004	 -3.04377E-003
  1.17965E+002	  1.47828E-003	 -5.97537E-004	 -7.08867E-004	  4.14513E-003
  1.31072E+002	 -4.92711E-004	  2.49941E-003	  6.93712E-004	 -2.33111E-003
  1.44179E+002	 -2.80879E-003	  2.66224E-003	  4.65396E-004	  2.47414E-003
  1.57286E+002	 -4.58267E-004	  1.92759E-003	  1.78981E-003	 -9.41852E-005
  1.70394E+002	 -2.32531E-004	  1.24015E-003	 -8.61769E-004	 -8.50424E-004
  1.83501E+002	  1.49199E-003	  5.33445E-003	  1.64765E-003	  1.76377E-004
  1.96608E+002	  4.20855E-004	  3.96771E-003	 -9.21198E-004	 -3.09557E-003
  2.09715E+002	  1.22339E-003	  2.52033E-003	 -1.60486E-003	 -1.34065E-004
  2.35930E+002	 -3.00563E-004	  2.62650E-003	 -5.53663E-004	  3.06269E-004
  2.62144E+002	 -2.32985E-004	  1.15006E-003	 -3.19355E-004	 -1.41799E-004
  2.88358E+002	  4.39442E-004	 -1.76361E-003	 -7.05692E-004	 -6.34755E-004
  3.14573E+002	 -4.39357E-004	 -2.46272E-003	 -2.31534E-004	  2.77187E-004
  3.40787E+002	 -2.56514E-003	 -3.92200E-004	 -9.02979E-004	  9.93556E-004
  3.67002E+002	 -8.61005E-004	  6.55184E-004	  1.26353E-003	  7.45848E-004
  3.93216E+002	  1.41761E-003	  3.17978E-003	 -1.88658E-003	 -2.53564E-003

"Count Rate"
       0.01311	     145.79773	     117.41638	     151.74866	     141.98303
       0.02621	     121.84143	     144.34814	     130.69153	     120.23926
       0.03932	     139.69421	     158.38623	     129.69971	     150.75684
       0.05243	     152.35901	     169.60144	     125.12207	     124.51172
       0.06554	     133.66699	     141.06750	     156.47888	     119.47632
       0.07864	     137.48169	     137.25281	     155.79224	     100.40283
       0.09175	     156.17371	     153.35083	     139.84680	     116.57715
       0.10486	     136.94763	     167.69409	     138.70239	     139.77051
       0.11796	     160.82764	     144.50073	     142.44080	     154.87671
       0.13107	     126.72424	     130.53894	     126.87683	     134.65881
       0.14418	     157.16553	     141.37268	     117.72156	     149.61243
       0.15729	     140.30457	     140.38086	     135.95581	     143.35632
       0.17039	     133.13293	     180.28259	     146.86584	     129.62341
       0.18350	     155.25818	     130.99670	     125.12207	     118.33191
       0.19661	     149.00208	     180.20630	     141.98303	     146.56067
       0.20972	     143.66150	     136.48987	     139.31274	     127.18201
       0.22282	     138.24463	     154.34265	     155.63965	     130.31006
       0.23593	     137.48169	     184.32617	     127.56348	     133.13293
       0.24904	     130.15747	     187.91199	     138.62610	     128.40271
       0.26214	     102.92053	     144.65332	     137.25281	     174.25537
       0.27525	     140.76233	     127.63977	     165.55786	     150.98572
       0.28836	     133.66699	     146.33179	     149.30725	     137.93945
       0.30147	     147.24731	     135.72693	     117.95044	     131.45447
       0.31457	     141.44897	     148.54431	     122.83325	     129.54712
       0.32768	     157.39441	     132.52258	     111.61804	     135.26917
       0.34079	     137.55798	     127.86865	     101.62354	     122.14661
       0.35389	     145.18738	     179.06189	     152.20642	     142.59338
       0.36700	     181.65588	     145.18738	     140.30457	     121.38367
       0.38011	     143.43262	     142.89856	     142.05933	     151.06201
       0.39322	     123.82507	     176.92566	     124.96948	     123.97766
       0.40632	     147.24731	     139.92310	     174.40796	     131.22559
       0.41943	     145.11108	     152.74048	     122.45178	     126.11389
       0.43254	     151.82495	     162.81128	     159.53064	     121.76514
       0.44564	     160.06470	     130.69153	     146.02661	     141.75415
       0.45875	     144.65332	     145.26367	     123.21472	     140.68604
       0.47186	     124.89319	     138.93127	     127.79236	     144.57703
       0.48497	     155.25818	     136.64246	     129.92859	     124.20654
       0.49807	     130.00488	     143.50891	     130.31006	     159.37805
       0.51118	     123.36731	     114.21204	     146.56067	     115.28015
       0.52429	     153.80859	     144.57703	     140.68604	     143.50891
       0.53740	     151.13831	     119.78149	     157.69958	     127.02942
       0.55050	     167.69409	     134.50623	     151.90125	     123.74878
       0.56361	     147.09473	     126.95313	     131.37817	     159.83582
       0.57672	     147.70508	     136.87134	     142.21191	     127.48718
       0.58982	     144.34814	     112.91504	     154.26636	     155.41077
       0.60293	     157.62329	     176.62048	     128.02124	     125.73242
       0.61604	     171.27991	     156.86035	     138.85498	     158.46252
       0.62915	     134.42993	     141.37268	     144.42444	     124.89319
       0.64225	     156.09741	     127.94495	     169.67773	     122.98584
       0.65536	     137.25281	     155.10559	     146.25549	     133.05664
       0.66847	     138.01575	     125.96130	     163.49792	     124.28284
       0.68157	     129.31824	     122.83325	     136.03210	     134.50623
       0.69468	     139.84680	     142.21191	     142.97485	     129.31824
       0.70779	     122.75696	     124.28284	     136.48987	     148.31543
       0.72090	     163.11646	     118.86597	     152.13013	     141.37268
       0.73400	     160.82764	     130.61523	     138.54980	     145.79773
       0.74711	     145.11108	     122.45178	     146.56067	     147.55249
