ALV-7004/USB-FAST
Date :	"3/14/2024"
Time :	"12:34:14 PM"
Samplename : 	""
SampMemo(0) : 	""
SampMemo(1) : 	""
SampMemo(2) : 	""
SampMemo(3) : 	""
SampMemo(4) : 	""
SampMemo(5) : 	""
SampMemo(6) : 	""
SampMemo(7) : 	""
SampMemo(8) : 	""
SampMemo(9) : 	""
Temperature [K] :	     298.16000
Viscosity [cp]  :	       0.89000
Refractive Index:	       1.33200
Wavelength [nm] :	       0.00000
Angle [°]       :	       0.00000
Duration [s]    :	         1
FloatDur [ms]   :	          944
Stop TP [ms]   :	      3461
Runs            :	         1
Mode            :	"A-CH0+1  A-CH2+3 "
MeanCR0 [kHz]   :	     111.93276
MeanCR1 [kHz]   :	     112.33330
MeanCR2 [kHz]   :	     105.33439
MeanCR3 [kHz]   :	     112.29833

"Correlation"
  3.12500E-006	 -1.00000E+000	 -1.00000E+000	 -1.00000E+000	 -1.00000E+000
  6.25000E-006	 -1.00000E+000	 -1.00000E+000	 -1.00000E+000	 -1.00000E+000
  9.37500E-006	 -1.00000E+000	 -1.00000E+000	 -1.00000E+000	 -1.00000E+000
  1.25000E-005	 -1.00000E+000	 -1.00000E+000	 -1.00000E+000	 -1.00000E+000
  1.56250E-005	 -1.00000E+000	 -1.00000E+000	 -1.00000E+000	 -1.00000E+000
  1.87500E-005	 -1.00000E+000	 -1.00000E+000	 -1.00000E+000	 -1.00000E+000
  2.18750E-005	 -9.45872E-001	 -4.08829E-001	 -5.26098E-002	 -9.19336E-001
  2.50000E-005	  6.44262E+000	  6.28215E+000	  6.39576E+000	  1.22559E+001
  2.81250E-005	  2.16650E+000	  1.52591E+000	  1.50600E+000	  5.48004E+000
  3.12500E-005	  1.21925E+000	  5.85413E-001	  8.64219E-001	  3.14078E+000
  3.43750E-005	  1.24632E+000	  7.73513E-001	  7.41975E-001	  2.22658E+000
  3.75000E-005	  7.32101E-001	  5.31671E-001	  4.97488E-001	  2.01147E+000
  4.06250E-005	  1.08393E+000	  3.70442E-001	  4.97488E-001	  1.82326E+000
  4.37500E-005	  1.02981E+000	  5.85413E-001	  4.66927E-001	  1.82326E+000
  4.68750E-005	  4.07332E-001	  6.92899E-001	  6.19732E-001	  1.50060E+000
  5.00000E-005	  5.56184E-001	  7.19770E-001	  7.11414E-001	  1.64848E+000
  5.62500E-005	  5.83248E-001	  5.85413E-001	  4.97488E-001	  1.03006E+000
  6.25000E-005	  5.15588E-001	  4.37621E-001	  7.87817E-001	  9.62835E-001
  6.87500E-005	  7.18569E-001	  4.24185E-001	  8.18378E-001	  9.76279E-001
  7.50000E-005	  6.91504E-001	  4.91363E-001	  6.65573E-001	  7.61174E-001
  8.12500E-005	  7.05036E-001	  6.25720E-001	  6.04451E-001	  1.13761E+000
  8.75000E-005	  6.10312E-001	  4.91363E-001	  4.97488E-001	  5.46069E-001
  9.37500E-005	  6.50908E-001	  5.98849E-001	  7.11414E-001	  9.49391E-001
  1.00000E-004	  7.92994E-001	  5.51824E-001	  4.51646E-001	  7.00675E-001
  1.12500E-004	  5.02056E-001	  4.64492E-001	  7.11414E-001	  5.66235E-001
  1.25000E-004	  4.88524E-001	  3.77160E-001	  2.98841E-001	  6.46899E-001
  1.37500E-004	  4.14098E-001	  5.31670E-001	  6.35012E-001	  6.46899E-001
  1.50000E-004	  5.56184E-001	  6.72745E-001	  5.35689E-001	  6.33455E-001
  1.62500E-004	  6.57674E-001	  4.84645E-001	  4.13445E-001	  7.41008E-001
  1.75000E-004	  4.20864E-001	  4.24185E-001	  5.35689E-001	  6.20011E-001
  1.87500E-004	  4.95290E-001	  3.16699E-001	  6.88493E-001	  6.67065E-001
  2.00000E-004	  6.54291E-001	  5.41747E-001	  6.15911E-001	  5.49429E-001
  2.25000E-004	  5.49418E-001	  5.38388E-001	  6.84673E-001	  5.66234E-001
  2.50000E-004	  5.93397E-001	  5.92131E-001	  5.96810E-001	  6.09927E-001
  2.75000E-004	  3.39671E-001	  4.67850E-001	  5.54789E-001	  6.26733E-001
  3.00000E-004	  6.13695E-001	  5.68618E-001	  4.55466E-001	  4.85570E-001
  3.25000E-004	  5.02055E-001	  5.45106E-001	  4.13444E-001	  4.92292E-001
  3.50000E-004	  5.08821E-001	  5.92131E-001	  5.92990E-001	  6.46899E-001
  3.75000E-004	  4.03948E-001	  5.08158E-001	  7.30514E-001	  5.49429E-001
  4.00000E-004	  5.29119E-001	  5.09836E-001	  5.31868E-001	  5.76317E-001
  4.50000E-004	  5.10512E-001	  5.56861E-001	  4.78386E-001	  5.52790E-001
  5.00000E-004	  4.20863E-001	  4.86324E-001	  4.74566E-001	  5.44387E-001
  5.50000E-004	  4.17480E-001	  4.24184E-001	  5.60518E-001	  4.92291E-001
  6.00000E-004	  4.74991E-001	  4.99760E-001	  5.64339E-001	  4.30112E-001
  6.50000E-004	  4.25937E-001	  4.40978E-001	  3.98163E-001	  4.97333E-001
  7.00000E-004	  4.81757E-001	  4.86324E-001	  5.52878E-001	  4.99013E-001
  7.50000E-004	  4.98672E-001	  5.24952E-001	  5.62429E-001	  5.74636E-001
  8.00000E-004	  4.91905E-001	  4.69528E-001	  5.16586E-001	  5.32622E-001
  9.00000E-004	  4.58920E-001	  4.63650E-001	  5.25181E-001	  4.83887E-001
  1.00000E-003	  4.96133E-001	  4.29221E-001	  5.51922E-001	  5.46906E-001
  1.10000E-003	  4.74144E-001	  4.78765E-001	  5.15631E-001	  5.00692E-001
  1.20000E-003	  4.62303E-001	  5.11515E-001	  5.39506E-001	  4.99012E-001
  1.30000E-003	  4.16633E-001	  4.71207E-001	  4.80295E-001	  5.20859E-001
  1.40000E-003	  4.47926E-001	  4.61970E-001	  4.79340E-001	  5.67913E-001
  1.50000E-003	  4.71607E-001	  4.62810E-001	  5.23271E-001	  5.61191E-001
  1.60000E-003	  4.36505E-001	  4.68266E-001	  5.12286E-001	  5.57827E-001
  1.80000E-003	  4.81330E-001	  4.97237E-001	  5.22313E-001	  5.23797E-001
  2.00000E-003	  4.62724E-001	  4.53991E-001	  4.90320E-001	  5.08252E-001
  2.20000E-003	  4.32700E-001	  4.54830E-001	  5.06555E-001	  5.18335E-001
  2.40000E-003	  4.54266E-001	  4.95137E-001	  4.94140E-001	  5.63709E-001
  2.60000E-003	  4.39888E-001	  4.76663E-001	  5.05123E-001	  5.47744E-001
  2.80000E-003	  4.30162E-001	  4.68266E-001	  4.85067E-001	  5.17075E-001
  3.00000E-003	  4.42426E-001	  4.67006E-001	  5.60515E-001	  5.39762E-001
  3.20000E-003	  4.65890E-001	  4.76238E-001	  5.02491E-001	  5.52360E-001
  3.60000E-003	  4.52781E-001	  4.92403E-001	  5.16578E-001	  5.27363E-001
  4.00000E-003	  4.84285E-001	  5.00185E-001	  4.87211E-001	  5.22531E-001
  4.40000E-003	  4.74348E-001	  4.93901E-001	  5.06550E-001	  5.42487E-001
  4.80000E-003	  4.45804E-001	  4.87603E-001	  5.21114E-001	  4.81149E-001
  5.20000E-003	  4.62507E-001	  4.64300E-001	  4.90076E-001	  5.43958E-001
  5.60000E-003	  4.52993E-001	  4.73327E-001	  5.04402E-001	  4.98374E-001
  6.00000E-003	  4.44535E-001	  4.67449E-001	  5.02969E-001	  5.17910E-001
  6.40000E-003	  4.44102E-001	  4.67229E-001	  4.92618E-001	  5.17795E-001
  7.20000E-003	  4.18942E-001	  4.58412E-001	  4.93812E-001	  5.22206E-001
  8.00000E-003	  4.43468E-001	  4.81819E-001	  4.90111E-001	  5.12648E-001
  8.80000E-003	  4.34694E-001	  4.70168E-001	  5.18285E-001	  5.36175E-001
  9.60000E-003	  4.64506E-001	  4.77726E-001	  4.99662E-001	  5.04981E-001
  1.04000E-002	  4.56154E-001	  4.60196E-001	  4.88559E-001	  5.12543E-001
  1.12000E-002	  4.64823E-001	  4.35424E-001	  5.01706E-001	  5.17164E-001
  1.20000E-002	  4.43680E-001	  4.58727E-001	  4.80695E-001	  5.09287E-001
  1.28000E-002	  4.48815E-001	  4.68496E-001	  4.88853E-001	  4.98057E-001
  1.44000E-002	  4.31794E-001	  4.54812E-001	  4.96777E-001	  5.07772E-001
  1.60000E-002	  4.51881E-001	  4.60900E-001	  4.74750E-001	  5.08784E-001
  1.76000E-002	  4.31808E-001	  4.57436E-001	  4.92703E-001	  5.21441E-001
  1.92000E-002	  4.25940E-001	  4.61845E-001	  4.78615E-001	  5.12723E-001
  2.08000E-002	  4.45498E-001	  4.58066E-001	  4.73482E-001	  5.02010E-001
  2.24000E-002	  4.41019E-001	  4.51414E-001	  4.80525E-001	  4.90194E-001
  2.40000E-002	  4.20509E-001	  4.41967E-001	  4.73780E-001	  4.97178E-001
  2.56000E-002	  4.35457E-001	  4.45735E-001	  4.68531E-001	  5.03914E-001
  2.88000E-002	  4.22876E-001	  4.49133E-001	  4.73799E-001	  4.92387E-001
  3.20000E-002	  4.20537E-001	  4.40447E-001	  4.70695E-001	  4.93122E-001
  3.52000E-002	  4.18105E-001	  4.44856E-001	  4.54652E-001	  4.83603E-001
  3.84000E-002	  4.18092E-001	  4.31565E-001	  4.69068E-001	  4.92621E-001
  4.16000E-002	  4.20735E-001	  4.28849E-001	  4.53488E-001	  4.83720E-001
  4.48000E-002	  4.09793E-001	  4.23574E-001	  4.38520E-001	  4.73900E-001
  4.80000E-002	  4.08736E-001	  4.14284E-001	  4.49623E-001	  4.89497E-001
  5.12000E-002	  4.11105E-001	  4.27476E-001	  4.42029E-001	  4.75176E-001
  5.76000E-002	  3.96027E-001	  4.19026E-001	  4.41254E-001	  4.76686E-001
  6.40000E-002	  3.94507E-001	  4.15168E-001	  4.38284E-001	  4.57978E-001
  7.04000E-002	  3.99635E-001	  4.06047E-001	  4.31106E-001	  4.55655E-001
  7.68000E-002	  3.80817E-001	  4.05864E-001	  4.27642E-001	  4.59422E-001
  8.32000E-002	  3.85217E-001	  3.98646E-001	  4.25045E-001	  4.47213E-001
  8.96000E-002	  3.68990E-001	  3.88936E-001	  4.15194E-001	  4.43641E-001
  9.60000E-002	  3.71395E-001	  3.86574E-001	  4.12016E-001	  4.41882E-001
  1.02400E-001	  3.71274E-001	  3.86015E-001	  4.09872E-001	  4.33919E-001
  1.15200E-001	  3.53405E-001	  3.79703E-001	  3.97521E-001	  4.30525E-001
  1.28000E-001	  3.47102E-001	  3.71901E-001	  3.83837E-001	  4.21966E-001
  1.40800E-001	  3.46215E-001	  3.59072E-001	  3.74568E-001	  4.14529E-001
  1.53600E-001	  3.39535E-001	  3.55082E-001	  3.72240E-001	  4.08568E-001
  1.66400E-001	  3.28492E-001	  3.41346E-001	  3.62001E-001	  4.03527E-001
  1.79200E-001	  3.25186E-001	  3.35985E-001	  3.59702E-001	  3.92945E-001
  1.92000E-001	  3.20362E-001	  3.26929E-001	  3.49083E-001	  3.90878E-001
  2.04800E-001	  3.10646E-001	  3.24147E-001	  3.41566E-001	  3.82098E-001
  2.30400E-001	  3.02816E-001	  3.12540E-001	  3.32084E-001	  3.69262E-001
  2.56000E-001	  2.93857E-001	  3.02267E-001	  3.18048E-001	  3.52949E-001
  2.81600E-001	  2.77067E-001	  2.93956E-001	  3.11381E-001	  3.41234E-001
  3.07200E-001	  2.67255E-001	  2.81933E-001	  2.93420E-001	  3.29567E-001
  3.32800E-001	  2.61441E-001	  2.69919E-001	  2.84975E-001	  3.16228E-001
  3.58400E-001	  2.45828E-001	  2.58561E-001	  2.72805E-001	  3.06350E-001
  3.84000E-001	  2.37646E-001	  2.47146E-001	  2.65359E-001	  2.92015E-001
  4.09600E-001	  2.28772E-001	  2.39338E-001	  2.52999E-001	  2.85917E-001
  4.60800E-001	  2.08385E-001	  2.20879E-001	  2.33654E-001	  2.70780E-001
  5.12000E-001	  1.94227E-001	  2.02866E-001	  2.13055E-001	  2.50773E-001
  5.63200E-001	  1.77811E-001	  1.86060E-001	  1.90655E-001	  2.33097E-001
  6.14400E-001	  1.60871E-001	  1.69486E-001	  1.75659E-001	  2.19212E-001
  6.65600E-001	  1.50514E-001	  1.54455E-001	  1.59968E-001	  2.01919E-001
  7.16800E-001	  1.40797E-001	  1.40982E-001	  1.46251E-001	  1.91054E-001
  7.68000E-001	  1.31879E-001	  1.31426E-001	  1.33226E-001	  1.78610E-001
  8.19200E-001	  1.19597E-001	  1.18909E-001	  1.23895E-001	  1.63426E-001
  9.21600E-001	  1.01102E-001	  1.00496E-001	  1.04906E-001	  1.41693E-001
  1.02400E+000	  8.68192E-002	  8.94583E-002	  8.82064E-002	  1.22151E-001
  1.12640E+000	  7.20121E-002	  7.76317E-002	  7.01517E-002	  1.05713E-001
  1.22880E+000	  6.19892E-002	  6.57890E-002	  5.73884E-002	  9.23578E-002
  1.33120E+000	  5.64906E-002	  6.06613E-002	  4.31533E-002	  8.16525E-002
  1.43360E+000	  4.86732E-002	  5.08118E-002	  3.34004E-002	  7.11731E-002
  1.53600E+000	  4.18476E-002	  4.00309E-002	  2.67995E-002	  6.00460E-002
  1.63840E+000	  3.69492E-002	  3.13653E-002	  2.43666E-002	  4.97014E-002
  1.84320E+000	  3.18820E-002	  2.01063E-002	  1.62725E-002	  3.49807E-002
  2.04800E+000	  3.17446E-002	  1.69239E-002	  1.14523E-002	  2.79151E-002
  2.25280E+000	  3.12419E-002	  1.62511E-002	  1.14777E-002	  2.61461E-002
  2.45760E+000	  2.73350E-002	  1.43304E-002	  1.35327E-002	  2.54374E-002
  2.66240E+000	  2.06512E-002	  8.91528E-003	  7.73700E-003	  2.64072E-002
  2.86720E+000	  1.62573E-002	  5.19449E-003	  2.61787E-003	  2.48222E-002
  3.07200E+000	  1.54081E-002	 -3.32013E-003	  2.89245E-003	  2.31221E-002
  3.27680E+000	  1.60018E-002	 -9.48759E-003	  3.65441E-003	  1.70145E-002
  3.68640E+000	  1.23130E-002	 -1.55518E-002	 -3.17793E-003	  9.22778E-003
  4.09600E+000	  1.35730E-002	 -5.17785E-003	 -1.83717E-002	  1.84965E-003
  4.50560E+000	  5.33637E-003	  3.69050E-003	 -3.21307E-002	 -7.96784E-004
  4.91520E+000	 -4.64332E-003	  8.89052E-003	 -3.66716E-002	 -1.17678E-002
  5.32480E+000	 -1.06898E-002	  7.75762E-003	 -3.70655E-002	 -2.28221E-002
  5.73440E+000	 -1.12851E-002	  6.62738E-003	 -3.73674E-002	 -2.13796E-002
  6.14400E+000	 -1.41132E-002	  1.01001E-002	 -2.52953E-002	 -1.35219E-002
  6.55360E+000	 -6.88606E-003	  1.24154E-002	 -1.33934E-002	 -5.79502E-003
  7.37280E+000	  2.07004E-003	  2.58636E-003	 -1.15899E-002	  5.54493E-003
  8.19200E+000	  7.80727E-003	  7.02029E-003	 -7.71090E-003	  3.90127E-003
  9.01120E+000	  1.76786E-004	  9.26905E-003	 -1.33309E-002	 -1.94954E-002
  9.83040E+000	  4.00174E-004	  2.13594E-003	 -1.59117E-002	 -1.58118E-002
  1.06496E+001	  6.54860E-003	  5.03710E-003	 -1.75559E-002	 -6.57686E-003
  1.14688E+001	  1.41647E-002	  1.05261E-002	  8.69351E-004	 -9.81541E-003
  1.22880E+001	  1.66167E-002	 -3.97796E-003	  3.59392E-003	 -2.30598E-002
  1.31072E+001	  1.80407E-002	 -1.38330E-002	  5.44572E-003	 -1.60705E-002
  1.47456E+001	  1.33447E-002	 -1.46628E-002	  8.69577E-003	 -1.26329E-002
  1.63840E+001	  1.10869E-002	  3.65770E-003	 -7.06747E-004	 -3.07484E-002
  1.80224E+001	  4.03456E-003	  2.20812E-003	 -6.73819E-003	 -1.82105E-002
  1.96608E+001	  2.63355E-003	 -5.18597E-003	 -7.75944E-003	 -1.63718E-002
  2.12992E+001	  1.00728E-002	 -1.13229E-002	 -2.99637E-003	  1.17386E-002
  2.29376E+001	 -3.65284E-003	  7.12406E-003	  1.75075E-002	  1.39618E-002
  2.45760E+001	  1.05873E-003	  2.22639E-002	  1.52580E-002	  9.12777E-003
  2.62144E+001	 -4.62863E-003	  1.78545E-002	  1.45344E-002	  5.05307E-003
  2.94912E+001	  8.85139E-003	 -1.29908E-002	  6.80670E-003	  2.14908E-002
  3.27680E+001	  8.07040E-003	 -1.65369E-002	 -9.94666E-003	  1.26172E-003
  3.60448E+001	 -6.08537E-003	 -7.97573E-003	  1.24647E-002	 -1.60403E-002
  3.93216E+001	 -9.75975E-003	 -1.97043E-002	  1.10989E-003	 -1.93679E-002
  4.25984E+001	 -1.33746E-002	  1.55658E-002	 -7.20976E-003	  4.65078E-003
  4.58752E+001	 -2.17802E-003	  6.01814E-003	 -1.17765E-002	  2.02493E-002
  4.91520E+001	 -3.79293E-003	 -2.32006E-003	  5.50074E-003	  4.76544E-003
  5.24288E+001	 -8.94782E-003	  5.91866E-003	 -3.09163E-003	 -7.69613E-003
  5.89824E+001	 -1.11266E-002	 -5.66039E-003	 -3.38205E-003	 -1.99951E-002
  6.55360E+001	  5.76397E-003	  8.68047E-003	  4.19024E-003	 -7.36158E-003
  7.20896E+001	  4.10890E-003	  1.25395E-002	 -9.93440E-003	  1.74508E-002
  7.86432E+001	 -1.34555E-002	 -1.39285E-002	 -3.76405E-003	  3.38089E-003
  8.51968E+001	  1.37420E-002	 -1.23281E-002	  1.52149E-003	 -1.78953E-002
  9.17504E+001	 -1.23267E-003	 -1.98790E-003	 -6.80603E-003	 -3.19093E-004
  9.83040E+001	 -4.46690E-003	 -6.01174E-003	 -1.45576E-002	  7.57499E-003
  1.04858E+002	  1.08749E-003	 -1.24902E-002	 -1.10260E-003	 -2.12280E-003
  1.17965E+002	 -4.18325E-004	  8.01806E-003	  2.27243E-004	 -6.55205E-003
  1.31072E+002	 -2.77632E-003	  6.46215E-004	 -7.07827E-003	 -1.52596E-003
  1.44179E+002	 -2.62200E-003	  4.38993E-004	  8.59840E-005	  9.23299E-003
  1.57286E+002	 -9.20063E-003	 -1.10903E-002	 -3.31050E-003	 -1.73717E-003
  1.70394E+002	 -1.83193E-002	 -8.60185E-003	  4.45618E-004	  1.02886E-002
  1.83501E+002	 -8.41188E-003	 -8.44453E-004	  4.33650E-003	 -2.01187E-003
  1.96608E+002	 -2.30603E-003	  7.65154E-003	  1.21778E-003	  1.80480E-003
  2.09715E+002	  9.67772E-004	 -2.13938E-003	 -1.94354E-004	 -1.57711E-003
  2.35930E+002	  6.88553E-003	 -4.67412E-003	  5.10723E-003	  9.31854E-004
  2.62144E+002	  8.21436E-004	  2.44776E-004	  1.65860E-003	 -2.22554E-003
  2.88358E+002	  4.59081E-003	 -2.23395E-003	  1.32591E-003	  2.98325E-003
  3.14573E+002	 -2.91947E-003	  6.48973E-003	 -6.56402E-004	  3.48399E-003
  3.40787E+002	  1.21115E-003	  5.54164E-004	 -3.93812E-003	 -6.31440E-003
  3.67002E+002	 -6.87637E-003	  6.85158E-003	 -4.98089E-003	 -3.91928E-003
  3.93216E+002	 -1.93686E-003	 -2.68428E-003	 -2.64415E-003	 -1.66128E-003

"Count Rate"
       0.01311	     131.30188	     119.78149	     103.98865	      99.71619
       0.02621	     103.30200	     102.15759	      97.35107	     101.54724
       0.03932	      90.94238	     109.48181	     119.01855	     123.59619
       0.05243	      91.78162	     138.77869	     133.89587	     116.95862
       0.06554	     118.40820	      96.58813	     110.39734	     118.02673
       0.07864	      98.34290	     107.57446	     110.54993	     109.32922
       0.09175	      79.72717	     135.95581	     131.98853	     114.44092
       0.10486	     146.40808	     106.81152	      95.21484	     106.81152
       0.11796	     108.26111	      97.65625	     122.22290	     100.47913
       0.13107	     106.58264	     107.42188	      92.01050	      88.50098
       0.14418	     157.62329	     116.95862	     115.05127	     103.37830
       0.15729	      78.04871	     106.96411	      91.78162	     108.64258
       0.17039	      89.56909	      96.66443	      88.95874	     102.92053
       0.18350	      60.19592	     116.80603	      87.73804	     113.22021
       0.19661	      94.29932	     123.36731	      89.49280	      91.09497
       0.20972	     134.73511	      75.98877	      95.82520	      96.74072
       0.22282	     111.99951	      71.71631	      87.73804	     106.27747
       0.23593	      87.05139	     104.82788	      97.88513	      83.08411
       0.24904	     118.17932	     120.54443	      92.39197	      99.86877
       0.26214	     135.72693	     118.56079	     158.38623	     118.48450
       0.27525	      98.26660	      89.56909	     110.01587	     139.54163
       0.28836	      99.94507	     125.42725	      89.56909	     141.22009
       0.30147	     117.56897	      96.05408	     103.07312	     100.70801
       0.31457	     123.51990	     137.25281	     104.21753	      83.69446
       0.32768	     133.97217	     124.51172	     106.73523	     159.75952
       0.34079	     145.64514	     159.37805	     128.02124	      52.87170
       0.35389	     207.36694	     124.13025	      86.66992	     133.36182
       0.36700	     132.06482	     101.77612	     102.00500	     119.40002
       0.38011	     124.96948	     171.35620	     126.03760	      61.11145
       0.39322	      69.88525	     114.05945	      64.08691	     104.06494
       0.40632	     100.47913	     100.63171	     112.45728	      78.96423
       0.41943	     121.91772	      58.82263	      92.08679	     132.67517
       0.43254	     132.75146	     108.03223	      85.06775	      89.72168
       0.44564	     120.62073	     120.08667	     109.40552	     101.16577
       0.45875	      99.48730	     152.35901	      83.92334	     134.96399
       0.47186	      92.31567	     133.81958	      89.18762	     132.59888
       0.48497	     110.85510	      94.52820	     105.74341	      75.83618
       0.49807	     101.77612	     110.62622	     114.66980	     117.34009
       0.51118	      88.80615	     131.45447	      99.48730	     114.36462
       0.52429	      82.09229	     109.10034	     106.58264	     133.28552
       0.53740	     121.00220	      57.44934	      98.03772	      90.48462
       0.55050	     124.43542	      77.05688	     116.04309	     102.00500
       0.56361	     121.84143	      89.03503	     134.81140	     145.03479
       0.57672	     122.83325	     114.97498	     103.68347	     128.47900
       0.58982	     125.96130	     122.75696	      95.90149	     109.71069
       0.60293	     106.65894	     103.91235	     131.60706	     135.19287
       0.61604	     110.62622	      75.22583	      76.67542	     160.67505
       0.62915	     108.41370	     126.95313	      90.63721	      58.05969
       0.64225	     108.03223	     121.30737	      85.06775	     119.62891
       0.65536	      88.72986	     126.41907	      67.36755	      81.93970
       0.66847	      99.86877	     116.04309	      86.97510	     106.88782
       0.68157	     121.38367	     129.31824	     111.23657	     107.26929
       0.69468	     104.98047	     107.57446	      95.67261	     149.15466
       0.70779	     102.23389	     131.83594	     126.11389	      85.37292
       0.72090	     106.96411	     102.38647	      93.91785	      99.33472
       0.73400	     105.97229	     102.08130	     145.18738	     159.98840
       0.74711	     109.71069	     143.96667	      93.91785	     130.99670
