ALV-7004/USB-FAST
Date :	"3/14/2024"
Time :	"12:31:29 PM"
Samplename : 	""
SampMemo(0) : 	""
SampMemo(1) : 	""
SampMemo(2) : 	""
SampMemo(3) : 	""
SampMemo(4) : 	""
SampMemo(5) : 	""
SampMemo(6) : 	""
SampMemo(7) : 	""
SampMemo(8) : 	""
SampMemo(9) : 	""
Temperature [K] :	     298.16000
Viscosity [cp]  :	       0.89000
Refractive Index:	       1.33200
Wavelength [nm] :	       0.00000
Angle [°]       :	       0.00000
Duration [s]    :	         1
FloatDur [ms]   :	          944
Stop TP [ms]   :	      3187
Runs            :	         1
Mode            :	"A-CH0+1  A-CH2+3 "
MeanCR0 [kHz]   :	     151.97859
MeanCR1 [kHz]   :	     148.88975
MeanCR2 [kHz]   :	     143.24294
MeanCR3 [kHz]   :	     142.16317

"Correlation"
  3.12500E-006	 -1.00000E+000	 -1.00000E+000	 -1.00000E+000	 -1.00000E+000
  6.25000E-006	 -1.00000E+000	 -1.00000E+000	 -1.00000E+000	 -1.00000E+000
  9.37500E-006	 -1.00000E+000	 -1.00000E+000	 -1.00000E+000	 -1.00000E+000
  1.25000E-005	 -1.00000E+000	 -1.00000E+000	 -1.00000E+000	 -1.00000E+000
  1.56250E-005	 -1.00000E+000	 -1.00000E+000	 -1.00000E+000	 -1.00000E+000
  1.87500E-005	 -1.00000E+000	 -1.00000E+000	 -1.00000E+000	 -1.00000E+000
  2.18750E-005	 -8.23833E-001	 -4.18752E-001	 -3.05919E-001	 -1.00000E+000
  2.50000E-005	  5.43009E+000	  5.08781E+000	  4.99885E+000	  9.08334E+000
  2.81250E-005	  1.75995E+000	  1.24851E+000	  1.19792E+000	  3.79840E+000
  3.12500E-005	  8.93792E-001	  7.13152E-001	  7.18678E-001	  1.78508E+000
  3.43750E-005	  7.17626E-001	  6.51968E-001	  1.03267E+000	  1.91930E+000
  3.75000E-005	  7.91028E-001	  6.51968E-001	  6.69100E-001	  1.63408E+000
  4.06250E-005	  7.32306E-001	  7.59040E-001	  4.70791E-001	  1.71797E+000
  4.37500E-005	  7.02945E-001	  7.74336E-001	  6.36049E-001	  1.21464E+000
  4.68750E-005	  8.35070E-001	  5.44896E-001	  8.50884E-001	  8.11982E-001
  5.00000E-005	  7.17626E-001	  4.68416E-001	  6.44312E-001	  9.37814E-001
  5.62500E-005	  4.68056E-001	  4.91360E-001	  9.41775E-001	  1.15592E+000
  6.25000E-005	  4.75396E-001	  7.89632E-001	  3.63374E-001	  1.18948E+000
  6.87500E-005	  6.29542E-001	  6.06080E-001	  5.53420E-001	  9.88147E-001
  7.50000E-005	  4.60716E-001	  5.83136E-001	  6.60837E-001	  5.26762E-001
  8.12500E-005	  6.73584E-001	  5.21952E-001	  4.62528E-001	  9.37814E-001
  8.75000E-005	  3.87313E-001	  5.52544E-001	  6.77363E-001	  4.17708E-001
  9.37500E-005	  5.92841E-001	  4.83712E-001	  4.95580E-001	  5.26762E-001
  1.00000E-004	  5.45129E-001	  5.60192E-001	  3.75768E-001	  4.63846E-001
  1.12500E-004	  5.52469E-001	  5.60192E-001	  5.57551E-001	  5.26762E-001
  1.25000E-004	  5.81830E-001	  5.10480E-001	  5.94734E-001	  4.68041E-001
  1.37500E-004	  6.51563E-001	  5.18128E-001	  5.74077E-001	  5.09985E-001
  1.50000E-004	  6.03851E-001	  5.67840E-001	  4.12951E-001	  4.38680E-001
  1.62500E-004	  5.45129E-001	  3.91936E-001	  7.02152E-001	  6.48400E-001
  1.75000E-004	  5.37789E-001	  5.06656E-001	  4.83185E-001	  6.02261E-001
  1.87500E-004	  5.37789E-001	  4.64592E-001	  5.82340E-001	  4.00930E-001
  2.00000E-004	  5.41458E-001	  5.00920E-001	  5.74077E-001	  5.35151E-001
  2.25000E-004	  4.79066E-001	  5.08568E-001	  5.51354E-001	  4.57554E-001
  2.50000E-004	  5.48799E-001	  4.56944E-001	  5.20368E-001	  4.30291E-001
  2.75000E-004	  4.66221E-001	  4.91360E-001	  5.26565E-001	  5.30956E-001
  3.00000E-004	  5.30448E-001	  4.05320E-001	  5.14171E-001	  5.26762E-001
  3.25000E-004	  4.79066E-001	  4.85624E-001	  4.91448E-001	  4.74332E-001
  3.50000E-004	  5.21273E-001	  4.05320E-001	  5.30697E-001	  5.03693E-001
  3.75000E-004	  5.23108E-001	  5.00920E-001	  5.53420E-001	  5.43540E-001
  4.00000E-004	  5.13932E-001	  5.13347E-001	  5.07973E-001	  5.56122E-001
  4.50000E-004	  5.37788E-001	  5.41071E-001	  4.70790E-001	  5.54025E-001
  5.00000E-004	  5.54303E-001	  3.90979E-001	  4.98666E-001	  5.02644E-001
  5.50000E-004	  4.48787E-001	  4.52163E-001	  4.95568E-001	  4.78526E-001
  6.00000E-004	  4.85488E-001	  4.77975E-001	  5.26553E-001	  5.00546E-001
  6.50000E-004	  4.90993E-001	  4.41647E-001	  4.82141E-001	  4.75380E-001
  7.00000E-004	  4.55209E-001	  5.11435E-001	  4.89360E-001	  5.24664E-001
  7.50000E-004	  4.82746E-001	  4.47383E-001	  5.08984E-001	  4.70137E-001
  8.00000E-004	  4.81827E-001	  4.59820E-001	  4.97127E-001	  4.89022E-001
  9.00000E-004	  5.16694E-001	  4.74638E-001	  4.99193E-001	  4.26640E-001
  1.00000E-003	  5.48808E-001	  5.02362E-001	  5.03840E-001	  4.84314E-001
  1.10000E-003	  4.95590E-001	  4.90412E-001	  5.12620E-001	  4.98994E-001
  1.20000E-003	  4.76781E-001	  5.04752E-001	  5.29145E-001	  4.87973E-001
  1.30000E-003	  4.64394E-001	  4.75594E-001	  5.16740E-001	  4.55466E-001
  1.40000E-003	  4.63017E-001	  4.01982E-001	  5.43078E-001	  4.82206E-001
  1.50000E-003	  4.92379E-001	  4.55518E-001	  5.37902E-001	  4.57563E-001
  1.60000E-003	  5.00405E-001	  4.73690E-001	  4.91185E-001	  4.28735E-001
  1.80000E-003	  5.24719E-001	  4.65325E-001	  5.10810E-001	  4.43415E-001
  2.00000E-003	  4.98570E-001	  4.77753E-001	  5.30457E-001	  4.65961E-001
  2.20000E-003	  4.68979E-001	  4.98546E-001	  4.74165E-001	  4.80379E-001
  2.40000E-003	  4.47876E-001	  4.72495E-001	  4.65127E-001	  4.85098E-001
  2.60000E-003	  4.63015E-001	  4.58165E-001	  4.83461E-001	  4.88244E-001
  2.80000E-003	  5.04992E-001	  4.65336E-001	  4.79588E-001	  4.59920E-001
  3.00000E-003	  5.19214E-001	  4.84217E-001	  5.12370E-001	  4.87184E-001
  3.20000E-003	  4.95478E-001	  4.72511E-001	  5.17821E-001	  4.81434E-001
  3.60000E-003	  4.98116E-001	  4.59007E-001	  4.98466E-001	  4.86284E-001
  4.00000E-003	  4.85959E-001	  4.57573E-001	  4.96916E-001	  4.78550E-001
  4.40000E-003	  4.79765E-001	  4.64146E-001	  4.91881E-001	  4.64394E-001
  4.80000E-003	  5.01557E-001	  4.66177E-001	  5.05954E-001	  4.84711E-001
  5.20000E-003	  4.90546E-001	  4.70589E-001	  4.59216E-001	  4.64525E-001
  5.60000E-003	  4.97657E-001	  4.56129E-001	  4.84393E-001	  4.52859E-001
  6.00000E-003	  5.10274E-001	  4.69872E-001	  5.05696E-001	  4.81423E-001
  6.40000E-003	  4.87690E-001	  4.61686E-001	  4.89226E-001	  4.71713E-001
  7.20000E-003	  4.88435E-001	  4.51588E-001	  4.96844E-001	  4.42603E-001
  8.00000E-003	  4.76106E-001	  4.61806E-001	  4.78574E-001	  4.63717E-001
  8.80000E-003	  4.88665E-001	  4.46819E-001	  4.80241E-001	  4.67584E-001
  9.60000E-003	  4.93013E-001	  4.63489E-001	  4.78100E-001	  4.46087E-001
  1.04000E-002	  4.80110E-001	  4.59247E-001	  4.76550E-001	  4.49495E-001
  1.12000E-002	  4.64569E-001	  4.49746E-001	  4.60411E-001	  4.56770E-001
  1.20000E-002	  4.82232E-001	  4.38622E-001	  4.79466E-001	  4.51996E-001
  1.28000E-002	  4.60223E-001	  4.45335E-001	  4.67429E-001	  4.63140E-001
  1.44000E-002	  4.67535E-001	  4.51639E-001	  4.66063E-001	  4.42418E-001
  1.60000E-002	  4.54202E-001	  4.47934E-001	  4.54162E-001	  4.39337E-001
  1.76000E-002	  4.67650E-001	  4.36940E-001	  4.48254E-001	  4.34007E-001
  1.92000E-002	  4.57002E-001	  4.30577E-001	  4.39732E-001	  4.32751E-001
  2.08000E-002	  4.52987E-001	  4.31662E-001	  4.42799E-001	  4.23957E-001
  2.24000E-002	  4.47625E-001	  4.15828E-001	  4.44682E-001	  4.30118E-001
  2.40000E-002	  4.44614E-001	  4.13588E-001	  4.38872E-001	  4.17010E-001
  2.56000E-002	  4.37953E-001	  4.14784E-001	  4.40654E-001	  4.20624E-001
  2.88000E-002	  4.31194E-001	  4.00783E-001	  4.23980E-001	  4.08651E-001
  3.20000E-002	  4.21865E-001	  3.97686E-001	  4.12488E-001	  3.93351E-001
  3.52000E-002	  4.12904E-001	  3.86413E-001	  4.11374E-001	  3.90783E-001
  3.84000E-002	  4.10801E-001	  3.78466E-001	  4.01388E-001	  3.82398E-001
  4.16000E-002	  4.07972E-001	  3.62447E-001	  3.87524E-001	  3.69655E-001
  4.48000E-002	  3.90786E-001	  3.62532E-001	  3.77232E-001	  3.57650E-001
  4.80000E-002	  3.91766E-001	  3.60753E-001	  3.74806E-001	  3.53166E-001
  5.12000E-002	  3.76506E-001	  3.51341E-001	  3.73219E-001	  3.42138E-001
  5.76000E-002	  3.64801E-001	  3.31229E-001	  3.55820E-001	  3.36724E-001
  6.40000E-002	  3.48106E-001	  3.21411E-001	  3.44155E-001	  3.20334E-001
  7.04000E-002	  3.37465E-001	  2.98655E-001	  3.29224E-001	  3.05932E-001
  7.68000E-002	  3.29173E-001	  2.93131E-001	  3.11759E-001	  2.98771E-001
  8.32000E-002	  3.17116E-001	  2.79270E-001	  3.02933E-001	  2.80696E-001
  8.96000E-002	  3.04277E-001	  2.66362E-001	  2.91105E-001	  2.65659E-001
  9.60000E-002	  2.91826E-001	  2.51978E-001	  2.77915E-001	  2.60164E-001
  1.02400E-001	  2.79253E-001	  2.44955E-001	  2.67932E-001	  2.46617E-001
  1.15200E-001	  2.62115E-001	  2.24493E-001	  2.52991E-001	  2.33213E-001
  1.28000E-001	  2.50862E-001	  2.11819E-001	  2.39944E-001	  2.09765E-001
  1.40800E-001	  2.35962E-001	  1.92901E-001	  2.22599E-001	  1.92865E-001
  1.53600E-001	  2.21843E-001	  1.80726E-001	  2.09046E-001	  1.77885E-001
  1.66400E-001	  2.07429E-001	  1.69875E-001	  1.94981E-001	  1.66233E-001
  1.79200E-001	  1.94892E-001	  1.58730E-001	  1.82996E-001	  1.58227E-001
  1.92000E-001	  1.88923E-001	  1.47949E-001	  1.68562E-001	  1.49816E-001
  2.04800E-001	  1.73748E-001	  1.37425E-001	  1.59026E-001	  1.36031E-001
  2.30400E-001	  1.57376E-001	  1.23560E-001	  1.44601E-001	  1.17785E-001
  2.56000E-001	  1.41490E-001	  1.11282E-001	  1.31812E-001	  1.08771E-001
  2.81600E-001	  1.27485E-001	  9.84020E-002	  1.17344E-001	  9.74118E-002
  3.07200E-001	  1.16388E-001	  8.79241E-002	  1.06204E-001	  8.91791E-002
  3.32800E-001	  1.04525E-001	  8.09892E-002	  9.72209E-002	  8.36124E-002
  3.58400E-001	  9.62836E-002	  7.31142E-002	  9.18624E-002	  7.51912E-002
  3.84000E-001	  8.70306E-002	  6.65105E-002	  8.79028E-002	  6.68378E-002
  4.09600E-001	  7.93753E-002	  6.20820E-002	  8.11347E-002	  5.88357E-002
  4.60800E-001	  7.25924E-002	  5.40295E-002	  6.76508E-002	  4.87711E-002
  5.12000E-001	  6.56509E-002	  5.06882E-002	  5.87432E-002	  4.19023E-002
  5.63200E-001	  6.10835E-002	  4.73569E-002	  5.61081E-002	  3.35715E-002
  6.14400E-001	  5.55940E-002	  4.46478E-002	  5.43806E-002	  2.60414E-002
  6.65600E-001	  4.86812E-002	  4.25665E-002	  4.55386E-002	  2.49888E-002
  7.16800E-001	  4.56784E-002	  3.55248E-002	  4.48114E-002	  2.38183E-002
  7.68000E-001	  4.05036E-002	  2.76261E-002	  3.69559E-002	  1.66022E-002
  8.19200E-001	  3.64743E-002	  2.70201E-002	  3.18255E-002	  1.63448E-002
  9.21600E-001	  3.37237E-002	  2.62239E-002	  2.40373E-002	  1.72763E-002
  1.02400E+000	  3.21019E-002	  2.26224E-002	  1.90629E-002	  1.00512E-002
  1.12640E+000	  2.58184E-002	  1.76679E-002	  1.83260E-002	  1.41752E-002
  1.22880E+000	  1.67611E-002	  1.22268E-002	  9.85070E-003	  1.60591E-002
  1.33120E+000	  6.14010E-003	  1.24036E-002	  7.98114E-003	  1.64451E-002
  1.43360E+000	  5.25263E-003	  1.07886E-002	  5.95755E-003	  1.54555E-002
  1.53600E+000	  7.38778E-003	  9.59280E-003	  1.13445E-003	  1.46297E-002
  1.63840E+000	  6.30418E-003	 -2.11188E-003	 -2.34846E-004	  1.04608E-002
  1.84320E+000	  5.34929E-003	 -4.96891E-003	  2.77441E-003	 -2.10566E-003
  2.04800E+000	 -2.44466E-003	 -1.18768E-002	  7.69916E-003	 -7.00724E-003
  2.25280E+000	 -4.59348E-003	 -8.47651E-003	  1.33210E-002	 -1.03922E-002
  2.45760E+000	 -4.13415E-003	 -9.88214E-003	  1.15427E-002	 -2.14238E-003
  2.66240E+000	 -1.85122E-003	 -8.76607E-003	  5.38646E-003	  4.40810E-003
  2.86720E+000	  3.70319E-004	 -1.03199E-002	  9.01651E-003	  8.56695E-003
  3.07200E+000	  6.84118E-003	 -3.21981E-003	  1.18891E-002	  1.22935E-002
  3.27680E+000	  2.39116E-003	  2.11294E-003	  1.09946E-002	  1.28523E-002
  3.68640E+000	  3.47315E-003	  1.90899E-003	  3.90736E-003	  6.38555E-003
  4.09600E+000	  1.08761E-003	 -6.07527E-004	 -6.89672E-003	  6.15773E-003
  4.50560E+000	  3.38444E-003	 -3.02688E-003	  4.15075E-003	 -1.87379E-003
  4.91520E+000	  1.08034E-002	 -8.60475E-003	 -2.11412E-003	  3.41360E-005
  5.32480E+000	 -3.80542E-004	 -3.24919E-004	  1.92100E-003	  5.45962E-003
  5.73440E+000	 -4.54514E-004	  4.57011E-003	  5.14693E-006	  1.82054E-003
  6.14400E+000	  2.21701E-003	 -1.39409E-003	  7.06758E-003	 -5.74289E-003
  6.55360E+000	  4.41846E-003	 -3.56898E-003	  6.22427E-003	 -3.73856E-003
  7.37280E+000	  1.55514E-002	 -1.56136E-003	  1.38556E-003	 -2.33235E-003
  8.19200E+000	  2.51715E-003	  3.73083E-003	  2.45450E-003	  2.28516E-003
  9.01120E+000	 -4.18869E-003	  6.60425E-003	 -1.46095E-003	 -8.21926E-003
  9.83040E+000	  3.31853E-003	 -2.66681E-003	  5.21600E-003	 -6.20294E-003
  1.06496E+001	  1.02243E-002	 -3.71851E-003	  1.06208E-002	  7.94272E-003
  1.14688E+001	  2.71711E-003	 -1.68894E-003	 -2.05060E-003	  9.67896E-003
  1.22880E+001	  1.39520E-003	 -2.09475E-003	  2.07878E-003	  3.66472E-003
  1.31072E+001	 -4.66938E-003	 -4.27845E-003	  2.09045E-003	  4.76982E-003
  1.47456E+001	  5.24544E-003	 -8.51113E-004	  1.29759E-003	 -7.57260E-003
  1.63840E+001	 -5.54731E-003	 -2.94475E-003	  6.84463E-004	 -1.50531E-003
  1.80224E+001	  2.46452E-003	  8.44976E-003	 -1.89948E-003	 -6.71381E-003
  1.96608E+001	 -4.17559E-003	 -9.43079E-003	  2.73719E-003	 -9.69377E-003
  2.12992E+001	  1.00718E-003	  9.76802E-004	  2.73968E-003	 -4.90811E-003
  2.29376E+001	  2.92915E-003	  8.66454E-003	  2.52893E-003	  1.11744E-003
  2.45760E+001	 -5.56540E-003	  8.32804E-003	  3.40022E-003	  6.05569E-003
  2.62144E+001	 -5.52512E-003	  1.21761E-003	 -1.09086E-003	  4.12636E-003
  2.94912E+001	  2.68498E-003	  1.21392E-003	  2.50302E-003	  3.97882E-003
  3.27680E+001	  4.13102E-003	 -1.32092E-003	  6.56607E-003	 -3.08220E-004
  3.60448E+001	 -5.11015E-003	 -3.85198E-003	 -1.04278E-002	  1.36709E-003
  3.93216E+001	 -5.57024E-004	  5.63873E-004	 -7.81120E-003	  1.77177E-004
  4.25984E+001	  2.77349E-003	 -1.16424E-003	 -1.36427E-003	 -2.12476E-004
  4.58752E+001	 -6.18341E-003	  5.40715E-003	 -5.74493E-003	 -1.10301E-004
  4.91520E+001	 -9.04667E-003	 -5.30334E-003	 -3.36977E-003	 -5.12102E-003
  5.24288E+001	 -8.93881E-003	  1.34891E-003	 -5.20829E-004	 -2.97040E-004
  5.89824E+001	 -6.29940E-004	 -2.78179E-003	 -1.12736E-003	 -2.74929E-003
  6.55360E+001	 -9.39468E-004	 -2.05888E-003	 -2.67395E-003	  2.50041E-004
  7.20896E+001	  1.35619E-003	 -3.29507E-004	 -1.61554E-003	  1.29395E-003
  7.86432E+001	  7.02333E-003	 -4.48040E-004	  8.41945E-004	  2.34586E-004
  8.51968E+001	 -4.14827E-003	 -2.29058E-003	 -1.60995E-003	 -4.75754E-003
  9.17504E+001	 -3.47534E-003	  2.94129E-003	  3.37538E-004	 -1.94062E-004
  9.83040E+001	 -9.62426E-004	  1.86830E-003	  9.32369E-004	 -8.32035E-004
  1.04858E+002	  4.03042E-004	  1.16367E-003	  2.35288E-003	  4.49630E-004
  1.17965E+002	  4.93735E-003	 -1.05128E-004	 -3.93347E-004	  9.99453E-005
  1.31072E+002	  5.72314E-003	  1.28296E-003	 -1.67794E-004	 -3.97338E-004
  1.44179E+002	  2.43356E-003	  2.89166E-004	  1.90260E-003	 -1.19674E-003
  1.57286E+002	 -6.37344E-003	 -5.22041E-003	  2.55472E-005	 -1.25411E-003
  1.70394E+002	 -1.50534E-003	 -7.54265E-004	  8.75744E-004	  9.34420E-004
  1.83501E+002	 -3.66521E-003	 -7.61646E-004	 -3.56089E-003	 -5.84549E-004
  1.96608E+002	 -3.57040E-003	  9.96680E-004	 -1.54889E-003	 -4.96242E-003
  2.09715E+002	  4.87125E-003	 -7.05238E-004	 -2.12238E-003	 -1.59551E-003
  2.35930E+002	  2.48202E-003	 -4.65279E-004	 -1.69001E-004	  1.97889E-003
  2.62144E+002	 -1.78166E-003	  1.55525E-003	 -1.65250E-003	  7.22643E-004
  2.88358E+002	 -2.48939E-003	  9.20160E-004	  3.54141E-003	  4.79590E-004
  3.14573E+002	  1.83788E-003	  2.08597E-003	  1.22958E-004	 -2.87396E-004
  3.40787E+002	  3.74754E-003	 -2.91339E-003	 -1.89545E-003	  1.74690E-003
  3.67002E+002	 -4.04076E-003	 -5.58581E-004	  7.14932E-004	 -2.45656E-003
  3.93216E+002	  1.26078E-003	  8.43933E-004	  9.63685E-005	 -1.90906E-003

"Count Rate"
       0.01311	     141.83044	     117.41638	     133.66699	     126.95313
       0.02621	     160.82764	     149.15466	     142.44080	     160.82764
       0.03932	     188.06458	     131.53076	     183.02917	     133.74329
       0.05243	     139.77051	     131.53076	     147.85767	     140.07568
       0.06554	     138.24463	     121.45996	     166.77856	     127.71606
       0.07864	     118.10303	     153.65601	     156.93665	     139.77051
       0.09175	     172.04285	     135.34546	     148.69690	     142.44080
       0.10486	     161.74316	     137.86316	     151.59607	     118.10303
       0.11796	     198.05908	     171.43250	     148.69690	     173.49243
       0.13107	     160.14099	     154.57153	     132.29370	     147.24731
       0.14418	     171.05103	     198.74573	     115.81421	     121.38367
       0.15729	     106.43005	     169.44885	     125.19836	     153.04565
       0.17039	     158.53882	     161.89575	     137.17651	     137.55798
       0.18350	     172.95837	     123.29102	     160.36987	     127.41089
       0.19661	     106.43005	     150.68054	     115.66162	     120.31555
       0.20972	     138.16833	     156.25000	     157.16553	     100.55542
       0.22282	     158.76770	     151.29089	     103.22571	     105.13306
       0.23593	     163.34534	     121.30737	     121.38367	     141.22009
       0.24904	     188.14087	     199.35608	     168.15186	     120.69702
       0.26214	     211.86829	     152.51160	     175.78125	     176.54419
       0.27525	     103.22571	     146.02661	     131.68335	     118.25562
       0.28836	     125.96130	     141.06750	     139.38904	     123.97766
       0.30147	     138.09204	     158.76770	     126.80054	     148.69690
       0.31457	     150.90942	     134.12476	     148.39172	     138.62610
       0.32768	     144.57703	     123.90137	     129.47083	     133.51440
       0.34079	     129.85229	     165.17639	     125.57983	     166.70227
       0.35389	     156.55518	     127.41089	     129.24194	     134.88770
       0.36700	     159.07288	     158.08105	     137.48169	     164.48975
       0.38011	     164.18457	     152.05383	     114.28833	     125.19836
       0.39322	     171.58508	     150.90942	     124.43542	     140.07568
       0.40632	     120.92590	     134.73511	     143.43262	     126.34277
       0.41943	     158.84399	     119.32373	     176.01013	     150.29907
       0.43254	     167.99927	     174.02649	     168.91479	     157.39441
       0.44564	     150.83313	     153.50342	     136.03210	     129.24194
       0.45875	     162.65869	     149.68872	     132.98035	     125.80872
       0.47186	     186.92017	     134.88770	     107.42188	     168.22815
       0.48497	     161.05652	     167.46521	     139.08386	     124.28284
       0.49807	     180.51147	     119.55261	     119.85779	     151.74866
       0.51118	     136.41357	     176.23901	     119.93408	     125.96130
       0.52429	     147.01843	     127.94495	     138.85498	     138.16833
       0.53740	     129.77600	     156.40259	     156.78406	     134.27734
       0.55050	     132.14111	     156.78406	     164.48975	     138.93127
       0.56361	     144.27185	     160.98022	     160.06470	     133.74329
       0.57672	     149.99390	     139.61792	     125.96130	     162.27722
       0.58982	     119.70520	     141.22009	     137.78687	     188.52234
       0.60293	     162.65869	     116.72974	     115.66162	     137.40540
       0.61604	     145.95032	     135.42175	     136.26099	     143.35632
       0.62915	     105.28564	     148.39172	     143.81409	     123.13843
       0.64225	     159.98840	     150.83313	     173.11096	     173.41614
       0.65536	     153.19824	     144.04297	     154.26636	     130.61523
       0.66847	     135.80322	     134.20105	     141.44897	     133.59070
       0.68157	     157.39441	     132.75146	     129.24194	     156.70776
       0.69468	     147.70508	     133.28552	     161.05652	     120.08667
       0.70779	     134.65881	     163.87939	     154.34265	     167.00745
       0.72090	     155.63965	     122.90955	     140.76233	     143.81409
       0.73400	     130.46265	     138.16833	     170.59326	     127.48718
       0.74711	     128.55530	     164.79492	     120.08667	     132.59888
