ALV-7004/USB-FAST
Date :	"3/14/2024"
Time :	"12:35:15 PM"
Samplename : 	""
SampMemo(0) : 	""
SampMemo(1) : 	""
SampMemo(2) : 	""
SampMemo(3) : 	""
SampMemo(4) : 	""
SampMemo(5) : 	""
SampMemo(6) : 	""
SampMemo(7) : 	""
SampMemo(8) : 	""
SampMemo(9) : 	""
Temperature [K] :	     298.16000
Viscosity [cp]  :	       0.89000
Refractive Index:	       1.33200
Wavelength [nm] :	       0.00000
Angle [°]       :	       0.00000
Duration [s]    :	         1
FloatDur [ms]   :	          944
Stop TP [ms]   :	      3813
Runs            :	         1
Mode            :	"A-CH0+1  A-CH2+3 "
MeanCR0 [kHz]   :	      95.91315
MeanCR1 [kHz]   :	     100.06798
MeanCR2 [kHz]   :	      98.11402
MeanCR3 [kHz]   :	      97.05331

"Correlation"
  3.12500E-006	 -1.00000E+000	 -1.00000E+000	 -1.00000E+000	 -1.00000E+000
  6.25000E-006	 -1.00000E+000	 -1.00000E+000	 -1.00000E+000	 -1.00000E+000
  9.37500E-006	 -1.00000E+000	 -1.00000E+000	 -1.00000E+000	 -1.00000E+000
  1.25000E-005	 -1.00000E+000	 -1.00000E+000	 -1.00000E+000	 -1.00000E+000
  1.56250E-005	 -1.00000E+000	 -1.00000E+000	 -1.00000E+000	 -1.00000E+000
  1.87500E-005	 -1.00000E+000	 -1.00000E+000	 -1.00000E+000	 -1.00000E+000
  2.18750E-005	 -8.89421E-001	 -3.90478E-001	 -1.89835E-001	 -9.64002E-001
  2.50000E-005	  6.85111E+000	  6.61903E+000	  6.99597E+000	  1.21754E+001
  2.81250E-005	  2.20679E+000	  1.70899E+000	  1.64184E+000	  5.73168E+000
  3.12500E-005	  8.79842E-001	  9.30154E-001	  8.31677E-001	  3.71578E+000
  3.43750E-005	  6.58684E-001	  4.56081E-001	  9.02126E-001	  2.70783E+000
  3.75000E-005	  1.17472E+000	  7.94705E-001	  6.20329E-001	  2.41984E+000
  4.06250E-005	  5.11246E-001	  1.20105E+000	  7.61227E-001	  1.77187E+000
  4.37500E-005	  2.53228E-001	  6.59256E-001	  1.62410E-001	  1.30389E+000
  4.68750E-005	  8.79842E-001	  7.26980E-001	  6.90778E-001	  1.73587E+000
  5.00000E-005	  7.87693E-001	  8.28567E-001	  6.90778E-001	  2.00586E+000
  5.62500E-005	  7.87693E-001	  6.42324E-001	  4.61819E-001	  1.23189E+000
  6.25000E-005	  7.32404E-001	  4.22219E-001	  3.73757E-001	  1.46588E+000
  6.87500E-005	  1.04571E+000	  8.96292E-001	 -3.13249E-002	  1.05190E+000
  7.50000E-005	  5.11246E-001	  7.43911E-001	  6.90778E-001	  1.33989E+000
  8.12500E-005	  5.84965E-001	  4.05288E-001	  6.73166E-001	  8.35913E-001
  8.75000E-005	  3.08518E-001	  6.59256E-001	  7.61227E-001	  7.09919E-001
  9.37500E-005	  4.74386E-001	  7.43911E-001	  4.08982E-001	  7.81916E-001
  1.00000E-004	  7.78478E-001	  6.16927E-001	  6.46747E-001	  5.74926E-001
  1.12500E-004	  3.73022E-001	  5.23806E-001	  5.41074E-001	  8.53912E-001
  1.25000E-004	  7.04759E-001	  4.30684E-001	  6.02717E-001	  5.38927E-001
  1.37500E-004	  6.40254E-001	  4.73012E-001	  4.70625E-001	  5.47927E-001
  1.50000E-004	  4.83601E-001	  6.25393E-001	  5.76298E-001	  6.37923E-001
  1.62500E-004	  4.83601E-001	  5.06875E-001	  4.97043E-001	  4.66931E-001
  1.75000E-004	  6.49469E-001	  4.22219E-001	  5.32268E-001	  6.19923E-001
  1.87500E-004	  5.94180E-001	  5.91531E-001	  6.46747E-001	  4.93929E-001
  2.00000E-004	  6.12609E-001	  6.80419E-001	  5.05849E-001	  5.11928E-001
  2.25000E-004	  6.63291E-001	  5.19573E-001	  4.44206E-001	  5.88425E-001
  2.50000E-004	  5.94180E-001	  6.67721E-001	  4.57415E-001	  4.93929E-001
  2.75000E-004	  5.84965E-001	  6.71953E-001	  4.57415E-001	  5.29927E-001
  3.00000E-004	  5.75750E-001	  5.19573E-001	  4.83834E-001	  5.61426E-001
  3.25000E-004	  2.67050E-001	  5.53435E-001	  5.05849E-001	  3.85934E-001
  3.50000E-004	  4.32919E-001	  4.98409E-001	  5.67492E-001	  6.55921E-001
  3.75000E-004	  5.94180E-001	  4.51848E-001	  4.92640E-001	  4.26432E-001
  4.00000E-004	  6.12609E-001	  4.89943E-001	  4.33198E-001	  5.86174E-001
  4.50000E-004	  5.68838E-001	  4.51847E-001	  3.71555E-001	  5.59175E-001
  5.00000E-004	  5.36586E-001	  4.32800E-001	  3.67152E-001	  5.02928E-001
  5.50000E-004	  5.27371E-001	  4.68779E-001	  4.11182E-001	  4.66930E-001
  6.00000E-004	  5.02030E-001	  4.32800E-001	  5.14654E-001	  3.72434E-001
  6.50000E-004	  5.02030E-001	  4.85710E-001	  3.62749E-001	  4.91679E-001
  7.00000E-004	  4.81296E-001	  4.94175E-001	  4.39802E-001	  4.28682E-001
  7.50000E-004	  4.88207E-001	  3.84123E-001	  4.86035E-001	  4.26432E-001
  8.00000E-004	  4.59426E-001	  4.80418E-001	  4.40902E-001	  4.48945E-001
  9.00000E-004	  5.37753E-001	  4.89941E-001	  4.13383E-001	  4.56820E-001
  1.00000E-003	  5.37753E-001	  5.01582E-001	  5.11351E-001	  5.80565E-001
  1.10000E-003	  4.64033E-001	  4.80418E-001	  4.46406E-001	  4.65820E-001
  1.20000E-003	  4.81311E-001	  4.40206E-001	  4.72824E-001	  4.16321E-001
  1.30000E-003	  5.15868E-001	  5.25920E-001	  4.66219E-001	  4.71444E-001
  1.40000E-003	  5.22779E-001	  4.70894E-001	  5.05847E-001	  4.21946E-001
  1.50000E-003	  4.99741E-001	  4.77243E-001	  4.97041E-001	  5.20942E-001
  1.60000E-003	  4.95724E-001	  5.01579E-001	  4.89333E-001	  4.85520E-001
  1.80000E-003	  4.68062E-001	  4.82002E-001	  4.76124E-001	  4.70895E-001
  2.00000E-003	  5.11258E-001	  4.86764E-001	  4.77775E-001	  4.46709E-001
  2.20000E-003	  4.77277E-001	  4.94172E-001	  4.91535E-001	  4.56833E-001
  2.40000E-003	  4.64031E-001	  4.77770E-001	  4.94837E-001	  4.55146E-001
  2.60000E-003	  5.06667E-001	  4.75653E-001	  4.33194E-001	  4.81566E-001
  2.80000E-003	  4.65199E-001	  5.05812E-001	  5.12999E-001	  4.45568E-001
  3.00000E-003	  5.13002E-001	  5.06341E-001	  4.53008E-001	  5.06878E-001
  3.20000E-003	  4.68954E-001	  4.66140E-001	  4.41170E-001	  4.65000E-001
  3.60000E-003	  4.88824E-001	  5.12965E-001	  4.88778E-001	  4.86656E-001
  4.00000E-003	  4.97463E-001	  4.91801E-001	  4.64836E-001	  4.66969E-001
  4.40000E-003	  5.17333E-001	  4.93653E-001	  4.41995E-001	  4.76813E-001
  4.80000E-003	  4.53403E-001	  4.90743E-001	  4.39243E-001	  4.59375E-001
  5.20000E-003	  4.95719E-001	  4.77251E-001	  4.34015E-001	  4.67532E-001
  5.60000E-003	  4.64618E-001	  5.13495E-001	  4.39243E-001	  4.79906E-001
  6.00000E-003	  5.00326E-001	  4.87040E-001	  4.69514E-001	  4.36017E-001
  6.40000E-003	  4.72560E-001	  4.72230E-001	  4.59598E-001	  4.68944E-001
  7.20000E-003	  5.07693E-001	  4.91939E-001	  4.66477E-001	  4.65991E-001
  8.00000E-003	  4.79615E-001	  4.72230E-001	  4.71706E-001	  4.62335E-001
  8.80000E-003	  4.97901E-001	  4.79357E-001	  4.31804E-001	  4.61491E-001
  9.60000E-003	  4.85518E-001	  4.85045E-001	  4.50104E-001	  4.63725E-001
  1.04000E-002	  4.84511E-001	  4.67321E-001	  4.60010E-001	  4.66678E-001
  1.12000E-002	  4.72992E-001	  4.96818E-001	  4.51204E-001	  4.36304E-001
  1.20000E-002	  4.83054E-001	  4.59649E-001	  4.63450E-001	  4.49663E-001
  1.28000E-002	  4.80652E-001	  4.82858E-001	  4.55810E-001	  4.68096E-001
  1.44000E-002	  4.59053E-001	  4.78956E-001	  4.47019E-001	  4.53823E-001
  1.60000E-002	  4.84684E-001	  4.71813E-001	  4.28597E-001	  4.58620E-001
  1.76000E-002	  4.86323E-001	  4.64605E-001	  4.38642E-001	  4.50464E-001
  1.92000E-002	  4.59037E-001	  4.64274E-001	  4.55016E-001	  4.59534E-001
  2.08000E-002	  4.62509E-001	  4.60636E-001	  4.44145E-001	  4.61519E-001
  2.24000E-002	  4.57829E-001	  4.62803E-001	  4.45040E-001	  4.57159E-001
  2.40000E-002	  4.57757E-001	  4.68227E-001	  4.48067E-001	  4.55613E-001
  2.56000E-002	  4.55271E-001	  4.62263E-001	  4.45632E-001	  4.56055E-001
  2.88000E-002	  4.62831E-001	  4.50491E-001	  4.27863E-001	  4.41481E-001
  3.20000E-002	  4.76383E-001	  4.65240E-001	  4.25662E-001	  4.51079E-001
  3.52000E-002	  4.57087E-001	  4.42669E-001	  4.38493E-001	  4.31601E-001
  3.84000E-002	  4.44131E-001	  4.58161E-001	  4.25130E-001	  4.47438E-001
  4.16000E-002	  4.53671E-001	  4.53796E-001	  4.16152E-001	  4.46802E-001
  4.48000E-002	  4.51207E-001	  4.46256E-001	  4.24029E-001	  4.29745E-001
  4.80000E-002	  4.31407E-001	  4.46454E-001	  4.18663E-001	  4.31750E-001
  5.12000E-002	  4.41463E-001	  4.44228E-001	  4.21638E-001	  4.36662E-001
  5.76000E-002	  4.32663E-001	  4.40160E-001	  4.16752E-001	  4.35400E-001
  6.40000E-002	  4.34125E-001	  4.27711E-001	  4.06021E-001	  4.22683E-001
  7.04000E-002	  4.36344E-001	  4.38476E-001	  4.04437E-001	  4.17586E-001
  7.68000E-002	  4.31141E-001	  4.34162E-001	  4.00395E-001	  4.14507E-001
  8.32000E-002	  4.15910E-001	  4.27134E-001	  3.93807E-001	  4.16318E-001
  8.96000E-002	  4.16560E-001	  4.20553E-001	  3.91004E-001	  4.13997E-001
  9.60000E-002	  4.16887E-001	  4.12352E-001	  3.95710E-001	  4.14452E-001
  1.02400E-001	  4.09894E-001	  4.10670E-001	  3.89954E-001	  4.06032E-001
  1.15200E-001	  4.05667E-001	  4.03475E-001	  3.80300E-001	  3.95349E-001
  1.28000E-001	  3.88864E-001	  4.02228E-001	  3.76929E-001	  3.90110E-001
  1.40800E-001	  3.94874E-001	  3.95872E-001	  3.74323E-001	  3.79297E-001
  1.53600E-001	  3.87515E-001	  3.88783E-001	  3.64000E-001	  3.70917E-001
  1.66400E-001	  3.70908E-001	  3.81064E-001	  3.50891E-001	  3.66497E-001
  1.79200E-001	  3.65558E-001	  3.76143E-001	  3.52250E-001	  3.58805E-001
  1.92000E-001	  3.65123E-001	  3.72075E-001	  3.45780E-001	  3.58365E-001
  2.04800E-001	  3.55948E-001	  3.66317E-001	  3.39613E-001	  3.53100E-001
  2.30400E-001	  3.43756E-001	  3.57337E-001	  3.27785E-001	  3.37233E-001
  2.56000E-001	  3.35189E-001	  3.50557E-001	  3.16498E-001	  3.30349E-001
  2.81600E-001	  3.20868E-001	  3.38329E-001	  3.01923E-001	  3.17752E-001
  3.07200E-001	  3.09910E-001	  3.35574E-001	  2.93354E-001	  3.07795E-001
  3.32800E-001	  3.07436E-001	  3.27339E-001	  2.81814E-001	  2.97943E-001
  3.58400E-001	  2.93978E-001	  3.14140E-001	  2.78973E-001	  2.85935E-001
  3.84000E-001	  2.82510E-001	  3.05829E-001	  2.71530E-001	  2.78848E-001
  4.09600E-001	  2.73838E-001	  3.00420E-001	  2.55858E-001	  2.69797E-001
  4.60800E-001	  2.59176E-001	  2.83844E-001	  2.40233E-001	  2.56583E-001
  5.12000E-001	  2.44569E-001	  2.71762E-001	  2.20629E-001	  2.38423E-001
  5.63200E-001	  2.29658E-001	  2.55531E-001	  2.02572E-001	  2.23420E-001
  6.14400E-001	  2.15795E-001	  2.43215E-001	  1.94276E-001	  2.10362E-001
  6.65600E-001	  2.02117E-001	  2.28467E-001	  1.80788E-001	  1.97218E-001
  7.16800E-001	  1.91615E-001	  2.19042E-001	  1.65210E-001	  1.85844E-001
  7.68000E-001	  1.83870E-001	  2.02893E-001	  1.53265E-001	  1.73296E-001
  8.19200E-001	  1.71111E-001	  1.93026E-001	  1.44410E-001	  1.64708E-001
  9.21600E-001	  1.57488E-001	  1.73559E-001	  1.24583E-001	  1.47358E-001
  1.02400E+000	  1.44643E-001	  1.52334E-001	  1.05735E-001	  1.28167E-001
  1.12640E+000	  1.28542E-001	  1.32323E-001	  8.98397E-002	  1.15797E-001
  1.22880E+000	  1.15261E-001	  1.16203E-001	  8.03507E-002	  1.03828E-001
  1.33120E+000	  1.05382E-001	  1.01955E-001	  7.02659E-002	  9.13381E-002
  1.43360E+000	  8.84833E-002	  8.70423E-002	  6.69194E-002	  8.16740E-002
  1.53600E+000	  7.90145E-002	  7.72645E-002	  5.67754E-002	  7.48842E-002
  1.63840E+000	  7.04015E-002	  6.40083E-002	  5.19805E-002	  6.78305E-002
  1.84320E+000	  6.14774E-002	  4.46872E-002	  4.18162E-002	  5.37875E-002
  2.04800E+000	  4.72959E-002	  3.17212E-002	  3.20287E-002	  4.34238E-002
  2.25280E+000	  4.32697E-002	  2.31564E-002	  2.97791E-002	  3.18281E-002
  2.45760E+000	  3.71730E-002	  1.70571E-002	  2.42321E-002	  2.91131E-002
  2.66240E+000	  3.22073E-002	  1.06408E-002	  1.59979E-002	  2.32542E-002
  2.86720E+000	  2.79623E-002	  7.35336E-003	  1.58878E-002	  1.62718E-002
  3.07200E+000	  3.05745E-002	  4.82359E-003	  1.48296E-002	  1.24248E-002
  3.27680E+000	  2.67034E-002	 -2.56820E-003	  1.17938E-002	  9.52282E-003
  3.68640E+000	  1.31265E-002	 -8.64695E-003	  2.12728E-003	 -2.03321E-004
  4.09600E+000	  9.33426E-003	 -3.83006E-003	  2.77355E-003	 -2.87015E-003
  4.50560E+000	  7.03281E-003	  4.80132E-003	  3.71313E-004	  1.91724E-003
  4.91520E+000	 -3.16072E-003	  4.54610E-003	 -3.19728E-003	  6.62690E-003
  5.32480E+000	 -7.70207E-003	 -2.85071E-003	 -8.31704E-003	  1.92352E-003
  5.73440E+000	 -7.75033E-003	 -1.63885E-002	 -6.86795E-003	  2.68788E-003
  6.14400E+000	 -1.33178E-002	 -2.20674E-002	  9.88446E-003	  8.63789E-003
  6.55360E+000	 -1.06130E-002	 -1.74808E-002	  2.07774E-002	  3.00188E-003
  7.37280E+000	  1.34108E-003	 -9.29880E-003	  1.45452E-002	 -7.32925E-003
  8.19200E+000	  1.22153E-002	 -1.84376E-003	  5.63640E-003	  1.75558E-003
  9.01120E+000	  3.75775E-003	  6.75249E-003	 -4.01492E-003	  1.03404E-003
  9.83040E+000	  7.13822E-003	  6.04042E-003	 -1.38320E-003	 -1.72500E-002
  1.06496E+001	  8.70794E-003	  3.24159E-004	 -7.36764E-003	 -1.70912E-002
  1.14688E+001	  1.94894E-003	  1.43906E-002	 -1.02780E-002	  2.51936E-003
  1.22880E+001	  5.71318E-004	  4.05380E-002	 -1.14523E-002	  7.19963E-003
  1.31072E+001	 -9.62939E-003	  3.55316E-002	 -2.20411E-002	  2.29608E-003
  1.47456E+001	 -2.74157E-003	  2.75766E-004	 -2.06973E-002	 -1.70934E-003
  1.63840E+001	  2.10867E-002	  3.48071E-003	 -1.21224E-002	 -5.12217E-003
  1.80224E+001	  9.23289E-003	  7.10654E-003	  6.82572E-004	  6.40237E-003
  1.96608E+001	  6.73239E-003	  1.21073E-003	 -5.71371E-003	 -2.68820E-003
  2.12992E+001	  1.85411E-002	  8.27871E-004	 -1.81928E-002	 -1.32968E-002
  2.29376E+001	  1.21848E-002	  1.07100E-002	 -1.83113E-002	 -3.13063E-003
  2.45760E+001	  1.59672E-002	  1.41007E-002	 -6.82920E-003	 -1.48722E-002
  2.62144E+001	 -2.13956E-003	  7.19555E-003	 -2.04376E-003	 -5.77040E-003
  2.94912E+001	 -2.70485E-003	  1.67224E-003	  1.36192E-003	 -1.09195E-002
  3.27680E+001	  1.01436E-002	  3.35513E-003	  1.86291E-002	  1.01636E-002
  3.60448E+001	  1.40243E-002	 -7.21511E-003	  1.19032E-002	 -1.94833E-002
  3.93216E+001	  8.07320E-003	  2.59614E-003	  9.99955E-003	 -1.40748E-002
  4.25984E+001	 -6.24058E-003	  1.36959E-002	 -3.39696E-003	 -1.73232E-002
  4.58752E+001	 -1.75242E-002	  2.32499E-003	  1.91121E-003	 -2.00470E-003
  4.91520E+001	 -7.50324E-003	  3.60580E-004	  5.24898E-003	 -1.80673E-002
  5.24288E+001	 -4.70944E-003	 -1.00227E-003	  7.60104E-003	 -1.18532E-002
  5.89824E+001	 -1.28480E-002	  2.47349E-003	 -1.40714E-002	 -1.64538E-002
  6.55360E+001	  2.65540E-003	  1.51181E-002	 -6.56061E-003	  3.44915E-003
  7.20896E+001	  3.29765E-003	 -2.69049E-003	  2.37896E-003	  1.41099E-002
  7.86432E+001	 -1.62180E-003	 -5.95194E-003	 -1.31347E-002	 -4.75982E-003
  8.51968E+001	  9.65169E-005	  1.38573E-002	 -1.00214E-002	  5.52356E-003
  9.17504E+001	  1.34930E-002	  1.08493E-003	 -1.86504E-003	  7.57549E-003
  9.83040E+001	  5.49537E-003	  4.68143E-003	  1.08000E-002	  1.50691E-002
  1.04858E+002	  1.00707E-002	  3.80242E-003	 -1.71411E-003	  8.88886E-003
  1.17965E+002	  1.82354E-003	  3.21276E-003	 -1.33948E-002	  4.23624E-003
  1.31072E+002	  9.92072E-003	  1.17348E-004	  1.09437E-002	 -1.75378E-002
  1.44179E+002	  2.68363E-003	 -7.12021E-003	  1.67587E-003	 -4.85075E-003
  1.57286E+002	 -4.79180E-003	 -3.27015E-003	 -4.30530E-003	 -7.26425E-003
  1.70394E+002	  7.13246E-003	  4.01589E-003	  4.64552E-003	 -3.81623E-004
  1.83501E+002	 -1.99428E-003	 -3.03176E-003	  4.71580E-003	 -2.02162E-003
  1.96608E+002	  2.65085E-003	 -8.29711E-003	  8.56648E-004	  7.38792E-004
  2.09715E+002	  7.90800E-003	 -7.71004E-003	 -5.89436E-003	  1.06484E-002
  2.35930E+002	 -3.77060E-003	 -5.98345E-003	  8.36818E-005	  5.14872E-003
  2.62144E+002	  5.84682E-004	 -3.01839E-003	 -4.98749E-003	 -1.25107E-002
  2.88358E+002	  1.04560E-002	 -8.54591E-003	  3.29017E-004	 -3.49677E-003
  3.14573E+002	  1.08392E-002	 -1.13611E-002	  5.67148E-003	  3.20995E-003
  3.40787E+002	 -2.34288E-003	 -1.33778E-003	 -5.34842E-004	  1.97496E-003
  3.67002E+002	 -9.33739E-003	 -9.78869E-003	 -2.52949E-003	  4.80496E-003
  3.93216E+002	  7.80486E-003	 -9.17527E-003	 -3.55641E-003	 -8.25698E-003

"Count Rate"
       0.01311	      95.82520	     129.47083	      72.47925	      78.50647
       0.02621	      76.52283	     181.65588	      84.60999	      75.14954
       0.03932	      50.65918	     134.58252	      78.43018	     102.08130
       0.05243	      94.98596	     102.92053	      97.12219	      59.73816
       0.06554	      78.12500	     102.00500	      78.43018	     101.24207
       0.07864	     123.44360	     101.24207	      86.74622	     106.27747
       0.09175	      61.56921	      82.09229	      77.36206	     105.66711
       0.10486	     110.09216	      99.63989	      72.93701	      76.06506
       0.11796	      81.17676	      71.48743	     112.38098	      87.35657
       0.13107	      97.42737	      75.30212	      69.50378	      81.40564
       0.14418	     123.21472	      79.19312	      50.35400	     132.67517
       0.15729	      77.28577	      67.82532	     143.05115	      74.99695
       0.17039	      61.41663	      73.92883	      61.95068	     116.95862
       0.18350	      87.05139	      70.11414	     108.64258	      62.48474
       0.19661	      81.02417	     133.05664	     113.22021	      92.08679
       0.20972	      80.79529	     100.17395	      56.68640	     141.37268
       0.22282	      73.39478	      95.74890	      97.80884	     106.88782
       0.23593	      64.16321	      67.36755	      78.65906	     148.08655
       0.24904	      81.25305	      85.83069	     118.17932	     102.76794
       0.26214	     100.86060	      93.23120	      74.84436	      91.62903
       0.27525	      98.49548	     107.26929	     102.61536	      99.71619
       0.28836	     103.22571	     110.77881	     128.93677	      67.82532
       0.30147	     107.42188	      74.92065	      99.02954	      53.48206
       0.31457	      99.86877	     111.84692	      89.49280	     132.37000
       0.32768	      99.41101	     104.29382	     109.63440	      95.90149
       0.34079	      58.89893	      84.76257	      85.67810	      91.70532
       0.35389	     123.51990	      63.55286	      76.14136	      97.12219
       0.36700	      93.84155	     122.60437	     106.12488	      86.05957
       0.38011	     110.62622	     146.63696	     115.50903	      84.60999
       0.39322	     105.97229	      87.58545	      81.55823	      55.16052
       0.40632	      67.82532	      65.46021	      70.19043	      77.59094
       0.41943	     130.84412	     157.85217	     144.34814	     109.78699
       0.43254	      59.73816	      94.45190	     108.33740	     151.97754
       0.44564	      86.66992	     113.75427	     115.43274	     120.08667
       0.45875	      83.99963	     109.71069	      76.37024	      69.65637
       0.47186	      67.67273	     118.56079	     138.47351	      72.02148
       0.48497	     109.10034	     108.94775	      81.93970	      50.88806
       0.49807	      90.48462	      87.96692	      83.38928	     103.91235
       0.51118	      81.02417	     126.11389	      82.93152	      92.69714
       0.52429	     126.26648	      90.86609	     130.84412	     133.28552
       0.53740	      89.72168	     140.07568	      90.86609	      89.79797
       0.55050	     121.84143	     124.51172	     105.43823	     103.60718
       0.56361	     109.10034	      99.18213	      96.20667	      87.66174
       0.57672	      77.81982	      80.03235	     109.71069	      93.07861
       0.58982	     147.78137	      59.73816	      94.37561	     124.74060
       0.60293	      85.29663	      89.64539	     110.70251	      94.83337
       0.61604	     104.75159	      97.42737	      88.11951	      98.64807
       0.62915	      78.35388	     100.17395	      88.95874	      72.32666
       0.64225	     103.53088	      91.47644	      85.75439	     107.19299
       0.65536	      94.68079	      83.77075	      87.50916	     117.87415
       0.66847	     149.00208	      94.60449	      88.88245	     102.61536
       0.68157	     109.48181	      83.84705	      73.77625	     101.62354
       0.69468	     110.16846	      76.44653	      94.45190	      78.88794
       0.70779	     152.66418	      99.25842	     107.11670	      92.16309
       0.72090	     124.43542	      72.70813	      71.71631	      87.96692
       0.73400	      89.41650	      93.07861	     108.10852	      71.79260
       0.74711	      67.52014	      86.66992	     144.11926	      85.90698
