ALV-7004/USB-FAST
Date :	"3/14/2024"
Time :	"12:34:47 PM"
Samplename : 	""
SampMemo(0) : 	""
SampMemo(1) : 	""
SampMemo(2) : 	""
SampMemo(3) : 	""
SampMemo(4) : 	""
SampMemo(5) : 	""
SampMemo(6) : 	""
SampMemo(7) : 	""
SampMemo(8) : 	""
SampMemo(9) : 	""
Temperature [K] :	     298.16000
Viscosity [cp]  :	       0.89000
Refractive Index:	       1.33200
Wavelength [nm] :	       0.00000
Angle [°]       :	       0.00000
Duration [s]    :	         1
FloatDur [ms]   :	          944
Stop TP [ms]   :	      3643
Runs            :	         1
Mode            :	"A-CH0+1  A-CH2+3 "
MeanCR0 [kHz]   :	     107.06160
MeanCR1 [kHz]   :	     106.36118
MeanCR2 [kHz]   :	     104.43581
MeanCR3 [kHz]   :	     103.43022

"Correlation"
  3.12500E-006	 -1.00000E+000	 -1.00000E+000	 -1.00000E+000	 -1.00000E+000
  6.25000E-006	 -1.00000E+000	 -1.00000E+000	 -1.00000E+000	 -1.00000E+000
  9.37500E-006	 -1.00000E+000	 -1.00000E+000	 -1.00000E+000	 -1.00000E+000
  1.25000E-005	 -1.00000E+000	 -1.00000E+000	 -1.00000E+000	 -1.00000E+000
  1.56250E-005	 -1.00000E+000	 -1.00000E+000	 -1.00000E+000	 -1.00000E+000
  1.87500E-005	 -1.00000E+000	 -1.00000E+000	 -1.00000E+000	 -1.00000E+000
  2.18750E-005	 -9.11251E-001	 -1.90708E-001	 -3.47128E-001	 -9.68303E-001
  2.50000E-005	  6.48446E+000	  5.80404E+000	  5.96397E+000	  1.20273E+001
  2.81250E-005	  2.04703E+000	  1.36793E+000	  1.17624E+000	  5.14914E+000
  3.12500E-005	  6.86223E-001	  5.88609E-001	  6.16635E-001	  2.77190E+000
  3.43750E-005	  7.74971E-001	  3.78793E-001	  4.30100E-001	  2.58172E+000
  3.75000E-005	  7.74971E-001	  6.18583E-001	  3.36833E-001	  1.94778E+000
  4.06250E-005	  7.74971E-001	  5.58636E-001	  4.30100E-001	  2.16966E+000
  4.37500E-005	  6.56640E-001	  4.98688E-001	  5.85546E-001	  1.56742E+000
  4.68750E-005	  6.86223E-001	  8.28400E-001	  6.47724E-001	  1.28216E+000
  5.00000E-005	  6.27057E-001	  6.63544E-001	  6.63269E-001	  1.48818E+000
  5.62500E-005	  9.08094E-001	  6.33570E-001	  5.23367E-001	  1.32970E+000
  6.25000E-005	  7.89763E-001	  5.58636E-001	  5.23367E-001	  9.49341E-001
  6.87500E-005	  5.23517E-001	  8.58373E-001	  2.43565E-001	  9.17644E-001
  7.50000E-005	  5.67891E-001	  4.98688E-001	  7.40991E-001	  7.90858E-001
  8.12500E-005	  9.52468E-001	  7.68452E-001	  5.38912E-001	  8.22554E-001
  8.75000E-005	  4.34768E-001	  5.13675E-001	  4.61189E-001	  6.64071E-001
  9.37500E-005	  7.74971E-001	  5.73622E-001	  3.67922E-001	  8.06706E-001
  1.00000E-004	  6.34453E-001	  4.76208E-001	  5.62229E-001	  7.59161E-001
  1.12500E-004	  3.68207E-001	  5.28662E-001	  6.08862E-001	  6.00678E-001
  1.25000E-004	  2.72063E-001	  5.06181E-001	  5.31140E-001	  5.92754E-001
  1.37500E-004	  4.86538E-001	  5.96103E-001	  4.45644E-001	  6.00678E-001
  1.50000E-004	  6.19661E-001	  4.61221E-001	  5.38912E-001	  4.89740E-001
  1.62500E-004	  4.71747E-001	  7.83439E-001	  4.61189E-001	  6.00678E-001
  1.75000E-004	  4.27373E-001	  4.53727E-001	  5.46684E-001	  5.76905E-001
  1.87500E-004	  6.04870E-001	  5.96103E-001	  5.07823E-001	  5.05588E-001
  2.00000E-004	  5.16121E-001	  5.92356E-001	  4.84506E-001	  6.20488E-001
  2.25000E-004	  4.60653E-001	  4.49980E-001	  4.37872E-001	  4.77853E-001
  2.50000E-004	  5.67891E-001	  4.61220E-001	  4.10669E-001	  5.61057E-001
  2.75000E-004	  5.05027E-001	  6.03596E-001	  3.87352E-001	  4.18422E-001
  3.00000E-004	  5.56797E-001	  4.23753E-001	  4.33986E-001	  4.34271E-001
  3.25000E-004	  6.30754E-001	  4.38740E-001	  5.42798E-001	  5.09550E-001
  3.50000E-004	  4.71747E-001	  4.94941E-001	  4.65075E-001	  4.73891E-001
  3.75000E-004	  5.30912E-001	  6.18583E-001	  4.68961E-001	  5.17474E-001
  4.00000E-004	  3.95940E-001	  4.63093E-001	  5.29196E-001	  5.23417E-001
  4.50000E-004	  5.12422E-001	  4.68713E-001	  4.04839E-001	  4.93701E-001
  5.00000E-004	  4.34767E-001	  4.81827E-001	  4.80619E-001	  3.78801E-001
  5.50000E-004	  5.34609E-001	  4.49980E-001	  5.00049E-001	  4.42194E-001
  6.00000E-004	  4.36616E-001	  4.89320E-001	  5.71943E-001	  3.84744E-001
  6.50000E-004	  5.30912E-001	  5.15547E-001	  4.30099E-001	  4.34270E-001
  7.00000E-004	  4.95782E-001	  4.46233E-001	  5.23366E-001	  4.83796E-001
  7.50000E-004	  4.62501E-001	  4.91194E-001	  5.00049E-001	  4.04554E-001
  8.00000E-004	  5.17043E-001	  4.34992E-001	  4.32041E-001	  4.66956E-001
  9.00000E-004	  4.60666E-001	  4.66839E-001	  4.38842E-001	  4.11487E-001
  1.00000E-003	  4.71759E-001	  4.25625E-001	  5.25308E-001	  4.62003E-001
  1.10000E-003	  4.42176E-001	  4.91192E-001	  4.36899E-001	  4.85776E-001
  1.20000E-003	  4.78231E-001	  4.45295E-001	  4.89361E-001	  3.82762E-001
  1.30000E-003	  4.56968E-001	  4.53725E-001	  4.75760E-001	  4.15449E-001
  1.40000E-003	  4.12593E-001	  4.58408E-001	  4.51472E-001	  4.74880E-001
  1.50000E-003	  4.85626E-001	  4.29371E-001	  4.72845E-001	  4.13468E-001
  1.60000E-003	  4.56503E-001	  4.32647E-001	  4.79659E-001	  4.11980E-001
  1.80000E-003	  4.48645E-001	  5.00556E-001	  4.38854E-001	  4.84287E-001
  2.00000E-003	  4.47258E-001	  4.75735E-001	  4.41297E-001	  4.51105E-001
  2.20000E-003	  4.49569E-001	  4.46698E-001	  4.36439E-001	  4.32781E-001
  2.40000E-003	  4.63436E-001	  4.81355E-001	  4.25267E-001	  4.48133E-001
  2.60000E-003	  4.43098E-001	  4.54659E-001	  4.51984E-001	  4.50115E-001
  2.80000E-003	  4.07506E-001	  4.38267E-001	  5.07363E-001	  4.74382E-001
  3.00000E-003	  4.40787E-001	  4.27027E-001	  4.77730E-001	  4.13961E-001
  3.20000E-003	  4.71521E-001	  4.38028E-001	  4.63152E-001	  4.41210E-001
  3.60000E-003	  4.65526E-001	  4.84394E-001	  4.50522E-001	  4.46658E-001
  4.00000E-003	  4.80780E-001	  4.48112E-001	  4.65824E-001	  4.51115E-001
  4.40000E-003	  4.50272E-001	  4.58416E-001	  4.41292E-001	  4.46410E-001
  4.80000E-003	  4.32476E-001	  4.72934E-001	  4.92056E-001	  4.24371E-001
  5.20000E-003	  4.88638E-001	  4.42726E-001	  4.71167E-001	  4.38238E-001
  5.60000E-003	  4.84940E-001	  4.88155E-001	  4.50522E-001	  4.60030E-001
  6.00000E-003	  4.18840E-001	  4.71529E-001	  4.50279E-001	  4.15704E-001
  6.40000E-003	  4.58120E-001	  4.53020E-001	  4.40432E-001	  4.57435E-001
  7.20000E-003	  4.51187E-001	  4.73627E-001	  4.37032E-001	  4.32548E-001
  8.00000E-003	  4.70832E-001	  4.64611E-001	  4.41297E-001	  4.44558E-001
  8.80000E-003	  4.52588E-001	  4.60513E-001	  4.69958E-001	  4.40348E-001
  9.60000E-003	  4.44845E-001	  4.86974E-001	  4.49920E-001	  4.46167E-001
  1.04000E-002	  4.41725E-001	  4.67655E-001	  4.65100E-001	  4.20785E-001
  1.12000E-002	  4.43820E-001	  4.64494E-001	  4.49677E-001	  4.15709E-001
  1.20000E-002	  4.68781E-001	  4.55010E-001	  4.73237E-001	  4.27100E-001
  1.28000E-002	  4.57797E-001	  4.63245E-001	  4.57976E-001	  4.17437E-001
  1.44000E-002	  4.49939E-001	  4.42344E-001	  4.40731E-001	  4.34462E-001
  1.60000E-002	  4.42904E-001	  4.41174E-001	  4.52268E-001	  4.27590E-001
  1.76000E-002	  4.38180E-001	  4.27240E-001	  4.40853E-001	  4.26461E-001
  1.92000E-002	  4.62564E-001	  4.36724E-001	  4.44253E-001	  4.28938E-001
  2.08000E-002	  4.23604E-001	  4.42579E-001	  4.32169E-001	  4.25161E-001
  2.24000E-002	  4.50762E-001	  4.36256E-001	  4.37574E-001	  4.32900E-001
  2.40000E-002	  4.42976E-001	  4.49604E-001	  4.34963E-001	  4.27452E-001
  2.56000E-002	  4.22509E-001	  4.44002E-001	  4.28759E-001	  4.09289E-001
  2.88000E-002	  4.24387E-001	  4.34928E-001	  4.29852E-001	  4.08454E-001
  3.20000E-002	  4.34543E-001	  4.39773E-001	  4.29822E-001	  3.99632E-001
  3.52000E-002	  4.24633E-001	  4.32821E-001	  4.24296E-001	  4.00096E-001
  3.84000E-002	  4.17612E-001	  4.29602E-001	  4.10770E-001	  4.03099E-001
  4.16000E-002	  4.09840E-001	  4.33670E-001	  4.17601E-001	  3.98872E-001
  4.48000E-002	  4.14939E-001	  4.23543E-001	  4.17996E-001	  3.87375E-001
  4.80000E-002	  4.13003E-001	  4.31387E-001	  4.24659E-001	  3.90439E-001
  5.12000E-002	  4.11970E-001	  4.18983E-001	  4.01369E-001	  3.94318E-001
  5.76000E-002	  4.03216E-001	  4.15119E-001	  4.01004E-001	  3.86208E-001
  6.40000E-002	  3.98420E-001	  4.04712E-001	  4.01763E-001	  3.80900E-001
  7.04000E-002	  3.94043E-001	  4.00160E-001	  3.98636E-001	  3.73688E-001
  7.68000E-002	  3.92150E-001	  3.94452E-001	  3.82681E-001	  3.61214E-001
  8.32000E-002	  3.89434E-001	  3.93721E-001	  3.75440E-001	  3.63210E-001
  8.96000E-002	  3.71606E-001	  3.84194E-001	  3.70810E-001	  3.63828E-001
  9.60000E-002	  3.76445E-001	  3.71666E-001	  3.58818E-001	  3.51479E-001
  1.02400E-001	  3.65101E-001	  3.70766E-001	  3.58682E-001	  3.51292E-001
  1.15200E-001	  3.53838E-001	  3.59969E-001	  3.43672E-001	  3.29605E-001
  1.28000E-001	  3.42656E-001	  3.53253E-001	  3.28249E-001	  3.21676E-001
  1.40800E-001	  3.23800E-001	  3.41217E-001	  3.22464E-001	  3.09885E-001
  1.53600E-001	  3.13022E-001	  3.29669E-001	  3.03488E-001	  3.06046E-001
  1.66400E-001	  3.07511E-001	  3.18099E-001	  3.01630E-001	  2.92976E-001
  1.79200E-001	  2.91353E-001	  3.07587E-001	  2.91649E-001	  2.80873E-001
  1.92000E-001	  2.82525E-001	  2.98995E-001	  2.76445E-001	  2.68574E-001
  2.04800E-001	  2.72134E-001	  2.85958E-001	  2.68253E-001	  2.60110E-001
  2.30400E-001	  2.54255E-001	  2.64201E-001	  2.43801E-001	  2.41130E-001
  2.56000E-001	  2.33504E-001	  2.46689E-001	  2.26868E-001	  2.23430E-001
  2.81600E-001	  2.16033E-001	  2.31296E-001	  2.06704E-001	  2.01477E-001
  3.07200E-001	  1.97921E-001	  2.13117E-001	  1.88636E-001	  1.90692E-001
  3.32800E-001	  1.76235E-001	  1.94979E-001	  1.67494E-001	  1.71320E-001
  3.58400E-001	  1.63054E-001	  1.81343E-001	  1.48930E-001	  1.55910E-001
  3.84000E-001	  1.49710E-001	  1.67234E-001	  1.34380E-001	  1.50243E-001
  4.09600E-001	  1.40170E-001	  1.54651E-001	  1.20864E-001	  1.32794E-001
  4.60800E-001	  1.17880E-001	  1.28367E-001	  9.51164E-002	  1.12068E-001
  5.12000E-001	  1.00626E-001	  1.09928E-001	  7.78210E-002	  9.28106E-002
  5.63200E-001	  8.43445E-002	  9.46472E-002	  6.05367E-002	  7.37776E-002
  6.14400E-001	  7.05035E-002	  8.99529E-002	  4.29628E-002	  5.84249E-002
  6.65600E-001	  5.64897E-002	  7.75628E-002	  3.27811E-002	  4.66422E-002
  7.16800E-001	  4.75376E-002	  6.95598E-002	  2.57848E-002	  3.64251E-002
  7.68000E-001	  3.95418E-002	  6.22661E-002	  2.13863E-002	  2.38508E-002
  8.19200E-001	  3.47642E-002	  5.27788E-002	  1.75853E-002	  1.75201E-002
  9.21600E-001	  1.88671E-002	  3.95241E-002	  1.21328E-002	  5.35322E-003
  1.02400E+000	  7.54616E-003	  2.74264E-002	  4.51663E-003	 -1.50813E-003
  1.12640E+000	 -2.64431E-003	  1.96544E-002	 -1.45336E-003	 -5.66502E-003
  1.22880E+000	 -7.74357E-003	  1.77685E-002	 -3.87171E-003	 -7.86384E-003
  1.33120E+000	 -1.29130E-002	  1.65292E-002	 -1.05738E-003	 -6.53459E-003
  1.43360E+000	 -1.35601E-002	  1.76611E-002	 -2.67807E-003	 -9.00712E-003
  1.53600E+000	 -1.55983E-002	  1.12004E-002	 -4.58146E-003	 -1.07332E-002
  1.63840E+000	 -1.82683E-002	  9.33394E-003	 -9.47323E-003	 -7.75591E-003
  1.84320E+000	 -1.85298E-002	 -3.83383E-003	 -1.03722E-002	 -3.24198E-003
  2.04800E+000	 -2.12178E-002	 -1.30087E-002	 -7.53406E-003	  3.47706E-003
  2.25280E+000	 -2.33072E-002	 -1.13924E-002	 -1.32744E-002	  4.12403E-003
  2.45760E+000	 -2.02976E-002	 -1.75036E-004	 -1.54256E-002	  2.94473E-003
  2.66240E+000	 -1.48878E-002	  7.14988E-003	 -1.44174E-002	 -4.86567E-003
  2.86720E+000	 -1.74938E-002	  6.98537E-003	 -5.09081E-003	 -1.09301E-002
  3.07200E+000	 -1.97988E-002	  6.87417E-003	  4.00991E-003	 -1.33996E-002
  3.27680E+000	 -1.82516E-002	 -1.44858E-003	  1.01856E-002	 -7.12771E-003
  3.68640E+000	 -6.13222E-003	 -7.94229E-003	  2.16522E-003	 -4.07785E-003
  4.09600E+000	 -9.18562E-003	 -1.03619E-002	 -3.04388E-003	 -1.66431E-002
  4.50560E+000	 -3.99335E-003	 -1.02649E-002	 -3.34146E-003	 -1.56251E-002
  4.91520E+000	  4.91532E-003	 -1.05450E-002	  5.97557E-003	 -4.26597E-003
  5.32480E+000	  1.80137E-002	 -1.53952E-002	 -3.40702E-003	  9.27872E-003
  5.73440E+000	  1.88665E-002	 -4.34738E-003	 -8.24432E-003	  6.72567E-003
  6.14400E+000	  1.05651E-002	  3.63447E-003	 -2.89710E-003	  4.73152E-003
  6.55360E+000	 -2.52292E-003	 -2.78361E-003	  1.41783E-003	 -1.19408E-003
  7.37280E+000	 -1.08830E-002	 -2.92044E-003	 -1.75978E-003	  4.40385E-003
  8.19200E+000	  4.96612E-003	 -1.15395E-002	 -5.95471E-003	  1.62874E-003
  9.01120E+000	 -1.51408E-002	 -1.38402E-002	  4.23737E-003	 -1.66701E-002
  9.83040E+000	  1.55090E-002	  6.57467E-003	  7.22044E-003	 -2.81852E-003
  1.06496E+001	 -4.80126E-003	 -7.81721E-004	 -3.04234E-003	  5.03770E-003
  1.14688E+001	  2.87156E-003	 -7.33603E-003	 -1.35636E-002	  3.74672E-003
  1.22880E+001	  4.28233E-003	 -1.37167E-003	  5.48687E-003	 -1.11987E-002
  1.31072E+001	  1.02717E-002	  2.15850E-003	  3.76851E-003	 -1.14474E-002
  1.47456E+001	  3.45322E-003	 -2.64932E-003	 -7.01492E-003	 -9.10771E-004
  1.63840E+001	 -5.23409E-003	 -1.40861E-002	 -4.96257E-003	 -3.89985E-003
  1.80224E+001	 -6.55189E-004	 -1.13963E-002	  2.60063E-004	 -5.68614E-003
  1.96608E+001	 -2.47543E-004	 -3.62555E-004	 -7.93118E-003	 -8.62802E-003
  2.12992E+001	 -9.34661E-003	  1.16382E-003	  4.64429E-003	 -9.13508E-004
  2.29376E+001	 -1.58364E-003	  7.17899E-003	 -2.37579E-005	 -1.56056E-002
  2.45760E+001	  9.25520E-003	  1.38858E-002	 -3.21251E-003	  4.67202E-006
  2.62144E+001	 -5.73709E-003	  6.97640E-004	  2.78426E-003	  1.09493E-003
  2.94912E+001	  7.68187E-003	 -1.06578E-002	 -2.63047E-004	  5.49818E-004
  3.27680E+001	 -3.06012E-003	  3.64486E-003	 -2.88233E-003	  3.10248E-003
  3.60448E+001	 -2.73756E-003	 -1.19572E-003	 -4.89999E-003	  1.73930E-003
  3.93216E+001	 -1.61169E-003	 -6.71409E-003	 -1.37264E-004	  1.32298E-003
  4.25984E+001	  4.19838E-003	 -5.45312E-003	 -1.11316E-003	  9.90065E-003
  4.58752E+001	  2.16391E-003	  6.24376E-003	 -4.25356E-003	  7.89203E-003
  4.91520E+001	 -1.07733E-002	 -2.94135E-003	  9.23682E-004	 -3.86705E-004
  5.24288E+001	 -1.72994E-003	  8.93770E-003	  1.88338E-003	  2.88764E-003
  5.89824E+001	 -3.69113E-003	 -6.36578E-003	  4.20579E-003	 -3.58969E-003
  6.55360E+001	  4.65808E-004	 -1.00713E-002	  2.66743E-003	  1.52978E-003
  7.20896E+001	  3.12620E-003	 -5.68855E-004	 -2.04131E-003	 -4.62228E-003
  7.86432E+001	 -2.29491E-006	 -4.35516E-003	 -5.30890E-003	 -7.82298E-004
  8.51968E+001	  4.61191E-003	  1.53057E-003	  3.99322E-003	 -2.39194E-003
  9.17504E+001	 -4.48799E-003	  4.62674E-003	  2.12064E-003	  2.67570E-003
  9.83040E+001	 -1.11001E-003	  4.38791E-003	  2.48356E-003	  1.45925E-003
  1.04858E+002	  1.01053E-003	  3.85379E-003	 -1.00385E-003	  4.14123E-003
  1.17965E+002	  2.39084E-004	  1.62899E-003	 -4.87749E-004	 -4.82050E-003
  1.31072E+002	  1.82133E-003	 -1.60629E-003	  4.29697E-004	  1.43284E-003
  1.44179E+002	  3.36092E-003	 -8.27899E-004	 -2.07819E-003	  2.32162E-003
  1.57286E+002	  3.17361E-003	 -3.70082E-003	  1.91501E-003	  3.12643E-003
  1.70394E+002	 -3.01602E-004	 -1.49321E-003	 -4.28218E-003	 -1.47238E-003
  1.83501E+002	 -1.69145E-003	 -3.58979E-003	  1.29813E-003	  5.50335E-004
  1.96608E+002	 -2.18671E-003	  5.21760E-003	  6.38838E-003	 -3.65103E-004
  2.09715E+002	 -2.37972E-003	  1.63389E-003	  4.68616E-003	 -2.00629E-003
  2.35930E+002	  2.03350E-003	  1.79158E-003	 -2.70171E-003	  6.45955E-004
  2.62144E+002	  2.61649E-003	 -3.54105E-003	  3.47485E-003	 -1.87009E-003
  2.88358E+002	  1.41379E-003	  1.90996E-003	 -1.33677E-003	  2.78439E-004
  3.14573E+002	 -7.19642E-004	  1.95182E-003	 -1.77491E-003	  3.02557E-003
  3.40787E+002	 -2.02135E-003	 -8.92903E-004	  3.61042E-004	  2.05014E-003
  3.67002E+002	 -4.85368E-004	 -3.55381E-003	 -9.94690E-004	  1.63918E-003
  3.93216E+002	  3.68913E-004	  4.58721E-003	  3.38143E-003	 -3.73145E-003

"Count Rate"
       0.01311	      85.22034	     147.24731	      97.12219	     116.57715
       0.02621	     102.46277	     115.89050	      90.63721	      93.99414
       0.03932	     104.14124	     116.27197	      91.62903	      97.50366
       0.05243	     103.60718	      81.32935	     120.62073	     109.17664
       0.06554	     111.38916	     102.00500	      85.29663	      79.11682
       0.07864	      89.72168	     103.83606	      80.10864	     127.18201
       0.09175	     118.25562	      93.38379	     125.57983	      75.14954
       0.10486	      87.35657	     111.61804	      91.17126	     110.85510
       0.11796	      91.32385	     127.25830	     111.08398	     111.31287
       0.13107	     101.69983	      86.66992	      75.45471	      88.50098
       0.14418	     103.37830	     112.38098	      92.39197	      84.45740
       0.15729	      84.53369	      96.96960	      97.50366	      91.09497
       0.17039	     104.37012	      92.46826	      84.99146	     107.87964
       0.18350	     101.31836	      78.20129	     127.33459	      66.60461
       0.19661	     115.58533	     155.94482	      89.79797	      84.22852
       0.20972	     106.88782	      80.56641	     134.42993	      84.22852
       0.22282	      96.81702	      93.15491	      82.62634	     127.25830
       0.23593	      92.23938	     104.44641	     102.61536	      93.23120
       0.24904	      94.14673	     125.19836	     104.75159	     105.51453
       0.26214	     102.38647	      89.95056	      97.80884	     129.47083
       0.27525	      98.11401	      93.91785	     111.23657	      92.16309
       0.28836	      84.22852	     127.71606	      95.29114	      77.13318
       0.30147	      99.18213	      98.11401	     111.00769	     110.09216
       0.31457	     106.65894	     126.26648	      81.71082	     107.65076
       0.32768	     116.04309	      81.55823	      94.22302	     103.68347
       0.34079	     116.88232	     113.60168	     113.22021	      74.92065
       0.35389	     128.63159	      94.37561	      89.95056	     109.86328
       0.36700	     107.72705	      97.96143	      94.07043	     112.91504
       0.38011	     124.28284	      85.67810	     108.41370	     106.27747
       0.39322	      92.77344	      97.19849	     125.88501	      99.56360
       0.40632	      89.56909	     107.34558	     119.93408	     124.28284
       0.41943	      98.64807	      98.26660	      78.81165	      89.18762
       0.43254	     105.20935	      99.56360	      94.68079	     115.73792
       0.44564	     105.81970	     109.40552	      99.63989	      98.87695
       0.45875	     115.28015	      89.56909	     102.92053	     100.55542
       0.47186	     104.90417	     103.60718	     104.29382	      98.49548
       0.48497	      97.80884	      94.90967	      85.06775	     121.23108
       0.49807	     114.44092	     124.43542	     104.14124	      83.69446
       0.51118	     109.02405	     121.07849	      97.96143	      95.06226
       0.52429	     121.53625	     108.79517	      78.65906	      84.22852
       0.53740	     104.06494	      93.15491	     105.05676	     113.37280
       0.55050	      88.72986	     104.98047	      99.18213	      95.36743
       0.56361	      90.17944	      76.14136	     104.44641	     105.81970
       0.57672	     106.65894	      98.87695	     111.92322	     117.72156
       0.58982	     129.92859	     110.47363	     115.89050	      90.56091
       0.60293	     115.35645	     128.93677	     136.18469	     116.34827
       0.61604	     133.97217	      97.88513	     106.81152	      93.61267
       0.62915	     131.60706	      99.41101	      78.81165	      93.46008
       0.64225	      84.07593	     116.57715	     119.24744	     126.49536
       0.65536	     103.75977	      72.47925	     121.99402	      77.89612
       0.66847	     128.86047	      84.99146	     131.07300	      95.52002
       0.68157	      82.77893	      93.07861	     106.81152	     124.20654
       0.69468	     123.21472	     107.19299	      94.68079	      95.82520
       0.70779	     107.34558	     127.94495	     100.70801	     103.68347
       0.72090	     115.43274	      97.04590	     105.13306	     108.79517
       0.73400	      93.99414	      99.10583	     113.83057	     140.53345
       0.74711	     118.33191	     120.84961	      78.88794	     101.62354
