ALV-7004/USB-FAST
Date :	"3/14/2024"
Time :	"12:32:09 PM"
Samplename : 	""
SampMemo(0) : 	""
SampMemo(1) : 	""
SampMemo(2) : 	""
SampMemo(3) : 	""
SampMemo(4) : 	""
SampMemo(5) : 	""
SampMemo(6) : 	""
SampMemo(7) : 	""
SampMemo(8) : 	""
SampMemo(9) : 	""
Temperature [K] :	     298.16000
Viscosity [cp]  :	       0.89000
Refractive Index:	       1.33200
Wavelength [nm] :	       0.00000
Angle [°]       :	       0.00000
Duration [s]    :	         1
FloatDur [ms]   :	          944
Stop TP [ms]   :	      3204
Runs            :	         1
Mode            :	"A-CH0+1  A-CH2+3 "
MeanCR0 [kHz]   :	     144.82286
MeanCR1 [kHz]   :	     143.28109
MeanCR2 [kHz]   :	     137.31214
MeanCR3 [kHz]   :	     141.55070

"Correlation"
  3.12500E-006	 -1.00000E+000	 -1.00000E+000	 -1.00000E+000	 -1.00000E+000
  6.25000E-006	 -1.00000E+000	 -1.00000E+000	 -1.00000E+000	 -1.00000E+000
  9.37500E-006	 -1.00000E+000	 -1.00000E+000	 -1.00000E+000	 -1.00000E+000
  1.25000E-005	 -1.00000E+000	 -1.00000E+000	 -1.00000E+000	 -1.00000E+000
  1.56250E-005	 -1.00000E+000	 -1.00000E+000	 -1.00000E+000	 -1.00000E+000
  1.87500E-005	 -1.00000E+000	 -1.00000E+000	 -1.00000E+000	 -1.00000E+000
  2.18750E-005	 -9.35331E-001	 -4.05390E-001	 -2.80634E-001	 -9.83077E-001
  2.50000E-005	  5.54769E+000	  5.35902E+000	  5.20453E+000	  9.88164E+000
  2.81250E-005	  1.39274E+000	  1.09765E+000	  1.46383E+000	  4.28005E+000
  3.12500E-005	  7.94553E-001	  8.33381E-001	  8.16398E-001	  1.91080E+000
  3.43750E-005	  5.35879E-001	  6.68212E-001	  8.16398E-001	  1.94464E+000
  3.75000E-005	  5.19711E-001	  4.20457E-001	  2.40905E-001	  1.86003E+000
  4.06250E-005	  6.32881E-001	  2.38771E-001	  4.74699E-001	  1.55541E+000
  4.37500E-005	  7.13717E-001	  4.53491E-001	  5.64620E-001	  1.35233E+000
  4.68750E-005	  6.16714E-001	  5.85627E-001	  7.98414E-001	  1.30156E+000
  5.00000E-005	  5.92463E-001	  4.36974E-001	  6.90509E-001	  1.27618E+000
  5.62500E-005	  5.76296E-001	  5.19559E-001	  5.28652E-001	  1.12387E+000
  6.25000E-005	  8.02636E-001	  5.27818E-001	  5.82604E-001	  9.80019E-001
  6.87500E-005	  4.38876E-001	  6.35178E-001	  5.28652E-001	  6.66939E-001
  7.50000E-005	  5.27795E-001	  5.77368E-001	  6.99501E-001	  8.36171E-001
  8.12500E-005	  4.95461E-001	  5.03042E-001	  5.73612E-001	  6.66939E-001
  8.75000E-005	  5.03544E-001	  5.77368E-001	  7.44461E-001	  6.07708E-001
  9.37500E-005	  3.66123E-001	  4.20457E-001	  2.76874E-001	  4.80783E-001
  1.00000E-004	  6.08630E-001	  4.36974E-001	  4.43227E-001	  7.30401E-001
  1.12500E-004	  6.40965E-001	  5.03042E-001	  5.78108E-001	  5.40015E-001
  1.25000E-004	  5.52045E-001	  4.86525E-001	  6.86013E-001	  5.31553E-001
  1.37500E-004	  5.80338E-001	  5.69110E-001	  6.95005E-001	  5.10399E-001
  1.50000E-004	  4.75252E-001	  5.60851E-001	  4.92683E-001	  4.13090E-001
  1.62500E-004	  5.07586E-001	  4.28716E-001	  5.19659E-001	  4.63860E-001
  1.75000E-004	  5.56087E-001	  4.82396E-001	  4.29739E-001	  4.51168E-001
  1.87500E-004	  5.31837E-001	  5.36076E-001	  4.02763E-001	  5.40015E-001
  2.00000E-004	  4.30792E-001	  4.88589E-001	  4.76947E-001	  5.14629E-001
  2.25000E-004	  4.79293E-001	  4.26651E-001	  4.85939E-001	  5.99245E-001
  2.50000E-004	  4.59084E-001	  4.55555E-001	  5.15163E-001	  5.29437E-001
  2.75000E-004	  4.91418E-001	  4.76202E-001	  5.10667E-001	  5.06168E-001
  3.00000E-004	  4.71209E-001	  4.86525E-001	  5.42139E-001	  5.31553E-001
  3.25000E-004	  5.23753E-001	  4.36974E-001	  5.64619E-001	  4.44821E-001
  3.50000E-004	  4.59084E-001	  3.17226E-001	  5.48883E-001	  5.46360E-001
  3.75000E-004	  4.91418E-001	  4.24586E-001	  6.18572E-001	  6.07707E-001
  4.00000E-004	  4.90407E-001	  4.68975E-001	  4.43226E-001	  4.59628E-001
  4.50000E-004	  4.34833E-001	  5.57753E-001	  4.52218E-001	  5.53764E-001
  5.00000E-004	  4.67167E-001	  5.32978E-001	  4.65706E-001	  4.92417E-001
  5.50000E-004	  4.63125E-001	  4.42135E-001	  5.44387E-001	  4.24724E-001
  6.00000E-004	  5.43961E-001	  4.35941E-001	  5.17410E-001	  5.56937E-001
  6.50000E-004	  4.84345E-001	  4.55555E-001	  4.71326E-001	  5.44244E-001
  7.00000E-004	  4.95460E-001	  4.43167E-001	  5.14038E-001	  4.93475E-001
  7.50000E-004	  4.75251E-001	  5.20590E-001	  4.90434E-001	  5.43187E-001
  8.00000E-004	  4.79796E-001	  4.29230E-001	  5.26963E-001	  5.25733E-001
  9.00000E-004	  4.27253E-001	  4.31294E-001	  5.50567E-001	  5.08281E-001
  1.00000E-003	  4.68176E-001	  4.39037E-001	  4.82565E-001	  4.72319E-001
  1.10000E-003	  4.68176E-001	  4.59167E-001	  5.30897E-001	  4.74435E-001
  1.20000E-003	  5.15162E-001	  4.68457E-001	  4.96053E-001	  5.03522E-001
  1.30000E-003	  4.85859E-001	  4.68457E-001	  4.61771E-001	  4.63329E-001
  1.40000E-003	  5.36887E-001	  4.48327E-001	  4.80317E-001	  5.42128E-001
  1.50000E-003	  4.60093E-001	  4.84974E-001	  4.99425E-001	  4.66502E-001
  1.60000E-003	  5.02276E-001	  4.59433E-001	  5.07572E-001	  4.73639E-001
  1.80000E-003	  4.54785E-001	  4.56078E-001	  5.06167E-001	  4.99553E-001
  2.00000E-003	  4.57564E-001	  4.75434E-001	  5.25837E-001	  4.74697E-001
  2.20000E-003	  4.86109E-001	  4.91693E-001	  5.10944E-001	  4.83687E-001
  2.40000E-003	  4.69437E-001	  4.91951E-001	  5.02795E-001	  4.91620E-001
  2.60000E-003	  4.75752E-001	  4.92983E-001	  5.13754E-001	  4.94000E-001
  2.80000E-003	  4.69689E-001	  4.38787E-001	  4.78909E-001	  4.88711E-001
  3.00000E-003	  4.38113E-001	  4.42142E-001	  5.06728E-001	  5.02990E-001
  3.20000E-003	  4.60969E-001	  4.49385E-001	  5.21757E-001	  4.83153E-001
  3.60000E-003	  4.81304E-001	  4.50277E-001	  4.80450E-001	  4.81038E-001
  4.00000E-003	  4.82568E-001	  4.57890E-001	  4.99698E-001	  4.94920E-001
  4.40000E-003	  4.71579E-001	  4.47567E-001	  5.05178E-001	  4.79187E-001
  4.80000E-003	  4.63117E-001	  4.59181E-001	  4.99148E-001	  4.83153E-001
  5.20000E-003	  4.92167E-001	  4.30405E-001	  4.77511E-001	  4.73634E-001
  5.60000E-003	  4.83199E-001	  4.52084E-001	  4.89032E-001	  4.87516E-001
  6.00000E-003	  4.66906E-001	  4.37373E-001	  5.03082E-001	  4.60413E-001
  6.40000E-003	  4.79463E-001	  4.27061E-001	  4.98739E-001	  4.74693E-001
  7.20000E-003	  4.60012E-001	  4.48031E-001	  5.11455E-001	  4.71850E-001
  8.00000E-003	  4.62223E-001	  4.57063E-001	  4.97264E-001	  4.70594E-001
  8.80000E-003	  4.76495E-001	  4.54353E-001	  4.87991E-001	  4.56315E-001
  9.60000E-003	  4.64749E-001	  4.39052E-001	  4.67548E-001	  4.57318E-001
  1.04000E-002	  4.63170E-001	  4.30137E-001	  4.59188E-001	  4.71002E-001
  1.12000E-002	  4.57297E-001	  4.34137E-001	  4.65581E-001	  4.57119E-001
  1.20000E-002	  4.56728E-001	  4.28782E-001	  4.85954E-001	  4.59764E-001
  1.28000E-002	  4.54520E-001	  4.35020E-001	  4.75711E-001	  4.42787E-001
  1.44000E-002	  4.63487E-001	  4.31536E-001	  4.66637E-001	  4.55182E-001
  1.60000E-002	  4.38921E-001	  4.31698E-001	  4.57810E-001	  4.45828E-001
  1.76000E-002	  4.49562E-001	  4.19116E-001	  4.56205E-001	  4.35185E-001
  1.92000E-002	  4.40058E-001	  4.23923E-001	  4.51463E-001	  4.44363E-001
  2.08000E-002	  4.28375E-001	  4.23729E-001	  4.41253E-001	  4.33191E-001
  2.24000E-002	  4.23386E-001	  4.08750E-001	  4.46533E-001	  4.19870E-001
  2.40000E-002	  4.26448E-001	  4.01061E-001	  4.38546E-001	  4.24928E-001
  2.56000E-002	  4.16110E-001	  4.02086E-001	  4.32573E-001	  4.14341E-001
  2.88000E-002	  4.09300E-001	  3.93327E-001	  4.20999E-001	  4.11967E-001
  3.20000E-002	  4.07674E-001	  3.85794E-001	  4.15537E-001	  4.00894E-001
  3.52000E-002	  3.91481E-001	  3.79037E-001	  3.94636E-001	  3.88978E-001
  3.84000E-002	  3.80924E-001	  3.75075E-001	  3.83905E-001	  3.77316E-001
  4.16000E-002	  3.65531E-001	  3.62542E-001	  3.80599E-001	  3.72143E-001
  4.48000E-002	  3.61947E-001	  3.38750E-001	  3.77069E-001	  3.63985E-001
  4.80000E-002	  3.50580E-001	  3.46961E-001	  3.73872E-001	  3.48912E-001
  5.12000E-002	  3.49323E-001	  3.35552E-001	  3.58651E-001	  3.48164E-001
  5.76000E-002	  3.33258E-001	  3.17262E-001	  3.44650E-001	  3.37517E-001
  6.40000E-002	  3.15612E-001	  3.07286E-001	  3.34304E-001	  3.20793E-001
  7.04000E-002	  2.96351E-001	  2.89051E-001	  3.14632E-001	  3.08179E-001
  7.68000E-002	  2.82118E-001	  2.71663E-001	  3.01028E-001	  2.87344E-001
  8.32000E-002	  2.72094E-001	  2.59686E-001	  2.90216E-001	  2.80633E-001
  8.96000E-002	  2.57938E-001	  2.52093E-001	  2.76963E-001	  2.70674E-001
  9.60000E-002	  2.43162E-001	  2.41326E-001	  2.58614E-001	  2.54253E-001
  1.02400E-001	  2.31244E-001	  2.29532E-001	  2.52973E-001	  2.42421E-001
  1.15200E-001	  2.11618E-001	  2.12514E-001	  2.25859E-001	  2.20479E-001
  1.28000E-001	  1.93114E-001	  1.89712E-001	  2.11208E-001	  2.02221E-001
  1.40800E-001	  1.82440E-001	  1.75965E-001	  2.00948E-001	  1.85136E-001
  1.53600E-001	  1.66467E-001	  1.64905E-001	  1.84739E-001	  1.72759E-001
  1.66400E-001	  1.53758E-001	  1.46235E-001	  1.69957E-001	  1.57194E-001
  1.79200E-001	  1.40941E-001	  1.35090E-001	  1.61859E-001	  1.45691E-001
  1.92000E-001	  1.31297E-001	  1.27903E-001	  1.48281E-001	  1.32919E-001
  2.04800E-001	  1.20772E-001	  1.19048E-001	  1.39811E-001	  1.26246E-001
  2.30400E-001	  1.02617E-001	  1.02443E-001	  1.22376E-001	  1.06996E-001
  2.56000E-001	  8.79035E-002	  8.75664E-002	  1.10866E-001	  9.12646E-002
  2.81600E-001	  7.83784E-002	  8.12975E-002	  9.83177E-002	  7.78417E-002
  3.07200E-001	  6.99638E-002	  7.17110E-002	  8.66380E-002	  7.08313E-002
  3.32800E-001	  6.26689E-002	  6.18958E-002	  8.72320E-002	  6.56725E-002
  3.58400E-001	  5.72679E-002	  4.97589E-002	  8.20185E-002	  5.38344E-002
  3.84000E-001	  5.26141E-002	  4.37205E-002	  7.57064E-002	  4.79877E-002
  4.09600E-001	  4.82513E-002	  4.03374E-002	  7.08190E-002	  4.29568E-002
  4.60800E-001	  4.06708E-002	  3.36200E-002	  6.22042E-002	  3.69648E-002
  5.12000E-001	  3.56524E-002	  2.90428E-002	  5.37560E-002	  3.23122E-002
  5.63200E-001	  3.03197E-002	  2.44248E-002	  4.59047E-002	  2.71479E-002
  6.14400E-001	  2.60351E-002	  1.89939E-002	  3.81712E-002	  2.23876E-002
  6.65600E-001	  2.72594E-002	  1.59303E-002	  3.47619E-002	  1.77830E-002
  7.16800E-001	  2.37063E-002	  1.08274E-002	  3.20899E-002	  1.98045E-002
  7.68000E-001	  2.58135E-002	  1.40894E-002	  2.78565E-002	  1.74057E-002
  8.19200E-001	  2.45089E-002	  1.62697E-002	  2.19594E-002	  1.77181E-002
  9.21600E-001	  2.01467E-002	  1.75498E-002	  1.85718E-002	  1.51212E-002
  1.02400E+000	  1.12278E-002	  1.45475E-002	  1.40728E-002	  8.32462E-003
  1.12640E+000	  4.17354E-003	  1.39915E-002	  7.85978E-003	  9.19912E-003
  1.22880E+000	  2.81267E-003	  1.05019E-002	  1.22073E-002	  9.44486E-003
  1.33120E+000	  4.57730E-004	  1.12960E-002	  1.20286E-002	  1.54030E-002
  1.43360E+000	  6.99403E-003	  1.39910E-002	  1.16945E-002	  1.13240E-002
  1.53600E+000	  7.82675E-003	  1.15939E-002	  1.11892E-002	  3.30388E-003
  1.63840E+000	  5.15363E-003	  9.58915E-003	  9.39052E-003	 -2.05440E-003
  1.84320E+000	  3.85181E-003	 -2.19829E-004	  1.12715E-002	 -1.30894E-003
  2.04800E+000	  3.55475E-003	 -1.30641E-003	  7.88455E-003	  5.76258E-003
  2.25280E+000	  5.28924E-003	  1.01793E-004	  3.24311E-003	  1.31992E-002
  2.45760E+000	  3.69533E-003	  1.67272E-004	  1.26832E-004	  9.44270E-003
  2.66240E+000	  6.09553E-003	  1.14037E-003	  2.12190E-003	  9.89998E-004
  2.86720E+000	  8.06576E-003	 -3.58362E-004	 -2.13420E-003	  2.53789E-003
  3.07200E+000	 -3.02460E-004	  2.16225E-003	 -4.49834E-003	  3.85621E-003
  3.27680E+000	  1.88610E-003	  9.37504E-004	 -7.24053E-003	  5.80286E-003
  3.68640E+000	  3.63732E-003	 -5.36593E-003	 -1.36924E-002	  8.64643E-003
  4.09600E+000	  1.31717E-002	 -3.23008E-003	 -6.86404E-003	  7.29570E-003
  4.50560E+000	  7.32283E-003	 -3.60240E-003	  1.47898E-003	  5.19319E-003
  4.91520E+000	  3.19305E-003	  1.55898E-005	  5.31719E-003	 -2.88021E-003
  5.32480E+000	  4.40954E-003	  1.52998E-003	  7.87284E-003	  1.52432E-003
  5.73440E+000	 -5.65524E-003	  1.69926E-003	  5.37419E-003	  9.45599E-003
  6.14400E+000	 -9.95873E-003	 -3.51150E-003	  6.55618E-003	  8.22277E-003
  6.55360E+000	 -4.82226E-003	 -4.50336E-003	  7.59430E-003	  1.03410E-002
  7.37280E+000	 -1.70013E-003	 -5.95614E-003	  4.53732E-003	 -6.17682E-004
  8.19200E+000	  1.68063E-003	 -1.16734E-002	  6.68178E-003	  2.81586E-004
  9.01120E+000	  1.14518E-002	 -2.66739E-003	  9.41990E-004	  6.70393E-004
  9.83040E+000	  3.76619E-003	 -6.90640E-003	 -8.05146E-003	  5.29333E-004
  1.06496E+001	  3.38189E-003	 -8.97664E-004	 -2.39875E-003	 -7.08732E-003
  1.14688E+001	  2.10543E-004	 -6.75151E-004	  2.16687E-003	 -6.49038E-003
  1.22880E+001	 -9.42932E-004	  1.79763E-003	 -1.01127E-003	 -3.12737E-004
  1.31072E+001	 -5.73873E-003	 -4.21836E-003	  2.80598E-003	 -3.20401E-003
  1.47456E+001	 -7.65582E-003	 -3.52012E-004	  3.19889E-004	 -7.17388E-003
  1.63840E+001	  1.95120E-004	  2.66642E-003	 -1.05740E-003	 -1.06067E-002
  1.80224E+001	  1.12291E-003	 -8.88293E-004	  9.95635E-003	 -4.02340E-003
  1.96608E+001	 -3.72501E-003	 -2.36485E-003	  3.35481E-004	 -1.45977E-003
  2.12992E+001	 -2.01612E-003	  1.46700E-003	 -1.00501E-002	  3.48639E-003
  2.29376E+001	  2.96649E-003	 -4.09076E-003	 -9.11367E-003	  1.84541E-004
  2.45760E+001	  3.84994E-003	 -3.61120E-003	 -7.15752E-003	  2.94068E-003
  2.62144E+001	  1.14043E-003	 -3.65775E-004	 -3.36421E-003	 -4.86958E-004
  2.94912E+001	  7.04770E-004	  8.48393E-004	 -2.00429E-003	  1.34258E-003
  3.27680E+001	  6.77389E-003	 -9.43128E-004	 -2.17726E-003	  9.46730E-004
  3.60448E+001	  9.18467E-004	  1.62811E-004	  4.15553E-003	 -4.66709E-003
  3.93216E+001	  3.79243E-003	 -1.82687E-003	 -1.84960E-003	  2.69829E-003
  4.25984E+001	  4.34471E-003	  1.79090E-003	 -2.18462E-003	 -4.34386E-004
  4.58752E+001	 -3.20394E-003	  1.85407E-003	 -3.67126E-004	 -3.68545E-003
  4.91520E+001	 -1.86871E-003	  2.64333E-003	 -7.53443E-004	 -1.32734E-003
  5.24288E+001	  1.49172E-003	  3.48102E-003	 -2.69282E-003	  6.87147E-004
  5.89824E+001	  1.17407E-003	 -2.25637E-004	 -2.78630E-003	 -2.05988E-003
  6.55360E+001	 -1.62930E-003	  2.40401E-003	  3.15797E-003	 -9.14953E-004
  7.20896E+001	  1.63527E-003	 -2.13805E-003	 -2.80086E-004	  1.00182E-003
  7.86432E+001	  3.33668E-003	 -4.82969E-003	 -8.16062E-004	 -1.22837E-003
  8.51968E+001	 -2.83057E-003	  1.31220E-003	 -1.33973E-003	 -4.55915E-003
  9.17504E+001	  5.63515E-004	 -3.08614E-003	 -4.74211E-003	 -5.13101E-003
  9.83040E+001	  2.17890E-003	  8.22041E-004	  5.31109E-003	 -3.80609E-003
  1.04858E+002	  2.66247E-003	 -2.67325E-005	 -1.06550E-004	  2.01082E-003
  1.17965E+002	 -3.52775E-003	 -3.39661E-003	  4.40253E-004	  6.03989E-004
  1.31072E+002	  1.57895E-003	  1.15323E-003	 -3.44647E-003	 -2.75559E-003
  1.44179E+002	 -1.36437E-004	  4.31621E-004	  1.99504E-003	  4.15941E-003
  1.57286E+002	 -1.38032E-003	 -7.55045E-005	  2.47199E-003	 -2.05419E-003
  1.70394E+002	  4.06258E-004	 -6.07426E-004	  2.86432E-003	 -8.15581E-004
  1.83501E+002	 -1.34972E-003	  1.61413E-003	 -2.52370E-003	  8.54856E-004
  1.96608E+002	 -4.57411E-004	 -2.20871E-004	  2.44721E-003	 -1.32570E-003
  2.09715E+002	  1.35739E-003	 -1.54508E-005	  1.78504E-003	  6.68932E-004
  2.35930E+002	 -2.89301E-005	 -1.14098E-003	 -1.94465E-003	 -1.33662E-003
  2.62144E+002	 -2.11672E-003	 -1.38743E-003	  2.68702E-003	  2.20773E-004
  2.88358E+002	  5.33168E-004	 -9.22050E-004	 -2.39008E-003	 -1.34271E-003
  3.14573E+002	 -2.15273E-004	 -2.78149E-004	  1.10972E-003	  1.68261E-003
  3.40787E+002	 -2.72460E-003	  5.83047E-004	 -1.90739E-003	 -7.91752E-004
  3.67002E+002	 -1.24926E-003	  7.86592E-004	  1.16650E-003	 -3.46020E-004
  3.93216E+002	 -3.79768E-004	  1.50847E-003	  2.40081E-003	  3.65218E-003

"Count Rate"
       0.01311	     169.14368	     122.45178	     126.57166	     116.11938
       0.02621	     148.62061	     157.92847	     122.45178	     150.75684
       0.03932	     162.35352	     138.70239	     103.14941	     118.33191
       0.05243	     102.38647	     124.74060	     143.20374	     206.29883
       0.06554	     110.39734	     171.73767	     117.34009	     140.83862
       0.07864	     117.95044	     140.30457	     138.85498	     148.62061
       0.09175	     129.54712	     121.99402	     136.87134	      96.51184
       0.10486	     122.45178	     148.08655	     127.56348	     122.60437
       0.11796	     134.81140	     149.61243	     137.78687	     156.63147
       0.13107	     132.59888	     150.60425	     114.74609	     117.34009
       0.14418	     132.29370	     136.48987	      91.85791	     106.81152
       0.15729	     163.19275	     141.06750	     148.01025	     148.69690
       0.17039	     131.68335	     142.05933	     138.54980	     148.46802
       0.18350	     116.50085	     135.87952	     126.72424	     156.93665
       0.19661	     152.81677	     124.74060	     125.50354	     146.02661
       0.20972	     147.62878	     158.46252	     132.98035	     161.43799
       0.22282	     144.88220	     125.73242	     153.42712	     134.04846
       0.23593	     153.88489	     142.89856	     166.62598	     127.10571
       0.24904	     172.19543	     146.94214	     141.44897	     113.83057
       0.26214	     147.93396	     151.44348	     121.07849	     136.10840
       0.27525	     106.20117	     138.85498	     109.02405	     141.37268
       0.28836	     156.40259	     143.81409	     114.21204	     108.33740
       0.30147	     122.52808	     157.08923	     139.00757	     159.68323
       0.31457	     135.57434	     132.82776	     145.49255	     123.67249
       0.32768	     137.17651	     111.99951	     149.99390	     154.72412
       0.34079	     180.20630	     167.00745	     103.07312	     151.44348
       0.35389	     127.41089	     148.01025	     144.34814	     135.04028
       0.36700	     148.62061	     143.28003	     133.66699	     132.59888
       0.38011	     157.62329	     103.98865	     114.89868	     207.51953
       0.39322	     178.75671	     151.74866	     150.83313	     121.07849
       0.40632	     140.76233	     137.02393	     162.73499	     155.18188
       0.41943	     155.33447	     132.44629	     157.47070	     143.12744
       0.43254	     150.45166	     127.41089	     148.08655	     132.14111
       0.44564	     164.71863	     147.17102	     123.36731	     158.84399
       0.45875	     159.60693	     125.65613	     127.79236	     126.80054
       0.47186	     125.35095	     161.51428	     162.35352	     135.19287
       0.48497	     133.97217	     138.85498	     129.31824	     130.61523
       0.49807	     158.30994	     154.72412	     149.15466	     126.72424
       0.51118	     138.32092	     162.58240	     137.17651	     157.47070
       0.52429	     163.72681	     138.70239	     135.26917	     145.33997
       0.53740	     137.71057	     152.96936	     106.04858	     129.69971
       0.55050	     160.59875	     132.59888	     135.80322	     124.05396
       0.56361	     126.11389	     134.81140	     163.49792	     127.02942
       0.57672	     124.89319	     142.66968	     124.81689	     136.64246
       0.58982	     130.61523	     129.39453	     118.63708	     130.23376
       0.60293	     130.46265	     150.37537	     124.43542	     141.83044
       0.61604	     169.06738	     151.97754	     168.38074	     126.57166
       0.62915	     133.13293	     148.62061	     158.30994	     156.09741
       0.64225	     137.25281	     143.28003	     124.43542	     114.21204
       0.65536	     140.60974	     167.23633	     133.66699	     167.23633
       0.66847	     114.66980	     161.66687	     177.45972	     126.41907
       0.68157	     130.31006	     152.66418	     127.10571	     112.45728
       0.69468	     167.08374	     140.91492	     121.30737	     157.47070
       0.70779	     121.99402	     140.83862	     120.69702	     140.45715
       0.72090	     157.16553	     145.18738	     117.64526	     149.38354
       0.73400	     134.42993	     137.71057	     147.62878	     139.00757
       0.74711	     138.70239	     127.25830	     122.68066	     110.93140
