ALV-7004/USB-FAST
Date :	"3/14/2024"
Time :	"12:35:39 PM"
Samplename : 	""
SampMemo(0) : 	""
SampMemo(1) : 	""
SampMemo(2) : 	""
SampMemo(3) : 	""
SampMemo(4) : 	""
SampMemo(5) : 	""
SampMemo(6) : 	""
SampMemo(7) : 	""
SampMemo(8) : 	""
SampMemo(9) : 	""
Temperature [K] :	     298.16000
Viscosity [cp]  :	       0.89000
Refractive Index:	       1.33200
Wavelength [nm] :	       0.00000
Angle [°]       :	       0.00000
Duration [s]    :	         1
FloatDur [ms]   :	          944
Stop TP [ms]   :	      3919
Runs            :	         1
Mode            :	"A-CH0+1  A-CH2+3 "
MeanCR0 [kHz]   :	     123.55910
MeanCR1 [kHz]   :	     126.85670
MeanCR2 [kHz]   :	     118.09879
MeanCR3 [kHz]   :	     120.03475

"Correlation"
  3.12500E-006	 -1.00000E+000	 -1.00000E+000	 -1.00000E+000	 -1.00000E+000
  6.25000E-006	 -1.00000E+000	 -1.00000E+000	 -1.00000E+000	 -1.00000E+000
  9.37500E-006	 -1.00000E+000	 -1.00000E+000	 -1.00000E+000	 -1.00000E+000
  1.25000E-005	 -1.00000E+000	 -1.00000E+000	 -1.00000E+000	 -1.00000E+000
  1.56250E-005	 -1.00000E+000	 -1.00000E+000	 -1.00000E+000	 -1.00000E+000
  1.87500E-005	 -1.00000E+000	 -1.00000E+000	 -1.00000E+000	 -1.00000E+000
  2.18750E-005	 -9.77790E-001	 -3.46806E-001	 -1.00464E-001	 -9.29398E-001
  2.50000E-005	  6.01851E+000	  5.67944E+000	  5.61280E+000	  1.17083E+001
  2.81250E-005	  1.84294E+000	  1.50742E+000	  1.69861E+000	  4.67167E+000
  3.12500E-005	  8.43470E-001	  1.06494E+000	  1.09081E+000	  2.88309E+000
  3.43750E-005	  8.87891E-001	  1.00172E+000	  8.23383E-001	  1.89467E+000
  3.75000E-005	  4.65892E-001	  5.80309E-001	  1.91277E-001	  1.98880E+000
  4.06250E-005	  6.43576E-001	  4.53884E-001	  5.55954E-001	  1.23572E+000
  4.37500E-005	  9.10102E-001	  4.96026E-001	  6.53201E-001	  1.35339E+000
  4.68750E-005	  4.43681E-001	  6.85663E-001	  6.04577E-001	  1.61226E+000
  5.00000E-005	  6.65786E-001	  5.59238E-001	  7.50448E-001	  1.38869E+000
  5.62500E-005	  5.43629E-001	  6.43521E-001	  8.47695E-001	  1.24749E+000
  6.25000E-005	  7.32418E-001	  6.96198E-001	  5.19486E-001	  9.18011E-001
  6.87500E-005	  6.87997E-001	  4.01207E-001	  7.26136E-001	  9.76846E-001
  7.50000E-005	  6.76892E-001	  7.38340E-001	  4.34395E-001	  1.05921E+000
  8.12500E-005	  7.21312E-001	  7.27804E-001	  5.43798E-001	  9.18011E-001
  8.75000E-005	  8.65681E-001	  8.22623E-001	  5.19486E-001	  7.06206E-001
  9.37500E-005	  6.54681E-001	  4.96026E-001	  5.80265E-001	  8.12109E-001
  1.00000E-004	  7.43523E-001	  4.90758E-001	  6.34967E-001	  5.65003E-001
  1.12500E-004	  5.21418E-001	  5.90844E-001	  5.92421E-001	  6.53255E-001
  1.25000E-004	  6.26918E-001	  5.27632E-001	  5.19486E-001	  6.76789E-001
  1.37500E-004	  5.04760E-001	  4.27545E-001	  6.10655E-001	  5.70886E-001
  1.50000E-004	  4.15918E-001	  5.69773E-001	  5.37719E-001	  5.47352E-001
  1.62500E-004	  6.10260E-001	  4.74955E-001	  4.89096E-001	  4.82634E-001
  1.75000E-004	  6.43576E-001	  4.69687E-001	  4.34394E-001	  5.59119E-001
  1.87500E-004	  4.65892E-001	  4.17010E-001	  3.97927E-001	  7.88575E-001
  2.00000E-004	  4.57563E-001	  4.56518E-001	  4.95174E-001	  6.03245E-001
  2.25000E-004	  5.21418E-001	  5.90844E-001	  4.83018E-001	  5.56177E-001
  2.50000E-004	  4.21470E-001	  4.48616E-001	  5.16446E-001	  4.67925E-001
  2.75000E-004	  5.29747E-001	  6.01379E-001	  4.46550E-001	  4.53217E-001
  3.00000E-004	  4.76997E-001	  4.85490E-001	  6.89668E-001	  5.00284E-001
  3.25000E-004	  4.96431E-001	  4.88124E-001	  4.70862E-001	  5.03226E-001
  3.50000E-004	  5.26970E-001	  4.64419E-001	  3.94888E-001	  4.82634E-001
  3.75000E-004	  4.82549E-001	  5.01293E-001	  5.13407E-001	  4.44391E-001
  4.00000E-004	  4.79772E-001	  4.69686E-001	  4.79978E-001	  4.69396E-001
  4.50000E-004	  4.89489E-001	  4.69686E-001	  5.31641E-001	  4.76750E-001
  5.00000E-004	  5.68614E-001	  4.32812E-001	  4.11601E-001	  5.39997E-001
  5.50000E-004	  4.07588E-001	  4.69686E-001	  3.96406E-001	  4.72337E-001
  6.00000E-004	  4.90878E-001	  4.31495E-001	  4.90614E-001	  4.84104E-001
  6.50000E-004	  5.13088E-001	  5.15778E-001	  4.14640E-001	  5.29701E-001
  7.00000E-004	  4.72832E-001	  4.97342E-001	  5.05809E-001	  5.44410E-001
  7.50000E-004	  4.60338E-001	  5.53969E-001	  5.11887E-001	  5.50293E-001
  8.00000E-004	  4.63807E-001	  5.55285E-001	  5.02769E-001	  5.37790E-001
  9.00000E-004	  4.67278E-001	  4.65734E-001	  4.37431E-001	  4.69394E-001
  1.00000E-003	  3.99258E-001	  4.80220E-001	  5.04289E-001	  5.14991E-001
  1.10000E-003	  5.02676E-001	  5.01949E-001	  4.67061E-001	  4.57627E-001
  1.20000E-003	  4.46455E-001	  4.59808E-001	  5.25561E-001	  4.89251E-001
  1.30000E-003	  4.83241E-001	  5.09193E-001	  4.45029E-001	  4.34094E-001
  1.40000E-003	  5.34603E-001	  4.55857E-001	  4.73139E-001	  5.18668E-001
  1.50000E-003	  4.61031E-001	  4.54540E-001	  4.53386E-001	  4.92928E-001
  1.60000E-003	  5.00938E-001	  4.57172E-001	  4.90244E-001	  4.94029E-001
  1.80000E-003	  4.93997E-001	  4.81535E-001	  4.89864E-001	  4.48432E-001
  2.00000E-003	  4.67275E-001	  5.06885E-001	  5.37728E-001	  4.71966E-001
  2.20000E-003	  5.04755E-001	  4.25895E-001	  4.76949E-001	  5.12782E-001
  2.40000E-003	  4.94691E-001	  4.96679E-001	  4.79988E-001	  4.82262E-001
  2.60000E-003	  4.88097E-001	  4.70012E-001	  4.50737E-001	  3.97687E-001
  2.80000E-003	  5.05102E-001	  4.31492E-001	  4.92523E-001	  4.77114E-001
  3.00000E-003	  4.84627E-001	  4.49270E-001	  4.60994E-001	  4.87778E-001
  3.20000E-003	  4.83581E-001	  4.88114E-001	  4.66890E-001	  4.64068E-001
  3.60000E-003	  4.74905E-001	  4.36755E-001	  4.94418E-001	  4.39799E-001
  4.00000E-003	  4.92257E-001	  4.52228E-001	  5.03155E-001	  4.56897E-001
  4.40000E-003	  4.72129E-001	  4.86633E-001	  5.09233E-001	  4.57265E-001
  4.80000E-003	  4.69005E-001	  4.66385E-001	  4.75044E-001	  4.72709E-001
  5.20000E-003	  4.97809E-001	  4.53874E-001	  4.64788E-001	  4.59104E-001
  5.60000E-003	  4.69179E-001	  4.67208E-001	  4.73145E-001	  4.69216E-001
  6.00000E-003	  4.78375E-001	  4.33462E-001	  5.19489E-001	  4.75099E-001
  6.40000E-003	  4.62836E-001	  4.58803E-001	  4.62227E-001	  4.76114E-001
  7.20000E-003	  4.73854E-001	  4.49420E-001	  4.73243E-001	  4.78044E-001
  8.00000E-003	  4.85480E-001	  4.56910E-001	  4.79701E-001	  4.61024E-001
  8.80000E-003	  4.57196E-001	  4.53535E-001	  4.71154E-001	  4.57347E-001
  9.60000E-003	  4.89570E-001	  4.39296E-001	  4.55484E-001	  4.75457E-001
  1.04000E-002	  4.50008E-001	  4.48844E-001	  4.64303E-001	  4.67459E-001
  1.12000E-002	  4.73098E-001	  4.69338E-001	  4.88140E-001	  4.80881E-001
  1.20000E-002	  4.54457E-001	  4.63988E-001	  4.60219E-001	  4.62127E-001
  1.28000E-002	  4.80348E-001	  4.45573E-001	  4.75088E-001	  4.61266E-001
  1.44000E-002	  4.70588E-001	  4.48742E-001	  4.66684E-001	  4.66979E-001
  1.60000E-002	  4.55343E-001	  4.48083E-001	  4.65971E-001	  4.51488E-001
  1.76000E-002	  4.48402E-001	  4.35614E-001	  4.61365E-001	  4.58855E-001
  1.92000E-002	  4.63858E-001	  4.28166E-001	  4.62742E-001	  4.43318E-001
  2.08000E-002	  4.35009E-001	  4.18824E-001	  4.53578E-001	  4.46248E-001
  2.24000E-002	  4.59346E-001	  4.37878E-001	  4.48592E-001	  4.39871E-001
  2.40000E-002	  4.47503E-001	  4.42240E-001	  4.32482E-001	  4.47180E-001
  2.56000E-002	  4.41880E-001	  4.35608E-001	  4.45182E-001	  4.39905E-001
  2.88000E-002	  4.38844E-001	  4.23715E-001	  4.35400E-001	  4.19193E-001
  3.20000E-002	  4.28160E-001	  4.22768E-001	  4.29596E-001	  4.04285E-001
  3.52000E-002	  4.34583E-001	  4.17007E-001	  4.30617E-001	  4.30142E-001
  3.84000E-002	  4.18988E-001	  4.01043E-001	  4.24492E-001	  4.11571E-001
  4.16000E-002	  4.23933E-001	  4.04356E-001	  4.05594E-001	  4.11088E-001
  4.48000E-002	  4.15886E-001	  3.97824E-001	  4.03375E-001	  3.99159E-001
  4.80000E-002	  4.06689E-001	  3.99079E-001	  4.00905E-001	  3.95275E-001
  5.12000E-002	  3.98528E-001	  3.97345E-001	  3.94067E-001	  3.91289E-001
  5.76000E-002	  3.96535E-001	  3.73302E-001	  3.89010E-001	  3.76047E-001
  6.40000E-002	  3.81083E-001	  3.63125E-001	  3.77994E-001	  3.70413E-001
  7.04000E-002	  3.72201E-001	  3.65637E-001	  3.64746E-001	  3.57517E-001
  7.68000E-002	  3.63102E-001	  3.45987E-001	  3.60853E-001	  3.41781E-001
  8.32000E-002	  3.53712E-001	  3.40792E-001	  3.46501E-001	  3.37056E-001
  8.96000E-002	  3.41621E-001	  3.30185E-001	  3.41325E-001	  3.24023E-001
  9.60000E-002	  3.27239E-001	  3.16481E-001	  3.30000E-001	  3.07818E-001
  1.02400E-001	  3.26089E-001	  3.10167E-001	  3.18727E-001	  2.98664E-001
  1.15200E-001	  3.06106E-001	  2.92609E-001	  2.96226E-001	  2.85834E-001
  1.28000E-001	  2.88529E-001	  2.78529E-001	  2.77743E-001	  2.73883E-001
  1.40800E-001	  2.70122E-001	  2.65827E-001	  2.62465E-001	  2.54096E-001
  1.53600E-001	  2.58374E-001	  2.45744E-001	  2.45710E-001	  2.42893E-001
  1.66400E-001	  2.43278E-001	  2.32245E-001	  2.37430E-001	  2.25705E-001
  1.79200E-001	  2.34158E-001	  2.20284E-001	  2.14418E-001	  2.12388E-001
  1.92000E-001	  2.18226E-001	  2.10849E-001	  2.12365E-001	  2.02111E-001
  2.04800E-001	  2.05997E-001	  1.99385E-001	  2.01000E-001	  1.90538E-001
  2.30400E-001	  1.86818E-001	  1.75222E-001	  1.75741E-001	  1.69681E-001
  2.56000E-001	  1.62786E-001	  1.57876E-001	  1.59319E-001	  1.54263E-001
  2.81600E-001	  1.50554E-001	  1.41307E-001	  1.46586E-001	  1.37903E-001
  3.07200E-001	  1.38384E-001	  1.26578E-001	  1.36128E-001	  1.27487E-001
  3.32800E-001	  1.28047E-001	  1.14889E-001	  1.24394E-001	  1.14474E-001
  3.58400E-001	  1.17089E-001	  1.03055E-001	  1.13941E-001	  1.09777E-001
  3.84000E-001	  1.07987E-001	  9.43343E-002	  1.03045E-001	  1.00215E-001
  4.09600E-001	  9.90574E-002	  8.83242E-002	  9.93670E-002	  8.97740E-002
  4.60800E-001	  8.60269E-002	  6.99136E-002	  8.83834E-002	  7.44788E-002
  5.12000E-001	  7.54979E-002	  5.84082E-002	  7.83318E-002	  6.28696E-002
  5.63200E-001	  6.36730E-002	  5.26709E-002	  6.87760E-002	  5.39495E-002
  6.14400E-001	  5.37827E-002	  4.18325E-002	  6.21133E-002	  4.78011E-002
  6.65600E-001	  4.46184E-002	  3.77287E-002	  5.41386E-002	  4.37426E-002
  7.16800E-001	  4.05808E-002	  3.42577E-002	  4.84648E-002	  4.30665E-002
  7.68000E-001	  3.55768E-002	  3.14515E-002	  4.46543E-002	  3.89385E-002
  8.19200E-001	  3.50906E-002	  3.03970E-002	  4.01799E-002	  3.52479E-002
  9.21600E-001	  3.04137E-002	  2.51747E-002	  3.72472E-002	  3.50345E-002
  1.02400E+000	  2.31793E-002	  1.98060E-002	  3.67410E-002	  3.12354E-002
  1.12640E+000	  1.63430E-002	  2.08648E-002	  3.63399E-002	  2.76816E-002
  1.22880E+000	  1.08142E-002	  1.48027E-002	  3.08801E-002	  1.94447E-002
  1.33120E+000	  9.37462E-003	  1.01291E-002	  2.89819E-002	  1.58439E-002
  1.43360E+000	  1.23561E-002	  3.05431E-003	  2.92503E-002	  1.20381E-002
  1.53600E+000	  1.47394E-002	  7.80570E-004	  2.85352E-002	  9.65304E-003
  1.63840E+000	  1.26448E-002	  3.97862E-003	  2.48449E-002	  9.00046E-003
  1.84320E+000	  7.66942E-003	  6.54659E-003	  2.00406E-002	  2.31746E-003
  2.04800E+000	  1.00481E-003	  6.00523E-003	  2.14844E-002	 -1.38270E-003
  2.25280E+000	  1.97704E-003	  4.96089E-003	  2.02845E-002	 -1.41911E-003
  2.45760E+000	  3.17460E-003	  3.29602E-003	  2.00248E-002	  1.94382E-003
  2.66240E+000	  1.24580E-003	  2.03561E-003	  2.04567E-002	  8.60067E-003
  2.86720E+000	  5.08881E-004	  1.25134E-002	  1.85509E-002	  9.02885E-003
  3.07200E+000	  7.40077E-003	  1.06932E-002	  1.20493E-002	  6.19352E-003
  3.27680E+000	  3.73490E-003	  9.92120E-003	  1.27957E-002	 -2.99409E-003
  3.68640E+000	  1.25410E-003	  1.74985E-002	  5.50972E-003	 -7.11614E-003
  4.09600E+000	  1.00688E-002	  1.91844E-002	  3.84475E-004	 -5.55774E-004
  4.50560E+000	  5.41604E-003	  3.30015E-003	 -1.34716E-003	 -3.60612E-004
  4.91520E+000	  6.46474E-003	 -1.82089E-003	 -2.21573E-003	 -1.39682E-003
  5.32480E+000	  1.89556E-003	 -1.17744E-002	  3.79010E-003	 -2.64440E-004
  5.73440E+000	 -2.64046E-003	 -1.39459E-002	  4.54588E-003	  4.74161E-003
  6.14400E+000	 -3.46422E-003	 -1.42879E-002	 -8.55223E-003	  1.03023E-002
  6.55360E+000	  1.11354E-002	 -1.48689E-002	 -5.70297E-003	  9.17574E-003
  7.37280E+000	  1.10670E-002	 -5.87869E-003	 -3.87847E-003	 -5.73997E-004
  8.19200E+000	  1.32016E-003	  1.99600E-003	  7.63106E-003	  2.43027E-003
  9.01120E+000	  2.99078E-003	 -5.24508E-004	  5.46101E-003	  9.53735E-003
  9.83040E+000	  7.94094E-003	 -3.34508E-003	  1.62589E-004	  9.99867E-003
  1.06496E+001	  5.66894E-003	 -2.63907E-003	  1.18738E-002	  9.72492E-003
  1.14688E+001	 -3.15679E-003	 -5.98305E-003	 -4.56064E-003	  1.67880E-003
  1.22880E+001	  2.49144E-004	  6.48824E-003	  3.54358E-003	 -4.06372E-003
  1.31072E+001	  4.38933E-004	  3.65965E-003	 -2.78921E-003	 -8.12627E-003
  1.47456E+001	  1.90517E-003	  1.29124E-003	 -1.38981E-002	 -8.02351E-003
  1.63840E+001	  7.74838E-003	  3.81488E-003	 -2.59013E-003	 -5.57687E-004
  1.80224E+001	  1.77915E-003	 -5.25132E-005	  2.75596E-003	 -1.16618E-002
  1.96608E+001	  9.99786E-003	 -2.06339E-003	  3.80428E-003	  1.57929E-003
  2.12992E+001	  2.83050E-003	 -8.79089E-004	  1.21714E-002	  6.80465E-004
  2.29376E+001	 -2.71701E-004	 -3.90029E-004	 -4.38512E-003	 -1.64602E-004
  2.45760E+001	 -2.59276E-003	  7.15881E-003	 -5.59153E-003	 -5.30571E-003
  2.62144E+001	 -1.37642E-003	 -1.29441E-003	 -3.99658E-003	 -2.39729E-003
  2.94912E+001	 -1.24348E-003	  1.77469E-003	  8.91957E-003	  1.21738E-003
  3.27680E+001	 -8.87043E-003	  4.44635E-003	 -2.02096E-004	 -4.78863E-003
  3.60448E+001	 -8.14332E-003	  7.27550E-003	 -4.54981E-003	 -8.89289E-003
  3.93216E+001	 -1.07800E-002	  6.62943E-003	  1.02044E-002	 -2.87028E-003
  4.25984E+001	 -1.02295E-002	 -1.67155E-003	  3.63900E-003	 -5.20876E-003
  4.58752E+001	 -2.76983E-003	  2.45664E-003	 -4.42410E-003	 -1.34711E-003
  4.91520E+001	 -2.58632E-003	  1.41030E-003	  6.83208E-003	 -2.58324E-004
  5.24288E+001	  2.12753E-003	 -1.91106E-003	  2.35278E-003	 -7.73257E-003
  5.89824E+001	  1.69918E-003	  2.30205E-003	  2.82038E-003	 -9.38825E-004
  6.55360E+001	  3.08152E-003	 -5.68424E-004	  6.61293E-003	  3.85563E-004
  7.20896E+001	 -8.64684E-004	  3.94048E-003	  1.35856E-003	  3.49083E-003
  7.86432E+001	  9.97346E-003	  5.50980E-003	 -1.94152E-003	 -2.40620E-003
  8.51968E+001	  1.14479E-003	 -1.01336E-003	  6.90519E-004	  3.42897E-003
  9.17504E+001	  7.46757E-004	 -4.80087E-003	 -5.58337E-003	  4.07088E-003
  9.83040E+001	 -6.65924E-003	  2.26942E-003	 -2.38255E-003	  8.30065E-005
  1.04858E+002	 -5.56116E-003	  1.60468E-003	 -5.70338E-003	  2.89202E-003
  1.17965E+002	 -2.26450E-003	 -5.24560E-003	 -2.94709E-003	  4.52864E-003
  1.31072E+002	  1.46713E-003	 -4.69453E-003	  6.25631E-003	 -3.39136E-004
  1.44179E+002	  2.80915E-003	  3.22887E-003	  1.58750E-003	 -4.84866E-003
  1.57286E+002	 -2.16750E-003	 -3.20503E-003	 -9.12332E-003	 -9.69366E-004
  1.70394E+002	  3.52266E-003	 -3.90141E-003	  3.58493E-005	 -4.56487E-004
  1.83501E+002	  8.65405E-004	  7.19083E-004	  2.57661E-003	 -4.97899E-003
  1.96608E+002	 -8.01403E-004	 -1.94967E-003	  1.60958E-003	  3.26851E-003
  2.09715E+002	  9.98383E-004	  2.86494E-003	 -3.46363E-003	  9.60888E-004
  2.35930E+002	  1.00146E-003	  1.38962E-003	  1.94064E-003	  4.61248E-003
  2.62144E+002	  2.96742E-003	 -8.16881E-004	 -1.93450E-003	 -6.22336E-003
  2.88358E+002	 -3.02380E-005	  1.10943E-003	  5.86526E-004	 -1.33449E-003
  3.14573E+002	 -5.43989E-003	  2.34889E-003	  2.38502E-003	  4.16304E-003
  3.40787E+002	  1.90087E-003	  4.61872E-004	  2.14314E-003	 -3.45025E-005
  3.67002E+002	 -2.71385E-003	 -1.28984E-003	  3.66248E-003	 -5.82775E-003
  3.93216E+002	 -5.01175E-003	  1.36558E-003	 -6.35102E-004	 -4.07369E-004

"Count Rate"
       0.01311	     116.34827	     111.84692	     105.74341	     126.49536
       0.02621	     108.71887	     134.35364	     109.32922	     124.13025
       0.03932	     135.95581	      98.26660	     114.66980	     114.21204
       0.05243	     135.57434	     122.90955	      87.73804	     120.16296
       0.06554	     107.26929	     129.85229	     132.90405	     101.01318
       0.07864	     130.92041	      99.71619	     129.92859	     109.32922
       0.09175	     131.07300	     127.63977	      90.10315	      93.61267
       0.10486	     134.20105	     120.08667	     134.35364	     112.76245
       0.11796	      94.60449	     131.07300	     124.58801	     101.92871
       0.13107	      90.02686	     129.08936	      89.56909	     113.44910
       0.14418	     117.49268	     114.97498	     108.18481	     153.50342
       0.15729	     134.04846	     123.06213	     121.84143	     110.47363
       0.17039	     139.92310	     100.63171	     117.87415	     130.61523
       0.18350	     124.58801	     111.38916	      96.28296	     100.02136
       0.19661	      94.14673	     120.77332	     117.49268	     104.90417
       0.20972	     141.14380	     135.87952	     103.14941	     116.50085
       0.22282	     131.37817	     141.29639	      89.03503	     113.06763
       0.23593	     139.61792	     132.52258	     137.48169	     136.33728
       0.24904	     130.00488	     109.78699	     115.89050	     107.72705
       0.26214	     109.40552	     133.89587	      98.64807	     125.57983
       0.27525	     126.26648	     142.44080	     105.81970	     143.05115
       0.28836	     115.58533	     140.22827	     114.44092	      88.95874
       0.30147	     127.41089	     124.96948	     132.52258	     131.53076
       0.31457	     115.28015	     124.28284	     114.28833	     111.84692
       0.32768	     121.07849	      98.19031	      97.42737	      96.20667
       0.34079	     118.40820	     124.89319	     138.77869	     150.29907
       0.35389	     147.55249	     106.43005	     106.88782	     106.88782
       0.36700	     101.77612	     110.39734	     157.08923	     126.64795
       0.38011	     131.75964	     115.89050	     165.55786	     133.20923
       0.39322	     137.25281	     121.68884	     116.04309	     128.86047
       0.40632	     133.28552	      94.98596	     105.66711	      94.68079
       0.41943	     108.26111	     141.75415	      98.19031	     127.56348
       0.43254	     152.58789	     111.46545	     146.86584	     121.99402
       0.44564	     154.34265	     121.00220	     115.43274	     119.40002
       0.45875	     130.15747	     125.73242	      94.45190	     122.14661
       0.47186	     102.15759	     157.08923	     117.41638	     157.16553
       0.48497	      93.46008	     157.16553	     131.07300	     125.04578
       0.49807	     135.04028	     114.66980	     119.09485	     106.20117
       0.51118	     136.94763	     109.55811	     136.79504	     111.77063
       0.52429	     180.13000	     146.10291	     123.90137	      94.68079
       0.53740	     106.12488	      90.17944	     100.17395	     122.52808
       0.55050	     100.93689	     150.68054	     132.14111	     114.51721
       0.56361	     111.16028	     123.51990	     115.12756	     164.26086
       0.57672	     121.30737	      94.68079	     102.84424	     128.78418
       0.58982	     107.80334	     131.98853	     101.77612	      88.88245
       0.60293	     103.45459	     107.19299	     100.93689	      97.35107
       0.61604	     117.79785	     132.90405	     127.25830	      86.74622
       0.62915	      99.25842	     137.55798	     130.38635	     163.72681
       0.64225	     114.05945	      92.54456	     115.73792	     110.77881
       0.65536	     150.75684	      89.26392	     102.92053	     109.93958
       0.66847	     136.10840	     148.46802	     134.65881	     120.46814
       0.68157	     129.69971	      98.49548	     147.70508	     137.71057
       0.69468	     132.67517	     128.55530	     170.59326	     113.37280
       0.70779	     133.81958	     160.06470	      98.80066	     109.71069
       0.72090	     100.09766	     114.59351	     136.94763	     102.46277
       0.73400	     107.49817	     118.33191	     123.06213	      93.00232
       0.74711	     110.70251	     109.25293	     138.77869	     124.81689
