ALV-7004/USB-FAST
Date :	"3/14/2024"
Time :	"12:37:35 PM"
Samplename : 	""
SampMemo(0) : 	""
SampMemo(1) : 	""
SampMemo(2) : 	""
SampMemo(3) : 	""
SampMemo(4) : 	""
SampMemo(5) : 	""
SampMemo(6) : 	""
SampMemo(7) : 	""
SampMemo(8) : 	""
SampMemo(9) : 	""
Temperature [K] :	     298.16000
Viscosity [cp]  :	       0.89000
Refractive Index:	       1.33200
Wavelength [nm] :	       0.00000
Angle [°]       :	       0.00000
Duration [s]    :	         1
FloatDur [ms]   :	          944
Stop TP [ms]   :	      4078
Runs            :	         1
Mode            :	"A-CH0+1  A-CH2+3 "
MeanCR0 [kHz]   :	     143.50573
MeanCR1 [kHz]   :	     142.68769
MeanCR2 [kHz]   :	     130.70636
MeanCR3 [kHz]   :	     134.92691

"Correlation"
  3.12500E-006	 -1.00000E+000	 -1.00000E+000	 -1.00000E+000	 -1.00000E+000
  6.25000E-006	 -1.00000E+000	 -1.00000E+000	 -1.00000E+000	 -1.00000E+000
  9.37500E-006	 -1.00000E+000	 -1.00000E+000	 -1.00000E+000	 -1.00000E+000
  1.25000E-005	 -1.00000E+000	 -1.00000E+000	 -1.00000E+000	 -1.00000E+000
  1.56250E-005	 -1.00000E+000	 -1.00000E+000	 -1.00000E+000	 -1.00000E+000
  1.87500E-005	 -1.00000E+000	 -1.00000E+000	 -1.00000E+000	 -1.00000E+000
  2.18750E-005	 -9.67069E-001	 -3.17161E-001	 -1.86244E-001	 -9.62749E-001
  2.50000E-005	  5.25680E+000	  4.99566E+000	  5.31157E+000	  1.03802E+001
  2.81250E-005	  1.73324E+000	  1.31499E+000	  1.54051E+000	  3.87991E+000
  3.12500E-005	  4.98340E-001	  4.65606E-001	  9.25229E-001	  2.61337E+000
  3.43750E-005	  6.95924E-001	  7.98698E-001	  1.00462E+000	  2.22223E+000
  3.75000E-005	  5.80667E-001	  7.48734E-001	  8.06142E-001	  1.71934E+000
  4.06250E-005	  4.81875E-001	  4.15642E-001	  5.87817E-001	  1.51446E+000
  4.37500E-005	  7.28854E-001	  6.65461E-001	  8.06142E-001	  1.45858E+000
  4.68750E-005	  7.28854E-001	  3.82333E-001	  5.87817E-001	  1.14194E+000
  5.00000E-005	  4.57177E-001	  4.48951E-001	  5.08426E-001	  1.29095E+000
  5.62500E-005	  5.72434E-001	  5.48879E-001	  7.06904E-001	  1.06744E+000
  6.25000E-005	  4.16014E-001	  4.98915E-001	  5.28274E-001	  9.92940E-001
  6.87500E-005	  5.14805E-001	  6.48806E-001	  5.48122E-001	  8.43935E-001
  7.50000E-005	  6.71225E-001	  6.48806E-001	  3.39721E-001	  7.41494E-001
  8.12500E-005	  4.40712E-001	  5.32224E-001	  6.77132E-001	  9.46376E-001
  8.75000E-005	  4.57177E-001	  4.48951E-001	  5.18350E-001	  8.25309E-001
  9.37500E-005	  4.16014E-001	  3.98987E-001	  6.17589E-001	  3.41044E-001
  1.00000E-004	  4.36595E-001	  3.82333E-001	  6.57284E-001	  5.64551E-001
  1.12500E-004	  5.06573E-001	  4.65606E-001	  4.88578E-001	  6.85617E-001
  1.25000E-004	  4.94224E-001	  5.73861E-001	  7.01941E-001	  7.18212E-001
  1.37500E-004	  5.02456E-001	  5.28060E-001	  5.82855E-001	  6.25084E-001
  1.50000E-004	  5.55968E-001	  4.94751E-001	  3.44683E-001	  4.38828E-001
  1.62500E-004	  5.35387E-001	  5.28060E-001	  4.48883E-001	  6.39053E-001
  1.75000E-004	  6.38295E-001	  5.15569E-001	  5.53084E-001	  4.43484E-001
  1.87500E-004	  4.85991E-001	  5.15569E-001	  5.38198E-001	  4.57454E-001
  2.00000E-004	  4.42769E-001	  4.38542E-001	  5.25793E-001	  5.76191E-001
  2.25000E-004	  4.85991E-001	  5.34306E-001	  4.78654E-001	  5.01689E-001
  2.50000E-004	  5.47735E-001	  4.65605E-001	  4.91059E-001	  5.04017E-001
  2.75000E-004	  4.24246E-001	  5.09324E-001	  5.65488E-001	  5.97145E-001
  3.00000E-004	  5.39503E-001	  4.80178E-001	  3.86859E-001	  4.97033E-001
  3.25000E-004	  5.06572E-001	  4.82260E-001	  4.29035E-001	  5.06345E-001
  3.50000E-004	  4.20130E-001	  4.44787E-001	  5.65488E-001	  5.01689E-001
  3.75000E-004	  5.00398E-001	  4.28132E-001	  6.12626E-001	  3.92264E-001
  4.00000E-004	  4.73641E-001	  4.93709E-001	  5.94018E-001	  4.73750E-001
  4.50000E-004	  5.73462E-001	  4.61441E-001	  5.85335E-001	  4.85391E-001
  5.00000E-004	  4.92165E-001	  4.53114E-001	  4.98501E-001	  4.29514E-001
  5.50000E-004	  5.14804E-001	  4.88505E-001	  5.98980E-001	  4.87719E-001
  6.00000E-004	  5.33328E-001	  4.23968E-001	  5.34475E-001	  6.15770E-001
  6.50000E-004	  5.70375E-001	  5.12446E-001	  5.00982E-001	  5.29627E-001
  7.00000E-004	  4.37623E-001	  4.78096E-001	  4.21592E-001	  5.12165E-001
  7.50000E-004	  4.98339E-001	  4.49991E-001	  4.69970E-001	  4.99360E-001
  8.00000E-004	  5.02969E-001	  4.44785E-001	  4.86107E-001	  4.55123E-001
  9.00000E-004	  5.09658E-001	  4.46867E-001	  4.71210E-001	  4.55123E-001
  1.00000E-003	  4.71582E-001	  4.64563E-001	  4.76792E-001	  5.19149E-001
  1.10000E-003	  5.68315E-001	  4.44785E-001	  4.55704E-001	  4.68510E-001
  1.20000E-003	  4.89076E-001	  4.77574E-001	  5.17107E-001	  4.88882E-001
  1.30000E-003	  4.96794E-001	  4.27090E-001	  5.09664E-001	  4.69092E-001
  1.40000E-003	  4.79300E-001	  4.26049E-001	  4.53223E-001	  4.78405E-001
  1.50000E-003	  4.31962E-001	  4.65083E-001	  4.34615E-001	  4.90628E-001
  1.60000E-003	  4.75953E-001	  4.67694E-001	  4.94788E-001	  4.86842E-001
  1.80000E-003	  4.87015E-001	  4.65872E-001	  5.21149E-001	  4.95282E-001
  2.00000E-003	  4.96277E-001	  4.71337E-001	  5.00991E-001	  4.36495E-001
  2.20000E-003	  4.57429E-001	  4.71337E-001	  4.94788E-001	  4.63269E-001
  2.40000E-003	  4.63861E-001	  4.41931E-001	  4.36175E-001	  4.88297E-001
  2.60000E-003	  4.67977E-001	  4.65091E-001	  5.21446E-001	  4.79276E-001
  2.80000E-003	  4.96792E-001	  4.65352E-001	  4.71517E-001	  4.72582E-001
  3.00000E-003	  4.34018E-001	  4.17209E-001	  4.86713E-001	  4.83059E-001
  3.20000E-003	  4.86249E-001	  4.44929E-001	  4.83929E-001	  4.76518E-001
  3.60000E-003	  4.60394E-001	  4.54168E-001	  4.82223E-001	  4.76081E-001
  4.00000E-003	  4.96926E-001	  4.45699E-001	  4.69818E-001	  4.56437E-001
  4.40000E-003	  4.89980E-001	  4.42577E-001	  4.98052E-001	  4.96307E-001
  4.80000E-003	  4.99113E-001	  4.68860E-001	  4.91539E-001	  4.66186E-001
  5.20000E-003	  4.68112E-001	  4.66908E-001	  5.18055E-001	  4.95434E-001
  5.60000E-003	  4.79432E-001	  4.52856E-001	  5.14333E-001	  4.85539E-001
  6.00000E-003	  4.79560E-001	  4.39064E-001	  4.67182E-001	  4.60511E-001
  6.40000E-003	  4.70621E-001	  4.41948E-001	  4.84653E-001	  4.84389E-001
  7.20000E-003	  4.55700E-001	  4.53279E-001	  4.91088E-001	  4.94429E-001
  8.00000E-003	  4.72422E-001	  4.24328E-001	  4.92949E-001	  4.72445E-001
  8.80000E-003	  4.79229E-001	  4.21346E-001	  4.82172E-001	  4.80739E-001
  9.60000E-003	  4.63600E-001	  4.41905E-001	  4.90313E-001	  4.68152E-001
  1.04000E-002	  4.51637E-001	  4.23753E-001	  4.99473E-001	  4.50618E-001
  1.12000E-002	  4.81544E-001	  4.35919E-001	  4.70411E-001	  4.58985E-001
  1.20000E-002	  4.66108E-001	  4.46784E-001	  4.79339E-001	  4.53965E-001
  1.28000E-002	  4.64170E-001	  4.47751E-001	  4.78025E-001	  4.47140E-001
  1.44000E-002	  4.48894E-001	  4.28396E-001	  4.59223E-001	  4.57690E-001
  1.60000E-002	  4.48444E-001	  4.28027E-001	  4.69419E-001	  4.47492E-001
  1.76000E-002	  4.39118E-001	  4.30727E-001	  4.69690E-001	  4.55387E-001
  1.92000E-002	  4.55519E-001	  4.21163E-001	  4.52299E-001	  4.33341E-001
  2.08000E-002	  4.30982E-001	  4.12380E-001	  4.51562E-001	  4.32930E-001
  2.24000E-002	  4.37564E-001	  4.05614E-001	  4.46329E-001	  4.31875E-001
  2.40000E-002	  4.20199E-001	  4.09442E-001	  4.29000E-001	  4.39805E-001
  2.56000E-002	  4.25128E-001	  4.01195E-001	  4.50035E-001	  4.33450E-001
  2.88000E-002	  4.11439E-001	  4.03000E-001	  4.33268E-001	  4.25592E-001
  3.20000E-002	  4.23123E-001	  3.94482E-001	  4.35420E-001	  4.33613E-001
  3.52000E-002	  4.06861E-001	  3.83822E-001	  4.27989E-001	  4.09592E-001
  3.84000E-002	  4.04514E-001	  3.81457E-001	  4.15390E-001	  4.04827E-001
  4.16000E-002	  4.00799E-001	  3.77212E-001	  4.09323E-001	  4.00887E-001
  4.48000E-002	  3.90926E-001	  3.68617E-001	  4.05830E-001	  3.93320E-001
  4.80000E-002	  3.90159E-001	  3.63314E-001	  4.07342E-001	  3.87216E-001
  5.12000E-002	  3.79099E-001	  3.63809E-001	  3.93272E-001	  3.87373E-001
  5.76000E-002	  3.67065E-001	  3.53255E-001	  3.82302E-001	  3.75946E-001
  6.40000E-002	  3.61785E-001	  3.41360E-001	  3.72077E-001	  3.71917E-001
  7.04000E-002	  3.51778E-001	  3.39560E-001	  3.66721E-001	  3.55017E-001
  7.68000E-002	  3.43283E-001	  3.27232E-001	  3.47455E-001	  3.43939E-001
  8.32000E-002	  3.35629E-001	  3.11949E-001	  3.38432E-001	  3.36399E-001
  8.96000E-002	  3.29329E-001	  3.09945E-001	  3.29671E-001	  3.29285E-001
  9.60000E-002	  3.20616E-001	  2.93771E-001	  3.27178E-001	  3.13041E-001
  1.02400E-001	  3.12232E-001	  2.93490E-001	  3.13731E-001	  3.09563E-001
  1.15200E-001	  2.98437E-001	  2.74834E-001	  2.98338E-001	  2.98950E-001
  1.28000E-001	  2.85661E-001	  2.58331E-001	  2.82196E-001	  2.82657E-001
  1.40800E-001	  2.71910E-001	  2.47191E-001	  2.66601E-001	  2.69016E-001
  1.53600E-001	  2.63721E-001	  2.38122E-001	  2.59439E-001	  2.59219E-001
  1.66400E-001	  2.47110E-001	  2.22576E-001	  2.43219E-001	  2.43831E-001
  1.79200E-001	  2.32249E-001	  2.15161E-001	  2.32155E-001	  2.34024E-001
  1.92000E-001	  2.25590E-001	  2.02142E-001	  2.16692E-001	  2.20147E-001
  2.04800E-001	  2.15997E-001	  2.00082E-001	  2.12085E-001	  2.16246E-001
  2.30400E-001	  1.97544E-001	  1.83661E-001	  1.95020E-001	  1.98922E-001
  2.56000E-001	  1.83298E-001	  1.70014E-001	  1.76795E-001	  1.82384E-001
  2.81600E-001	  1.68507E-001	  1.59159E-001	  1.64616E-001	  1.66304E-001
  3.07200E-001	  1.56396E-001	  1.46699E-001	  1.52070E-001	  1.55635E-001
  3.32800E-001	  1.48032E-001	  1.35932E-001	  1.41753E-001	  1.44914E-001
  3.58400E-001	  1.39743E-001	  1.25805E-001	  1.34047E-001	  1.36110E-001
  3.84000E-001	  1.29323E-001	  1.17966E-001	  1.24771E-001	  1.31079E-001
  4.09600E-001	  1.21793E-001	  1.08776E-001	  1.16221E-001	  1.23428E-001
  4.60800E-001	  1.11082E-001	  9.42377E-002	  1.02884E-001	  1.09387E-001
  5.12000E-001	  1.06037E-001	  8.11922E-002	  9.34228E-002	  9.98496E-002
  5.63200E-001	  1.00586E-001	  7.14272E-002	  8.32163E-002	  9.06992E-002
  6.14400E-001	  9.08534E-002	  6.62550E-002	  7.37546E-002	  8.03927E-002
  6.65600E-001	  8.10664E-002	  6.19028E-002	  6.62027E-002	  7.25996E-002
  7.16800E-001	  7.34411E-002	  5.37222E-002	  6.56660E-002	  6.86648E-002
  7.68000E-001	  6.73794E-002	  4.77603E-002	  6.29135E-002	  6.13073E-002
  8.19200E-001	  6.25966E-002	  4.36427E-002	  6.13991E-002	  5.33328E-002
  9.21600E-001	  5.78180E-002	  3.90034E-002	  5.41212E-002	  4.53031E-002
  1.02400E+000	  5.29541E-002	  3.08523E-002	  4.48268E-002	  2.91783E-002
  1.12640E+000	  4.57499E-002	  2.51273E-002	  4.03021E-002	  2.26007E-002
  1.22880E+000	  3.86124E-002	  2.21951E-002	  3.91074E-002	  2.13227E-002
  1.33120E+000	  2.73296E-002	  1.95587E-002	  3.29262E-002	  2.04846E-002
  1.43360E+000	  2.02718E-002	  1.79538E-002	  2.62347E-002	  2.38608E-002
  1.53600E+000	  2.03658E-002	  1.91102E-002	  2.31037E-002	  2.18929E-002
  1.63840E+000	  1.59755E-002	  1.72355E-002	  1.57731E-002	  2.22601E-002
  1.84320E+000	  2.49840E-003	  1.34028E-002	  6.91509E-003	  2.39708E-002
  2.04800E+000	 -4.72292E-003	  7.38201E-003	 -1.44820E-003	  2.13205E-002
  2.25280E+000	 -9.28798E-003	  4.85553E-003	 -8.36137E-003	  2.24201E-002
  2.45760E+000	 -1.32107E-002	  6.14499E-003	 -6.01307E-003	  2.30329E-002
  2.66240E+000	 -1.15165E-002	  5.32801E-003	  4.84381E-003	  1.54581E-002
  2.86720E+000	 -1.15925E-002	  6.84338E-003	 -3.22633E-004	  5.87045E-003
  3.07200E+000	 -1.70827E-002	  9.94982E-003	  9.83996E-004	 -1.67438E-003
  3.27680E+000	 -1.63501E-002	  1.23977E-002	  3.60342E-003	 -3.81051E-003
  3.68640E+000	 -5.75941E-003	  2.95038E-003	  9.05177E-003	 -6.65600E-003
  4.09600E+000	 -8.32549E-003	 -5.48372E-003	  6.54829E-003	 -7.76654E-003
  4.50560E+000	 -1.00813E-003	 -3.02291E-003	  1.14790E-002	  9.70183E-004
  4.91520E+000	 -8.10904E-004	 -1.64140E-004	  1.34654E-002	  6.41830E-003
  5.32480E+000	 -2.98285E-003	  6.67048E-003	  3.78565E-003	  1.00718E-002
  5.73440E+000	 -1.14605E-003	  6.72615E-003	  5.72073E-003	  5.08005E-003
  6.14400E+000	  1.70216E-003	 -1.70045E-003	  1.01956E-002	  4.55930E-003
  6.55360E+000	 -2.05862E-003	  7.31057E-003	  5.94822E-003	  8.89686E-003
  7.37280E+000	 -6.07686E-004	  6.69202E-003	  7.19251E-005	  1.50129E-002
  8.19200E+000	 -1.16262E-002	  7.45530E-003	 -1.47736E-002	  1.57340E-003
  9.01120E+000	 -5.07933E-003	  2.01569E-003	 -4.77158E-003	 -3.55205E-003
  9.83040E+000	  4.75336E-003	 -3.96336E-003	  9.85564E-005	  8.55140E-003
  1.06496E+001	 -2.90955E-003	 -3.37662E-003	 -5.01872E-004	  8.86300E-003
  1.14688E+001	 -1.02791E-002	  3.14727E-003	 -5.29017E-003	  9.68065E-003
  1.22880E+001	 -1.66356E-003	 -1.11809E-002	 -1.20674E-002	  7.42196E-003
  1.31072E+001	  5.12138E-003	 -4.19245E-003	 -1.19885E-002	  5.73737E-003
  1.47456E+001	  3.06194E-003	 -3.32166E-003	 -4.66222E-003	 -1.08303E-003
  1.63840E+001	  8.84420E-003	  1.42906E-004	 -2.76407E-003	  8.19007E-003
  1.80224E+001	  1.69191E-003	 -2.61498E-003	 -2.53316E-003	  1.02422E-002
  1.96608E+001	 -4.66494E-003	 -2.13523E-004	 -1.10730E-003	 -4.41111E-003
  2.12992E+001	  8.42832E-003	  2.20685E-003	  1.51147E-003	 -8.37548E-003
  2.29376E+001	 -4.38151E-003	 -7.46632E-004	  8.41389E-003	 -6.90981E-003
  2.45760E+001	 -8.11803E-003	  7.17175E-003	  6.90862E-003	 -3.59833E-003
  2.62144E+001	 -3.80617E-003	  2.13402E-003	 -1.98948E-004	 -9.82532E-003
  2.94912E+001	  5.92790E-003	  2.96772E-003	 -5.54584E-003	 -2.43917E-003
  3.27680E+001	  6.42151E-004	 -8.52896E-004	  3.79306E-005	 -7.53675E-006
  3.60448E+001	 -1.02815E-002	  1.47133E-003	  6.67887E-003	  9.24842E-003
  3.93216E+001	 -7.30005E-003	  3.52945E-003	 -5.82091E-004	  9.42564E-004
  4.25984E+001	  4.19212E-004	 -8.19133E-004	  1.42407E-003	  6.01174E-003
  4.58752E+001	  5.05686E-003	  6.79701E-003	 -4.35439E-003	 -7.87654E-003
  4.91520E+001	  6.60964E-003	 -1.13659E-004	 -4.09352E-003	  9.81785E-003
  5.24288E+001	  3.07161E-003	 -3.90348E-003	 -1.76716E-004	 -1.01994E-003
  5.89824E+001	  4.38963E-003	  1.72187E-004	  1.52931E-003	 -7.49981E-003
  6.55360E+001	  3.36894E-003	  6.61411E-003	 -2.34828E-003	 -1.11295E-003
  7.20896E+001	  7.27297E-004	  4.45447E-003	 -2.50062E-003	 -2.20432E-003
  7.86432E+001	 -4.81919E-003	  2.79656E-003	 -6.73932E-003	 -4.79089E-005
  8.51968E+001	  4.54376E-003	  2.84883E-003	  4.95642E-003	  4.52312E-005
  9.17504E+001	 -6.91832E-003	 -9.75452E-004	  6.71042E-003	 -3.21895E-003
  9.83040E+001	 -1.54528E-003	 -4.29089E-003	  4.78310E-003	  2.70957E-003
  1.04858E+002	 -8.64743E-004	  9.83821E-004	 -4.88611E-003	 -6.44390E-003
  1.17965E+002	 -1.98546E-004	  1.79301E-003	  3.82324E-003	  7.14196E-003
  1.31072E+002	 -5.97289E-003	 -2.31451E-003	  4.74810E-003	  4.71703E-003
  1.44179E+002	 -2.74456E-004	  2.16136E-003	  2.42188E-003	 -1.01513E-002
  1.57286E+002	 -5.02254E-003	  2.05057E-004	 -2.28119E-003	 -1.46032E-005
  1.70394E+002	  2.42834E-003	  1.47112E-003	 -2.71386E-004	  7.87539E-004
  1.83501E+002	 -6.11778E-003	  5.72078E-003	  7.73189E-003	 -8.65608E-003
  1.96608E+002	 -4.61052E-003	 -9.79936E-004	 -8.86465E-003	  1.83707E-003
  2.09715E+002	 -1.12603E-003	  4.13744E-003	 -4.80075E-003	  6.46021E-003
  2.35930E+002	  1.49914E-003	  8.03586E-004	  5.01890E-003	 -7.35199E-003
  2.62144E+002	 -7.91149E-004	  2.31622E-003	  8.76508E-004	 -1.20289E-002
  2.88358E+002	  4.74020E-003	 -3.50008E-003	  8.19713E-004	  3.48100E-003
  3.14573E+002	  5.10719E-003	 -4.34104E-003	 -6.36844E-003	 -2.02157E-003
  3.40787E+002	 -3.87415E-005	 -2.98172E-003	 -1.34428E-003	  1.67447E-003
  3.67002E+002	 -3.59387E-004	 -7.14399E-003	  1.50591E-003	  5.23876E-003
  3.93216E+002	  2.02932E-003	  1.02525E-003	  2.52418E-003	 -6.69791E-003

"Count Rate"
       0.01311	     131.98853	     163.11646	     107.65076	     156.40259
       0.02621	     141.37268	     130.15747	     180.58777	     112.45728
       0.03932	     145.49255	     163.80310	     118.48450	      92.54456
       0.05243	     129.16565	     124.13025	     153.96118	     125.50354
       0.06554	     136.56616	     127.56348	     172.19543	     144.88220
       0.07864	     182.95288	     139.77051	     111.61804	     136.33728
       0.09175	     147.85767	     138.09204	     109.48181	     135.65063
       0.10486	     143.43262	     140.45715	     127.10571	     165.93933
       0.11796	     164.03198	     130.99670	     146.02661	     182.87659
       0.13107	     162.58240	     118.86597	     135.95581	     119.55261
       0.14418	     124.13025	     176.77307	     127.25830	     146.25549
       0.15729	     128.32642	     156.02112	     115.35645	     132.14111
       0.17039	     132.75146	     133.13293	     159.30176	      87.35657
       0.18350	     125.96130	     148.62061	     117.41638	     116.04309
       0.19661	     139.84680	     142.89856	     132.21741	     116.42456
       0.20972	     140.76233	     126.41907	     181.35071	     105.43823
       0.22282	     163.57422	     148.08655	     112.15210	     141.06750
       0.23593	     143.28003	     160.59875	     141.44897	     177.23083
       0.24904	     158.84399	     116.65344	     134.27734	      93.84155
       0.26214	     139.61792	     136.33728	     163.26904	     112.83875
       0.27525	     141.14380	     107.42188	     108.26111	     120.01038
       0.28836	     111.46545	     116.57715	      87.81433	     123.51990
       0.30147	     162.04834	     130.31006	     128.93677	     163.72681
       0.31457	     116.34827	     120.54443	     131.07300	     182.95288
       0.32768	     140.45715	     160.90393	     128.09753	     150.07019
       0.34079	     129.01306	     125.12207	     160.14099	     133.20923
       0.35389	      96.89331	      94.98596	     170.97473	     175.17090
       0.36700	     145.56885	     153.27454	      99.63989	     127.48718
       0.38011	     117.64526	     130.99670	     130.23376	     120.16296
       0.39322	     148.62061	     137.55798	     137.25281	     159.22546
       0.40632	     131.45447	     144.95850	      98.57178	     111.31287
       0.41943	     125.80872	     125.35095	     144.80591	     127.41089
       0.43254	     144.42444	     132.06482	     148.62061	     183.48694
       0.44564	     152.66418	     147.55249	     135.80322	     161.28540
       0.45875	     110.24475	     115.73792	      99.02954	     135.87952
       0.47186	     172.27173	     137.71057	     132.14111	     129.85229
       0.48497	     128.17383	     133.97217	     177.23083	     143.28003
       0.49807	     163.11646	     135.34546	     108.56628	     115.58533
       0.51118	     136.71875	     124.13025	     129.85229	     133.28552
       0.52429	     168.38074	      98.19031	      86.51733	     189.43787
       0.53740	     173.41614	     126.64795	     118.17932	     107.34558
       0.55050	     184.55505	     134.81140	     103.45459	     123.13843
       0.56361	     119.85779	     144.04297	     102.00500	     111.23657
       0.57672	     121.00220	     144.42444	     127.10571	     130.92041
       0.58982	     154.72412	     126.34277	     136.33728	     114.89868
       0.60293	     138.47351	     146.17920	     172.88208	     117.56897
       0.61604	     162.50610	     184.09729	     116.95862	     124.35913
       0.62915	     115.96680	     127.33459	     131.53076	     111.99951
       0.64225	     161.20911	     193.09998	      93.61267	     150.98572
       0.65536	     130.00488	     147.32361	     121.99402	     138.77869
       0.66847	     116.27197	     134.04846	     115.89050	     126.95313
       0.68157	      95.82520	     125.96130	     104.59900	     136.18469
       0.69468	     149.38354	     143.20374	     133.43811	     127.33459
       0.70779	     174.17908	     150.75684	     112.07581	     129.92859
       0.72090	     109.63440	     144.80591	     125.27466	     109.32922
       0.73400	     122.60437	     159.07288	     116.11938	      99.56360
       0.74711	     120.77332	     118.78967	     123.82507	     117.11121
