ALV-7004/USB-FAST
Date :	"3/14/2024"
Time :	"12:31:52 PM"
Samplename : 	""
SampMemo(0) : 	""
SampMemo(1) : 	""
SampMemo(2) : 	""
SampMemo(3) : 	""
SampMemo(4) : 	""
SampMemo(5) : 	""
SampMemo(6) : 	""
SampMemo(7) : 	""
SampMemo(8) : 	""
SampMemo(9) : 	""
Temperature [K] :	     298.16000
Viscosity [cp]  :	       0.89000
Refractive Index:	       1.33200
Wavelength [nm] :	       0.00000
Angle [°]       :	       0.00000
Duration [s]    :	         1
FloatDur [ms]   :	          944
Stop TP [ms]   :	      3198
Runs            :	         1
Mode            :	"A-CH0+1  A-CH2+3 "
MeanCR0 [kHz]   :	     146.24914
MeanCR1 [kHz]   :	     146.36994
MeanCR2 [kHz]   :	     141.95655
MeanCR3 [kHz]   :	     143.95925

"Correlation"
  3.12500E-006	 -1.00000E+000	 -1.00000E+000	 -1.00000E+000	 -1.00000E+000
  6.25000E-006	 -1.00000E+000	 -1.00000E+000	 -1.00000E+000	 -1.00000E+000
  9.37500E-006	 -1.00000E+000	 -1.00000E+000	 -1.00000E+000	 -1.00000E+000
  1.25000E-005	 -1.00000E+000	 -1.00000E+000	 -1.00000E+000	 -1.00000E+000
  1.56250E-005	 -1.00000E+000	 -1.00000E+000	 -1.00000E+000	 -1.00000E+000
  1.87500E-005	 -1.00000E+000	 -1.00000E+000	 -1.00000E+000	 -1.00000E+000
  2.18750E-005	 -9.36586E-001	 -3.51085E-001	 -4.44722E-001	 -1.00000E+000
  2.50000E-005	  4.84993E+000	  5.03016E+000	  5.49507E+000	  9.71691E+000
  2.81250E-005	  1.79021E+000	  9.30917E-001	  1.55765E+000	  3.90851E+000
  3.12500E-005	  5.53639E-001	  5.82719E-001	  1.03602E+000	  2.20689E+000
  3.43750E-005	  7.59734E-001	  7.25164E-001	  6.32181E-001	  2.20689E+000
  3.75000E-005	  9.02415E-001	  7.09336E-001	  5.98528E-001	  1.63423E+000
  4.06250E-005	  6.80467E-001	  7.09336E-001	  7.66794E-001	  1.29064E+000
  4.37500E-005	  7.75588E-001	  5.66892E-001	  8.50927E-001	  1.40517E+000
  4.68750E-005	  6.01199E-001	  6.14373E-001	  5.81702E-001	  1.38881E+000
  5.00000E-005	  6.40833E-001	  5.66892E-001	  5.98528E-001	  1.38063E+000
  5.62500E-005	  6.24980E-001	  4.71928E-001	  5.39635E-001	  1.02067E+000
  6.25000E-005	  7.28027E-001	  5.98546E-001	  5.56462E-001	  9.87946E-001
  6.87500E-005	  6.64613E-001	  5.82719E-001	  5.48048E-001	  8.81595E-001
  7.50000E-005	  5.37786E-001	  3.84879E-001	  5.14395E-001	  8.65233E-001
  8.12500E-005	  4.42665E-001	  4.79842E-001	  4.47089E-001	  1.03703E+000
  8.75000E-005	  3.55471E-001	  5.51064E-001	  3.37716E-001	  6.03446E-001
  9.37500E-005	  4.42665E-001	  5.90632E-001	  5.31222E-001	  9.14318E-001
  1.00000E-004	  4.86262E-001	  5.39194E-001	  4.97568E-001	  5.91175E-001
  1.12500E-004	  6.28943E-001	  4.20490E-001	  4.55502E-001	  6.48441E-001
  1.25000E-004	  4.42665E-001	  6.06459E-001	  5.05982E-001	  4.84824E-001
  1.37500E-004	  5.57602E-001	  4.83799E-001	  5.60668E-001	  5.70723E-001
  1.50000E-004	  5.29859E-001	  3.37397E-001	  4.59708E-001	  5.58451E-001
  1.62500E-004	  4.74372E-001	  5.27323E-001	  5.60668E-001	  5.78903E-001
  1.75000E-004	  4.42665E-001	  5.58978E-001	  6.36388E-001	  6.56622E-001
  1.87500E-004	  5.73456E-001	  4.44231E-001	  5.35428E-001	  4.60281E-001
  2.00000E-004	  5.27877E-001	  4.28403E-001	  5.12291E-001	  4.39829E-001
  2.25000E-004	  5.08060E-001	  4.50166E-001	  5.56461E-001	  5.46180E-001
  2.50000E-004	  4.68426E-001	  5.07539E-001	  5.90114E-001	  4.39829E-001
  2.75000E-004	  5.83364E-001	  4.91712E-001	  6.65834E-001	  4.66417E-001
  3.00000E-004	  5.81382E-001	  5.41172E-001	  4.05022E-001	  5.07321E-001
  3.25000E-004	  4.98151E-001	  5.45129E-001	  5.08085E-001	  6.09581E-001
  3.50000E-004	  3.95104E-001	  5.03582E-001	  5.24911E-001	  5.21637E-001
  3.75000E-004	  4.22848E-001	  4.69950E-001	  4.32365E-001	  4.72552E-001
  4.00000E-004	  4.72389E-001	  4.84787E-001	  4.80741E-001	  4.75619E-001
  4.50000E-004	  5.59583E-001	  4.62035E-001	  4.39726E-001	  4.73574E-001
  5.00000E-004	  4.98151E-001	  4.95668E-001	  4.95464E-001	  5.22659E-001
  5.50000E-004	  4.72389E-001	  5.14463E-001	  5.29117E-001	  4.71529E-001
  6.00000E-004	  5.53638E-001	  5.04571E-001	  5.43841E-001	  4.81755E-001
  6.50000E-004	  4.76352E-001	  4.79841E-001	  5.37531E-001	  5.37998E-001
  7.00000E-004	  5.44720E-001	  4.83798E-001	  4.66018E-001	  5.01184E-001
  7.50000E-004	  5.11032E-001	  4.03673E-001	  4.38674E-001	  4.78687E-001
  8.00000E-004	  4.65947E-001	  4.23455E-001	  5.12301E-001	  4.77152E-001
  9.00000E-004	  4.89232E-001	  5.14462E-001	  4.73389E-001	  4.89935E-001
  1.00000E-003	  5.07563E-001	  5.29300E-001	  4.81802E-001	  5.10387E-001
  1.10000E-003	  4.63470E-001	  4.55110E-001	  4.96526E-001	  5.13454E-001
  1.20000E-003	  4.07983E-001	  5.05064E-001	  4.75492E-001	  5.22658E-001
  1.30000E-003	  4.65452E-001	  5.36719E-001	  5.03361E-001	  4.84822E-001
  1.40000E-003	  4.85764E-001	  4.73905E-001	  5.02310E-001	  4.43406E-001
  1.50000E-003	  4.64461E-001	  4.92699E-001	  4.62872E-001	  4.11705E-001
  1.60000E-003	  4.59257E-001	  4.70934E-001	  4.70768E-001	  4.51329E-001
  1.80000E-003	  4.70156E-001	  4.64763E-001	  5.21763E-001	  4.90955E-001
  2.00000E-003	  4.84523E-001	  4.87020E-001	  5.00993E-001	  4.40336E-001
  2.20000E-003	  5.00872E-001	  4.71687E-001	  4.88636E-001	  4.89421E-001
  2.40000E-003	  5.00129E-001	  4.67483E-001	  4.94420E-001	  4.45193E-001
  2.60000E-003	  4.85762E-001	  5.27330E-001	  5.37538E-001	  4.80729E-001
  2.80000E-003	  4.47367E-001	  4.63773E-001	  4.88110E-001	  4.79962E-001
  3.00000E-003	  4.98147E-001	  4.91224E-001	  4.86795E-001	  4.97090E-001
  3.20000E-003	  4.50086E-001	  4.77999E-001	  4.86801E-001	  4.76388E-001
  3.60000E-003	  4.83279E-001	  4.84800E-001	  5.11790E-001	  4.85592E-001
  4.00000E-003	  4.34233E-001	  4.93455E-001	  5.08635E-001	  4.72554E-001
  4.40000E-003	  4.49963E-001	  4.57102E-001	  4.99301E-001	  4.56831E-001
  4.80000E-003	  4.76096E-001	  4.76020E-001	  4.85640E-001	  4.67696E-001
  5.20000E-003	  4.85148E-001	  4.71322E-001	  4.93517E-001	  4.51462E-001
  5.60000E-003	  4.60635E-001	  4.44984E-001	  4.85761E-001	  4.81246E-001
  6.00000E-003	  4.83796E-001	  4.55247E-001	  4.60915E-001	  4.48150E-001
  6.40000E-003	  4.75054E-001	  4.84513E-001	  4.81183E-001	  4.57354E-001
  7.20000E-003	  4.67375E-001	  4.73817E-001	  4.80011E-001	  4.52241E-001
  8.00000E-003	  4.63722E-001	  4.61895E-001	  4.91251E-001	  4.52496E-001
  8.80000E-003	  4.67881E-001	  4.74209E-001	  4.81457E-001	  4.39831E-001
  9.60000E-003	  4.50542E-001	  4.64059E-001	  4.66809E-001	  4.43282E-001
  1.04000E-002	  4.53401E-001	  4.51580E-001	  4.74643E-001	  4.33056E-001
  1.12000E-002	  4.53649E-001	  4.69150E-001	  4.65243E-001	  4.63479E-001
  1.20000E-002	  4.59284E-001	  4.70335E-001	  4.39925E-001	  4.51911E-001
  1.28000E-002	  4.52670E-001	  4.63897E-001	  4.59340E-001	  4.66282E-001
  1.44000E-002	  4.35103E-001	  4.56714E-001	  4.47223E-001	  4.45926E-001
  1.60000E-002	  4.43783E-001	  4.49253E-001	  4.57477E-001	  4.39151E-001
  1.76000E-002	  4.31666E-001	  4.44317E-001	  4.54519E-001	  4.32376E-001
  1.92000E-002	  4.29405E-001	  4.51438E-001	  4.33408E-001	  4.24099E-001
  2.08000E-002	  4.18412E-001	  4.35857E-001	  4.47574E-001	  4.30586E-001
  2.24000E-002	  4.21633E-001	  4.46914E-001	  4.30176E-001	  4.22395E-001
  2.40000E-002	  4.21406E-001	  4.22100E-001	  4.27415E-001	  4.17729E-001
  2.56000E-002	  4.10177E-001	  4.23133E-001	  4.23102E-001	  4.06643E-001
  2.88000E-002	  3.99308E-001	  4.16718E-001	  4.22307E-001	  4.08214E-001
  3.20000E-002	  3.93424E-001	  4.14008E-001	  4.16888E-001	  4.04763E-001
  3.52000E-002	  3.88186E-001	  3.92563E-001	  4.05032E-001	  3.88619E-001
  3.84000E-002	  3.79417E-001	  3.89987E-001	  3.85643E-001	  3.77104E-001
  4.16000E-002	  3.67902E-001	  3.82696E-001	  3.91570E-001	  3.76784E-001
  4.48000E-002	  3.65837E-001	  3.83793E-001	  3.77683E-001	  3.69706E-001
  4.80000E-002	  3.61264E-001	  3.69624E-001	  3.70570E-001	  3.63202E-001
  5.12000E-002	  3.52776E-001	  3.64830E-001	  3.63917E-001	  3.55812E-001
  5.76000E-002	  3.39901E-001	  3.51543E-001	  3.51350E-001	  3.42530E-001
  6.40000E-002	  3.29172E-001	  3.42633E-001	  3.38776E-001	  3.34964E-001
  7.04000E-002	  3.22672E-001	  3.36248E-001	  3.24102E-001	  3.21078E-001
  7.68000E-002	  3.08316E-001	  3.21073E-001	  3.10128E-001	  3.09311E-001
  8.32000E-002	  2.85481E-001	  3.09451E-001	  3.06111E-001	  3.02160E-001
  8.96000E-002	  2.86576E-001	  2.97139E-001	  2.96232E-001	  2.88263E-001
  9.60000E-002	  2.77169E-001	  2.92317E-001	  2.84931E-001	  2.78614E-001
  1.02400E-001	  2.71608E-001	  2.87225E-001	  2.75004E-001	  2.73920E-001
  1.15200E-001	  2.54379E-001	  2.70729E-001	  2.60096E-001	  2.55933E-001
  1.28000E-001	  2.37088E-001	  2.50645E-001	  2.45213E-001	  2.43403E-001
  1.40800E-001	  2.24610E-001	  2.40442E-001	  2.28303E-001	  2.30403E-001
  1.53600E-001	  2.06638E-001	  2.26660E-001	  2.15217E-001	  2.20728E-001
  1.66400E-001	  1.97165E-001	  2.17608E-001	  2.03601E-001	  2.06833E-001
  1.79200E-001	  1.87066E-001	  2.08076E-001	  1.90467E-001	  1.99283E-001
  1.92000E-001	  1.78327E-001	  1.96092E-001	  1.84069E-001	  1.87769E-001
  2.04800E-001	  1.67682E-001	  1.87197E-001	  1.73004E-001	  1.82046E-001
  2.30400E-001	  1.51395E-001	  1.71185E-001	  1.57755E-001	  1.63666E-001
  2.56000E-001	  1.37547E-001	  1.57237E-001	  1.47898E-001	  1.54874E-001
  2.81600E-001	  1.22452E-001	  1.42284E-001	  1.34889E-001	  1.42714E-001
  3.07200E-001	  1.14264E-001	  1.33619E-001	  1.28987E-001	  1.30452E-001
  3.32800E-001	  1.02668E-001	  1.20386E-001	  1.20781E-001	  1.20473E-001
  3.58400E-001	  9.27547E-002	  1.07241E-001	  1.14944E-001	  1.11768E-001
  3.84000E-001	  8.84529E-002	  1.00975E-001	  1.08521E-001	  1.04574E-001
  4.09600E-001	  7.96831E-002	  9.41052E-002	  1.01455E-001	  9.68590E-002
  4.60800E-001	  6.51345E-002	  8.22735E-002	  8.73717E-002	  8.64677E-002
  5.12000E-001	  5.68419E-002	  7.15924E-002	  8.01066E-002	  7.85996E-002
  5.63200E-001	  5.52068E-002	  6.26501E-002	  6.94986E-002	  6.91275E-002
  6.14400E-001	  4.30560E-002	  5.37956E-002	  5.86092E-002	  6.03165E-002
  6.65600E-001	  3.33515E-002	  4.79061E-002	  4.76224E-002	  4.85496E-002
  7.16800E-001	  3.00319E-002	  4.16309E-002	  3.90962E-002	  4.17848E-002
  7.68000E-001	  2.58673E-002	  3.45882E-002	  3.43454E-002	  3.66590E-002
  8.19200E-001	  2.25561E-002	  2.90597E-002	  3.21495E-002	  3.13065E-002
  9.21600E-001	  2.36343E-002	  2.34446E-002	  2.81621E-002	  2.67433E-002
  1.02400E+000	  1.73891E-002	  1.40907E-002	  2.66075E-002	  2.47758E-002
  1.12640E+000	  9.71274E-003	  5.10522E-003	  1.99631E-002	  2.30216E-002
  1.22880E+000	  3.94560E-003	 -5.60979E-003	  1.79065E-002	  2.08912E-002
  1.33120E+000	  2.18893E-004	 -4.45070E-003	  1.69594E-002	  1.91474E-002
  1.43360E+000	 -4.89631E-003	 -9.23487E-003	  6.96208E-003	  1.19933E-002
  1.53600E+000	 -7.61539E-003	 -5.64184E-003	  1.87989E-003	  8.85086E-003
  1.63840E+000	 -9.19562E-003	 -5.64644E-003	  1.16345E-003	  1.13425E-002
  1.84320E+000	 -1.27644E-002	 -2.27172E-003	 -1.54692E-003	  1.62353E-002
  2.04800E+000	 -1.12580E-002	 -5.44700E-003	  3.45527E-003	  1.10617E-002
  2.25280E+000	 -7.19446E-003	 -5.73674E-003	  3.27527E-004	  1.33148E-002
  2.45760E+000	 -8.20916E-003	 -1.70716E-004	  1.65942E-003	  1.53276E-002
  2.66240E+000	 -9.67560E-003	  3.65148E-003	  2.48658E-004	  8.01161E-003
  2.86720E+000	 -8.95575E-003	  7.34635E-003	 -2.25810E-003	  8.03065E-003
  3.07200E+000	 -7.64351E-003	  8.56900E-003	 -1.77715E-003	  4.15838E-003
  3.27680E+000	 -4.24227E-003	  4.88312E-003	 -5.39960E-003	  2.04361E-003
  3.68640E+000	 -4.70628E-004	 -4.49536E-003	 -5.60008E-003	 -3.30371E-003
  4.09600E+000	  5.67307E-003	 -2.40608E-003	 -5.90247E-003	 -1.22782E-003
  4.50560E+000	  2.06844E-003	  2.68327E-003	 -4.43433E-003	  5.82242E-003
  4.91520E+000	  1.78688E-004	 -3.63672E-003	 -3.98828E-003	  4.44835E-003
  5.32480E+000	  2.00135E-003	 -1.25877E-004	 -1.37964E-002	  7.49234E-003
  5.73440E+000	  4.44643E-003	  3.12890E-003	 -1.74796E-002	  9.12867E-004
  6.14400E+000	  1.04303E-003	 -8.61412E-004	 -1.24470E-002	  4.71143E-003
  6.55360E+000	 -1.74442E-003	 -1.62899E-003	 -8.40397E-003	  8.00428E-003
  7.37280E+000	 -4.94911E-003	 -4.61475E-003	 -4.95607E-003	  1.61033E-003
  8.19200E+000	  7.01857E-004	 -6.19986E-003	 -1.95752E-003	  1.67496E-003
  9.01120E+000	  7.05312E-003	  1.49062E-003	  5.87344E-003	 -1.01819E-002
  9.83040E+000	  1.37506E-003	  8.87959E-003	  1.04261E-002	 -6.89894E-003
  1.06496E+001	 -1.82650E-003	  1.05319E-002	 -2.16523E-003	 -3.58921E-003
  1.14688E+001	  3.77221E-004	  1.38438E-003	  3.00992E-003	 -5.30776E-003
  1.22880E+001	 -4.48401E-004	  6.72375E-003	  4.14981E-003	 -4.33791E-003
  1.31072E+001	 -2.22848E-003	  5.45817E-003	 -1.09956E-003	 -8.83249E-003
  1.47456E+001	  4.69872E-003	  1.86305E-003	 -1.12431E-002	 -3.02529E-003
  1.63840E+001	 -1.09588E-002	 -5.31164E-004	 -1.82743E-003	 -1.24395E-003
  1.80224E+001	 -3.93312E-003	 -4.42745E-004	 -1.73397E-004	  6.20782E-003
  1.96608E+001	  9.04247E-004	  4.51213E-003	  1.10330E-002	 -7.86185E-004
  2.12992E+001	  5.17582E-003	 -6.64307E-003	  5.15186E-003	 -4.46289E-003
  2.29376E+001	 -2.48773E-003	 -1.59486E-003	 -7.20746E-003	  5.85836E-003
  2.45760E+001	  4.48529E-004	 -1.81044E-003	 -8.19671E-003	  4.22907E-003
  2.62144E+001	  4.53837E-003	  5.22173E-003	 -1.04428E-002	  3.24837E-003
  2.94912E+001	  3.45759E-003	  3.46799E-003	  1.13186E-003	  3.55295E-003
  3.27680E+001	 -1.70913E-003	 -4.45339E-003	  1.06610E-003	 -7.60904E-003
  3.60448E+001	  3.72043E-003	 -2.02024E-003	  1.50534E-003	 -6.70479E-003
  3.93216E+001	  3.72281E-003	  1.31011E-003	 -4.66037E-003	 -2.78516E-003
  4.25984E+001	  6.44188E-003	 -5.70476E-003	 -3.81092E-004	  4.76643E-003
  4.58752E+001	  2.23704E-003	  3.43291E-003	 -2.36191E-003	  5.61670E-003
  4.91520E+001	  8.84039E-003	 -5.97892E-004	  4.72047E-003	  4.10511E-003
  5.24288E+001	  6.65253E-004	 -2.08310E-003	  8.78140E-004	  1.28020E-003
  5.89824E+001	 -1.31898E-003	  5.46556E-004	  5.13201E-003	  1.81083E-003
  6.55360E+001	 -3.04525E-003	 -8.73281E-004	 -9.72721E-003	 -4.69318E-003
  7.20896E+001	 -1.57552E-003	 -1.29104E-003	 -6.16191E-005	 -1.13839E-003
  7.86432E+001	  5.65134E-003	  1.57590E-003	  7.87041E-003	  5.12807E-003
  8.51968E+001	 -2.80921E-003	 -8.44550E-003	 -1.82135E-003	  1.79994E-004
  9.17504E+001	  2.92786E-003	 -3.26139E-003	  9.05356E-004	 -7.70337E-003
  9.83040E+001	 -2.49574E-003	  1.19021E-004	 -3.87454E-004	 -4.38186E-003
  1.04858E+002	 -3.86105E-003	 -8.96894E-004	 -4.31393E-003	  9.57920E-004
  1.17965E+002	 -1.46706E-003	  4.38162E-003	 -3.37270E-003	 -2.08629E-003
  1.31072E+002	 -2.39561E-003	 -6.03281E-004	  1.82841E-003	 -2.66758E-003
  1.44179E+002	 -5.42262E-003	  4.91805E-003	  4.61838E-004	 -2.21409E-003
  1.57286E+002	 -1.07128E-003	 -1.84882E-003	  3.85653E-003	  1.23358E-003
  1.70394E+002	 -1.27159E-004	  5.21859E-003	 -4.12163E-004	  9.76756E-004
  1.83501E+002	  3.44075E-003	  1.94154E-003	 -4.61356E-003	  5.87653E-004
  1.96608E+002	 -6.11579E-004	 -1.87192E-003	 -1.80527E-003	 -2.75449E-003
  2.09715E+002	  3.14615E-003	 -6.34463E-003	  4.56920E-004	  6.66637E-004
  2.35930E+002	  1.04326E-003	 -2.35417E-003	  2.80988E-003	  6.90242E-004
  2.62144E+002	  9.72893E-004	 -8.63733E-004	 -3.54597E-003	  3.91695E-004
  2.88358E+002	  2.58446E-003	  8.58359E-004	  1.67077E-003	  1.78170E-003
  3.14573E+002	 -2.08266E-003	 -2.41855E-003	  1.04413E-003	 -2.03819E-003
  3.40787E+002	 -1.29961E-003	 -2.07254E-003	 -3.65956E-003	 -1.03158E-004
  3.67002E+002	  2.83389E-004	 -9.48356E-004	  3.77473E-003	  9.83630E-004
  3.93216E+002	 -2.46072E-003	 -1.51460E-003	 -1.75343E-003	 -2.34894E-003

"Count Rate"
       0.01311	     132.29370	     131.83594	     121.76514	     121.15479
       0.02621	     160.52246	     136.79504	     149.38354	     147.85767
       0.03932	     143.89038	     133.43811	     112.91504	     133.36182
       0.05243	     140.76233	     141.22009	     129.01306	     133.97217
       0.06554	     182.57141	     155.79224	     151.82495	     122.98584
       0.07864	     152.74048	     123.44360	     151.13831	     149.68872
       0.09175	     144.04297	     104.98047	     141.37268	     161.59058
       0.10486	     154.57153	     132.52258	     111.92322	     135.42175
       0.11796	     173.72131	     149.38354	     128.70789	     139.08386
       0.13107	     145.49255	     166.39709	     128.32642	     127.86865
       0.14418	     162.35352	     142.36450	     139.69421	     129.92859
       0.15729	     155.71594	     119.24744	     115.58533	     115.28015
       0.17039	     148.39172	     134.04846	     141.14380	     175.01831
       0.18350	     140.07568	     137.55798	     110.24475	     167.31262
       0.19661	     148.23914	     129.24194	     158.99658	     198.66943
       0.20972	     124.96948	     139.84680	     147.39990	     124.28284
       0.22282	     131.60706	     115.58533	     158.53882	     138.93127
       0.23593	     144.65332	     127.25830	     157.39441	     152.89307
       0.24904	     153.50342	     155.41077	     125.80872	     170.51697
       0.26214	     134.12476	     116.50085	     132.90405	     153.96118
       0.27525	     120.69702	     130.69153	     123.36731	     149.07837
       0.28836	     130.08118	     157.69958	     128.70789	     125.27466
       0.30147	     151.36719	     179.13818	     137.10022	     142.82227
       0.31457	     147.01843	     169.06738	     151.36719	     140.83862
       0.32768	     157.01294	     161.28540	     118.48450	     114.51721
       0.34079	     178.75671	     140.99121	     122.07031	     141.98303
       0.35389	     138.09204	     125.27466	     163.34534	     148.62061
       0.36700	     154.03748	     158.15735	     168.76221	     115.58533
       0.38011	     163.42163	     148.69690	     119.70520	     155.25818
       0.39322	     157.77588	     117.49268	     145.72144	     110.47363
       0.40632	     129.16565	     126.26648	     143.50891	     126.72424
       0.41943	     132.98035	     129.69971	     177.91748	     143.35632
       0.43254	     220.87097	     179.13818	     138.47351	     125.27466
       0.44564	     117.26379	     167.54150	     171.05103	     171.20361
       0.45875	     132.67517	     161.28540	     114.36462	     171.50879
       0.47186	     139.31274	     177.99377	     144.34814	     122.29919
       0.48497	     129.24194	     166.62598	     147.17102	     119.78149
       0.49807	     136.41357	     148.23914	     137.25281	     150.90942
       0.51118	     143.20374	     121.61255	     145.72144	     134.96399
       0.52429	     135.34546	     144.50073	     128.93677	     147.17102
       0.53740	     137.78687	     139.38904	     110.70251	     145.49255
       0.55050	     127.33459	     138.39722	     142.05933	     178.60413
       0.56361	     128.32642	     184.70764	     129.47083	      96.05408
       0.57672	     130.53894	     129.62341	     155.41077	     161.13281
       0.58982	     166.24451	     191.34521	     138.70239	     131.60706
       0.60293	     164.48975	     127.41089	     124.81689	     126.72424
       0.61604	     157.69958	     191.65039	     118.63708	     162.12463
       0.62915	     133.59070	     131.37817	     121.84143	     117.41638
       0.64225	     151.06201	     145.49255	     155.94482	     117.49268
       0.65536	     130.46265	     131.83594	     154.95300	     160.44617
       0.66847	     122.29919	     163.19275	     138.32092	     141.60156
       0.68157	     163.04016	     127.56348	     165.48157	     141.44897
       0.69468	     133.89587	     135.57434	     111.69434	     123.13843
       0.70779	     119.09485	     119.62891	     141.90674	     172.88208
       0.72090	     164.79492	     119.40002	     178.29895	     158.99658
       0.73400	      98.72437	     196.22803	     128.93677	     134.20105
       0.74711	     109.02405	      99.33472	     123.82507	      99.56360
