ALV-7004/USB-FAST
Date :	"3/14/2024"
Time :	"12:36:01 PM"
Samplename : 	""
SampMemo(0) : 	""
SampMemo(1) : 	""
SampMemo(2) : 	""
SampMemo(3) : 	""
SampMemo(4) : 	""
SampMemo(5) : 	""
SampMemo(6) : 	""
SampMemo(7) : 	""
SampMemo(8) : 	""
SampMemo(9) : 	""
Temperature [K] :	     298.16000
Viscosity [cp]  :	       0.89000
Refractive Index:	       1.33200
Wavelength [nm] :	       0.00000
Angle [°]       :	       0.00000
Duration [s]    :	         1
FloatDur [ms]   :	          944
Stop TP [ms]   :	      3938
Runs            :	         1
Mode            :	"A-CH0+1  A-CH2+3 "
MeanCR0 [kHz]   :	     129.28327
MeanCR1 [kHz]   :	     128.29357
MeanCR2 [kHz]   :	     125.24816
MeanCR3 [kHz]   :	     125.34884

"Correlation"
  3.12500E-006	 -1.00000E+000	 -1.00000E+000	 -1.00000E+000	 -1.00000E+000
  6.25000E-006	 -1.00000E+000	 -1.00000E+000	 -1.00000E+000	 -1.00000E+000
  9.37500E-006	 -1.00000E+000	 -1.00000E+000	 -1.00000E+000	 -1.00000E+000
  1.25000E-005	 -1.00000E+000	 -1.00000E+000	 -1.00000E+000	 -1.00000E+000
  1.56250E-005	 -1.00000E+000	 -1.00000E+000	 -1.00000E+000	 -1.00000E+000
  1.87500E-005	 -1.00000E+000	 -1.00000E+000	 -1.00000E+000	 -1.00000E+000
  2.18750E-005	 -9.18851E-001	 -6.70377E-001	 -4.16387E-001	 -9.78419E-001
  2.50000E-005	  6.26283E+000	  5.77788E+000	  6.50051E+000	  1.01573E+001
  2.81250E-005	  1.92136E+000	  1.18375E+000	  1.63707E+000	  4.86997E+000
  3.12500E-005	  8.86713E-001	  1.08075E+000	  1.07507E+000	  2.92770E+000
  3.43750E-005	  7.85277E-001	  7.92326E-001	  6.64377E-001	  2.10763E+000
  3.75000E-005	  9.88149E-001	  5.24507E-001	  7.50839E-001	  1.87024E+000
  4.06250E-005	  7.04128E-001	  7.51123E-001	  6.21147E-001	  1.87024E+000
  4.37500E-005	  4.40394E-001	  3.80297E-001	  5.99532E-001	  2.06447E+000
  4.68750E-005	  3.99819E-001	  4.21500E-001	  9.45376E-001	  1.58969E+000
  5.00000E-005	  6.43266E-001	  3.80297E-001	  8.04877E-001	  1.46021E+000
  5.62500E-005	  4.50537E-001	  4.83304E-001	  7.18416E-001	  1.12571E+000
  6.25000E-005	  6.53410E-001	  7.09920E-001	  5.56301E-001	  8.23575E-001
  6.87500E-005	  7.14271E-001	  6.06913E-001	  6.75185E-001	  9.09898E-001
  7.50000E-005	  4.50537E-001	  6.79018E-001	  4.04994E-001	  5.86187E-001
  8.12500E-005	  3.89676E-001	  2.97891E-001	  5.02263E-001	  9.42269E-001
  8.75000E-005	  3.69388E-001	  2.25786E-001	  4.48224E-001	  7.26462E-001
  9.37500E-005	  3.28814E-001	  4.42101E-001	  5.23878E-001	  6.40138E-001
  1.00000E-004	  3.84604E-001	  5.19357E-001	  4.04994E-001	  6.18558E-001
  1.12500E-004	  4.75896E-001	  4.93605E-001	  4.10398E-001	  4.56702E-001
  1.25000E-004	  4.80968E-001	  5.39958E-001	  5.94127E-001	  6.94090E-001
  1.37500E-004	  5.36758E-001	  5.29657E-001	  4.04994E-001	  5.05259E-001
  1.50000E-004	  4.75896E-001	  4.16349E-001	  4.26609E-001	  6.61719E-001
  1.62500E-004	  6.02691E-001	  6.01762E-001	  3.72571E-001	  4.67492E-001
  1.75000E-004	  5.26614E-001	  4.11199E-001	  4.15801E-001	  7.10276E-001
  1.87500E-004	  2.52737E-001	  4.98755E-001	  4.53628E-001	  4.51307E-001
  2.00000E-004	  3.26278E-001	  5.01330E-001	  5.18474E-001	  4.89073E-001
  2.25000E-004	  4.25178E-001	  4.70428E-001	  6.04935E-001	  4.37818E-001
  2.50000E-004	  5.08863E-001	  5.65710E-001	  5.42791E-001	  5.51117E-001
  2.75000E-004	  4.93647E-001	  4.39526E-001	  4.80647E-001	  5.59210E-001
  3.00000E-004	  4.32786E-001	  5.21931E-001	  5.59002E-001	  4.78282E-001
  3.25000E-004	  6.10299E-001	  4.39526E-001	  5.07666E-001	  4.89073E-001
  3.50000E-004	  4.88575E-001	  4.73003E-001	  5.02262E-001	  4.08145E-001
  3.75000E-004	  5.08863E-001	  5.03905E-001	  4.77945E-001	  4.16238E-001
  4.00000E-004	  4.88575E-001	  5.41245E-001	  4.73892E-001	  5.28187E-001
  4.50000E-004	  5.13934E-001	  5.70859E-001	  4.77944E-001	  5.01211E-001
  5.00000E-004	  5.36757E-001	  3.95747E-001	  4.60382E-001	  5.02560E-001
  5.50000E-004	  4.65752E-001	  4.27937E-001	  4.73892E-001	  4.47259E-001
  6.00000E-004	  5.17738E-001	  4.82016E-001	  4.98209E-001	  3.97354E-001
  6.50000E-004	  4.88575E-001	  4.73002E-001	  4.87401E-001	  3.66331E-001
  7.00000E-004	  4.41661E-001	  5.36094E-001	  4.44171E-001	  4.39166E-001
  7.50000E-004	  4.54340E-001	  5.39957E-001	  5.41439E-001	  5.12002E-001
  8.00000E-004	  4.54339E-001	  4.75576E-001	  4.94843E-001	  5.48418E-001
  9.00000E-004	  4.69554E-001	  5.17423E-001	  4.68486E-001	  4.76257E-001
  1.00000E-003	  4.77796E-001	  4.49825E-001	  4.79294E-001	  4.34444E-001
  1.10000E-003	  4.44829E-001	  4.98109E-001	  4.22554E-001	  4.82327E-001
  1.20000E-003	  4.34052E-001	  5.19354E-001	  4.17150E-001	  5.35604E-001
  1.30000E-003	  4.80332E-001	  4.29223E-001	  4.92128E-001	  4.35793E-001
  1.40000E-003	  4.32150E-001	  4.53044E-001	  4.47547E-001	  4.71536E-001
  1.50000E-003	  4.02353E-001	  5.24505E-001	  4.77268E-001	  4.14213E-001
  1.60000E-003	  4.49593E-001	  4.65273E-001	  4.51947E-001	  4.64453E-001
  1.80000E-003	  4.85096E-001	  4.74286E-001	  4.49245E-001	  4.78615E-001
  2.00000E-003	  4.52763E-001	  4.44994E-001	  4.42490E-001	  4.77603E-001
  2.20000E-003	  4.42937E-001	  4.22461E-001	  4.62417E-001	  4.85696E-001
  2.40000E-003	  4.79073E-001	  4.79759E-001	  4.64781E-001	  4.74231E-001
  2.60000E-003	  4.54665E-001	  4.28899E-001	  4.42816E-001	  4.80638E-001
  2.80000E-003	  4.15676E-001	  4.61732E-001	  4.63080E-001	  4.67487E-001
  3.00000E-003	  4.43254E-001	  4.69458E-001	  4.47882E-001	  4.44221E-001
  3.20000E-003	  4.49612E-001	  4.62532E-001	  4.70011E-001	  5.18412E-001
  3.60000E-003	  4.35506E-001	  4.65429E-001	  4.73389E-001	  4.46589E-001
  4.00000E-003	  4.29313E-001	  4.42092E-001	  4.32353E-001	  4.86715E-001
  4.40000E-003	  4.34226E-001	  4.67039E-001	  4.41472E-001	  4.57728E-001
  4.80000E-003	  4.32641E-001	  4.46437E-001	  4.74740E-001	  4.70205E-001
  5.20000E-003	  4.34226E-001	  4.82812E-001	  4.35224E-001	  4.75263E-001
  5.60000E-003	  4.33751E-001	  4.85870E-001	  4.43330E-001	  4.61100E-001
  6.00000E-003	  4.22815E-001	  4.83616E-001	  4.63244E-001	  4.67676E-001
  6.40000E-003	  4.22455E-001	  4.68006E-001	  4.60738E-001	  4.89597E-001
  7.20000E-003	  4.32136E-001	  4.50073E-001	  4.46722E-001	  4.75097E-001
  8.00000E-003	  4.28728E-001	  4.76549E-001	  4.48157E-001	  4.70882E-001
  8.80000E-003	  4.30460E-001	  4.68904E-001	  4.55334E-001	  4.69786E-001
  9.60000E-003	  4.44091E-001	  4.39772E-001	  4.52041E-001	  4.57899E-001
  1.04000E-002	  4.33776E-001	  4.53453E-001	  4.56770E-001	  4.83274E-001
  1.12000E-002	  4.27119E-001	  4.30932E-001	  4.44695E-001	  4.87320E-001
  1.20000E-002	  4.41464E-001	  4.38174E-001	  4.45286E-001	  4.74170E-001
  1.28000E-002	  4.40552E-001	  4.48584E-001	  4.43724E-001	  4.65268E-001
  1.44000E-002	  4.25930E-001	  4.49791E-001	  4.52927E-001	  4.73993E-001
  1.60000E-002	  4.39244E-001	  4.47308E-001	  4.45328E-001	  4.63751E-001
  1.76000E-002	  4.29496E-001	  4.50286E-001	  4.42023E-001	  4.48336E-001
  1.92000E-002	  4.23173E-001	  4.48033E-001	  4.38000E-001	  4.62752E-001
  2.08000E-002	  4.22024E-001	  4.47067E-001	  4.40913E-001	  4.42899E-001
  2.24000E-002	  4.16872E-001	  4.35438E-001	  4.15455E-001	  4.56429E-001
  2.40000E-002	  4.14586E-001	  4.42934E-001	  4.39182E-001	  4.55388E-001
  2.56000E-002	  4.23353E-001	  4.41622E-001	  4.31152E-001	  4.46049E-001
  2.88000E-002	  4.25663E-001	  4.34632E-001	  4.33855E-001	  4.42845E-001
  3.20000E-002	  4.18253E-001	  4.28278E-001	  4.12119E-001	  4.38453E-001
  3.52000E-002	  4.04114E-001	  4.22390E-001	  4.26442E-001	  4.34608E-001
  3.84000E-002	  4.05750E-001	  4.22531E-001	  4.22503E-001	  4.34283E-001
  4.16000E-002	  4.07672E-001	  4.10025E-001	  4.02469E-001	  4.27171E-001
  4.48000E-002	  4.02081E-001	  4.15026E-001	  4.03797E-001	  4.21261E-001
  4.80000E-002	  3.92214E-001	  4.04423E-001	  4.01360E-001	  4.18762E-001
  5.12000E-002	  3.94473E-001	  4.04694E-001	  4.00214E-001	  4.19663E-001
  5.76000E-002	  3.82196E-001	  3.93445E-001	  3.89243E-001	  4.04775E-001
  6.40000E-002	  3.72604E-001	  3.85689E-001	  3.87571E-001	  3.98599E-001
  7.04000E-002	  3.65309E-001	  3.82430E-001	  3.73307E-001	  4.04649E-001
  7.68000E-002	  3.57759E-001	  3.75269E-001	  3.65914E-001	  3.85880E-001
  8.32000E-002	  3.47069E-001	  3.63843E-001	  3.62345E-001	  3.74479E-001
  8.96000E-002	  3.46305E-001	  3.52352E-001	  3.66587E-001	  3.74237E-001
  9.60000E-002	  3.36197E-001	  3.45652E-001	  3.51362E-001	  3.61897E-001
  1.02400E-001	  3.27568E-001	  3.40613E-001	  3.43978E-001	  3.60248E-001
  1.15200E-001	  3.13784E-001	  3.24346E-001	  3.28708E-001	  3.49304E-001
  1.28000E-001	  3.00308E-001	  3.11355E-001	  3.13049E-001	  3.32120E-001
  1.40800E-001	  2.86290E-001	  2.97830E-001	  3.00283E-001	  3.21313E-001
  1.53600E-001	  2.82512E-001	  2.86481E-001	  2.86004E-001	  3.02978E-001
  1.66400E-001	  2.65044E-001	  2.73086E-001	  2.78442E-001	  2.95175E-001
  1.79200E-001	  2.58538E-001	  2.60036E-001	  2.67184E-001	  2.83330E-001
  1.92000E-001	  2.44830E-001	  2.45818E-001	  2.53483E-001	  2.71159E-001
  2.04800E-001	  2.32086E-001	  2.36443E-001	  2.42398E-001	  2.60221E-001
  2.30400E-001	  2.11657E-001	  2.15594E-001	  2.22475E-001	  2.35493E-001
  2.56000E-001	  1.94695E-001	  1.92767E-001	  2.07077E-001	  2.20581E-001
  2.81600E-001	  1.78937E-001	  1.79313E-001	  1.91064E-001	  2.05573E-001
  3.07200E-001	  1.62185E-001	  1.63643E-001	  1.74820E-001	  1.90240E-001
  3.32800E-001	  1.48509E-001	  1.46891E-001	  1.60517E-001	  1.75860E-001
  3.58400E-001	  1.40317E-001	  1.35658E-001	  1.53005E-001	  1.60448E-001
  3.84000E-001	  1.25762E-001	  1.27839E-001	  1.38280E-001	  1.55074E-001
  4.09600E-001	  1.15467E-001	  1.15763E-001	  1.30766E-001	  1.43439E-001
  4.60800E-001	  1.01715E-001	  9.84361E-002	  1.17450E-001	  1.26714E-001
  5.12000E-001	  9.28504E-002	  8.50418E-002	  1.07301E-001	  1.10827E-001
  5.63200E-001	  7.93206E-002	  7.74361E-002	  9.77415E-002	  1.01041E-001
  6.14400E-001	  6.82352E-002	  6.71868E-002	  9.29326E-002	  9.34859E-002
  6.65600E-001	  5.99062E-002	  6.13006E-002	  8.02812E-002	  8.40353E-002
  7.16800E-001	  5.02613E-002	  4.96302E-002	  6.98839E-002	  7.92172E-002
  7.68000E-001	  4.34331E-002	  4.24167E-002	  6.34101E-002	  7.07402E-002
  8.19200E-001	  3.61368E-002	  3.41193E-002	  5.78410E-002	  6.57512E-002
  9.21600E-001	  2.80188E-002	  2.23475E-002	  4.37183E-002	  5.45941E-002
  1.02400E+000	  2.33652E-002	  1.41343E-002	  3.74146E-002	  3.94822E-002
  1.12640E+000	  1.99309E-002	  1.51987E-002	  3.19103E-002	  3.08652E-002
  1.22880E+000	  1.74597E-002	  1.16281E-002	  2.95219E-002	  2.91779E-002
  1.33120E+000	  1.35498E-002	  1.35660E-002	  2.49752E-002	  2.65482E-002
  1.43360E+000	  7.70042E-003	  1.53459E-002	  2.09611E-002	  2.15755E-002
  1.53600E+000	  1.56821E-003	  1.06338E-002	  2.09266E-002	  2.06455E-002
  1.63840E+000	 -3.94398E-003	  3.67925E-003	  1.96655E-002	  1.77190E-002
  1.84320E+000	 -7.17338E-003	  1.16656E-003	  1.90159E-002	  1.24841E-002
  2.04800E+000	 -6.78838E-003	  4.07094E-003	  1.62853E-002	  1.05850E-002
  2.25280E+000	 -1.38208E-003	 -1.99668E-003	  9.47079E-003	  7.57738E-003
  2.45760E+000	 -2.54251E-003	 -9.31410E-004	  8.67045E-003	  4.34535E-003
  2.66240E+000	 -5.89258E-003	  4.12472E-004	  9.74856E-003	  6.52748E-003
  2.86720E+000	 -4.74657E-003	  2.52132E-003	  3.88374E-003	  4.20586E-003
  3.07200E+000	 -4.15822E-003	  2.09613E-003	  3.70292E-003	  1.02770E-002
  3.27680E+000	 -5.18696E-003	  4.69727E-003	  7.00932E-003	  1.51215E-002
  3.68640E+000	 -5.17199E-003	  2.29618E-003	  1.69904E-003	  1.67027E-002
  4.09600E+000	 -9.79778E-003	 -3.53720E-003	 -3.09907E-003	  8.71392E-003
  4.50560E+000	  6.11932E-003	  5.10120E-003	 -1.13806E-002	 -2.14825E-003
  4.91520E+000	  1.06390E-002	  1.05404E-002	 -9.88393E-003	  7.56797E-003
  5.32480E+000	 -2.75617E-003	  8.33492E-003	  5.23052E-003	  1.20539E-002
  5.73440E+000	 -3.41549E-003	  1.54088E-002	  8.27629E-003	  6.77392E-003
  6.14400E+000	  4.65831E-003	  1.38550E-002	 -1.92443E-003	 -4.94530E-003
  6.55360E+000	  7.13061E-003	  9.01550E-003	 -1.37345E-002	 -3.35228E-003
  7.37280E+000	  4.48391E-003	  2.02306E-003	 -9.85695E-003	  3.85222E-003
  8.19200E+000	  4.65279E-004	  2.21185E-002	 -1.54991E-002	 -4.10457E-003
  9.01120E+000	  6.70249E-003	  4.50012E-003	 -7.84401E-003	  6.08907E-003
  9.83040E+000	  1.16115E-002	 -3.91159E-003	 -8.73248E-003	  8.59857E-003
  1.06496E+001	 -3.13389E-004	 -2.63164E-004	 -1.25859E-002	  2.53640E-003
  1.14688E+001	 -1.93341E-003	  6.95544E-003	  4.62373E-003	  5.03138E-003
  1.22880E+001	 -3.81619E-003	  1.69883E-003	  7.63211E-003	 -4.91020E-003
  1.31072E+001	  2.21349E-003	  4.25690E-003	  2.08624E-003	  1.87517E-003
  1.47456E+001	  1.41599E-003	  3.84829E-003	 -8.30825E-003	 -4.99923E-004
  1.63840E+001	 -5.90960E-003	  6.48514E-003	  3.07928E-003	 -5.15937E-003
  1.80224E+001	 -1.28915E-003	  2.78559E-003	  3.11371E-003	 -2.85786E-003
  1.96608E+001	 -3.94638E-003	  1.96828E-003	  4.51331E-003	  9.72055E-004
  2.12992E+001	 -6.83884E-003	  2.47851E-003	 -1.61295E-003	 -1.03322E-002
  2.29376E+001	 -6.19103E-004	  1.00920E-003	  3.21146E-003	 -1.06097E-002
  2.45760E+001	  3.01986E-003	  5.38278E-003	  2.74376E-003	 -2.74980E-003
  2.62144E+001	  2.65891E-003	  4.04759E-003	  6.85052E-003	 -2.26046E-003
  2.94912E+001	 -1.32072E-003	  2.07459E-003	  8.42513E-003	 -3.11073E-003
  3.27680E+001	 -6.39258E-003	 -2.59761E-004	  1.21268E-003	 -2.64793E-003
  3.60448E+001	 -4.72141E-003	  4.12189E-003	 -1.08843E-002	  6.20698E-003
  3.93216E+001	 -5.15851E-003	  5.53614E-003	 -4.14118E-003	 -4.33664E-003
  4.25984E+001	  7.29699E-003	  1.27564E-002	  1.60769E-003	  1.55089E-003
  4.58752E+001	 -2.59650E-003	  4.46187E-003	 -7.47519E-004	  3.79298E-004
  4.91520E+001	  1.19551E-002	  3.10749E-003	  1.47515E-003	 -1.25321E-002
  5.24288E+001	  6.04677E-003	  3.86164E-003	  4.63386E-003	 -1.74816E-003
  5.89824E+001	 -2.66540E-003	  5.59684E-003	 -6.06154E-004	  4.50304E-003
  6.55360E+001	 -3.79880E-003	 -2.75385E-003	  4.97061E-004	 -7.67857E-004
  7.20896E+001	 -5.60858E-003	 -2.06559E-003	 -5.08877E-003	  4.92027E-003
  7.86432E+001	 -3.19511E-004	  2.70676E-003	 -5.73380E-003	  4.52102E-003
  8.51968E+001	  6.19343E-004	  1.84654E-003	  1.96874E-003	  2.94251E-003
  9.17504E+001	  2.69331E-003	  5.38511E-003	 -2.54387E-004	 -5.46159E-003
  9.83040E+001	  7.16312E-003	  6.24731E-003	 -1.18824E-003	 -1.75829E-003
  1.04858E+002	  9.90254E-004	  4.39665E-003	 -2.83417E-003	 -1.07020E-002
  1.17965E+002	 -3.22803E-003	  3.50548E-004	  2.92882E-003	  3.57824E-004
  1.31072E+002	 -4.94131E-003	  6.33447E-004	 -6.62446E-003	  8.53331E-003
  1.44179E+002	  5.46481E-003	 -6.67184E-003	  1.52881E-003	  8.33922E-003
  1.57286E+002	  3.70124E-003	 -1.38378E-003	 -3.78183E-003	  2.25627E-003
  1.70394E+002	  9.36418E-004	  9.08493E-004	  5.65310E-004	 -7.71107E-003
  1.83501E+002	  2.96138E-004	 -2.08014E-003	  1.41883E-003	 -1.16323E-002
  1.96608E+002	  4.42320E-003	 -3.81954E-003	  1.72282E-003	 -6.27404E-003
  2.09715E+002	 -2.37269E-003	  9.73147E-004	  3.02790E-003	 -3.16756E-003
  2.35930E+002	 -5.05581E-003	  4.28012E-004	 -2.78753E-003	  2.90250E-003
  2.62144E+002	 -1.74330E-003	  2.79258E-003	 -6.37079E-003	 -1.48405E-003
  2.88358E+002	  1.96666E-004	  3.92804E-003	 -2.61594E-003	  6.49563E-003
  3.14573E+002	 -2.80171E-003	  1.11380E-003	  4.18137E-003	 -6.09065E-003
  3.40787E+002	  2.92569E-003	  2.32571E-003	  3.04321E-003	 -6.81785E-003
  3.67002E+002	 -1.81681E-003	 -3.25436E-004	  1.42977E-003	  6.68555E-004
  3.93216E+002	 -2.62348E-003	 -6.07550E-004	  1.56939E-003	 -3.80796E-003

"Count Rate"
       0.01311	     164.64233	     107.26929	     121.23108	     117.26379
       0.02621	     143.58521	     123.90137	     123.21472	     126.87683
       0.03932	     120.39185	     106.12488	     176.01013	     116.80603
       0.05243	     117.34009	     106.04858	     135.42175	     115.35645
       0.06554	     128.86047	     108.64258	     107.04041	     133.97217
       0.07864	     113.75427	     101.92871	     119.40002	     132.06482
       0.09175	     112.76245	     123.59619	     121.76514	     117.11121
       0.10486	     120.92590	      92.08679	     127.02942	     137.71057
       0.11796	     115.20386	     126.72424	     124.28284	     132.82776
       0.13107	     115.20386	     129.16565	     112.07581	     134.65881
       0.14418	     160.44617	     169.14368	     144.19556	     122.14661
       0.15729	     124.51172	     135.87952	     133.89587	     125.57983
       0.17039	     143.81409	     139.00757	     123.59619	     169.60144
       0.18350	      91.09497	     155.25818	     116.80603	     119.17114
       0.19661	     134.35364	     106.50635	     122.68066	     116.42456
       0.20972	     123.90137	     141.29639	     125.04578	     156.32629
       0.22282	     143.96667	     145.33997	     124.35913	     132.75146
       0.23593	     145.64514	     167.08374	     143.20374	      87.96692
       0.24904	     150.22278	     158.84399	      82.77893	      87.12769
       0.26214	     132.14111	     137.63428	     189.43787	     117.18750
       0.27525	     107.95593	     144.11926	     114.89868	      93.38379
       0.28836	     147.62878	      91.78162	      86.59363	     124.89319
       0.30147	     169.44885	     165.25269	     104.59900	     106.04858
       0.31457	     126.03760	     140.30457	      96.28296	     111.31287
       0.32768	     119.62891	     143.96667	     126.19019	     130.31006
       0.34079	     130.38635	     119.78149	     110.77881	     127.25830
       0.35389	     127.86865	     114.05945	     143.96667	     101.31836
       0.36700	      96.66443	     129.24194	     131.75964	      92.54456
       0.38011	     110.09216	      98.80066	     128.32642	     103.07312
       0.39322	     130.31006	     100.09766	     114.74609	     112.07581
       0.40632	     160.75134	     150.90942	     137.63428	      90.10315
       0.41943	     122.07031	     135.34546	     132.82776	     192.79480
       0.43254	     127.41089	     150.37537	     133.66699	     121.68884
       0.44564	     143.05115	     134.42993	     135.57434	     111.23657
       0.45875	     101.47095	      97.57996	     141.98303	     110.39734
       0.47186	     115.89050	     141.14380	     147.32361	     150.90942
       0.48497	     127.33459	     114.44092	     102.08130	     122.52808
       0.49807	     119.47632	     127.02942	     123.90137	      99.94507
       0.51118	     105.89600	     141.83044	     130.46265	      97.88513
       0.52429	     108.10852	     126.95313	     117.72156	     116.65344
       0.53740	     106.43005	     136.94763	     130.69153	      97.80884
       0.55050	     129.77600	     129.62341	     115.81421	     131.91223
       0.56361	     126.34277	     162.27722	     161.05652	     172.50061
       0.57672	     138.01575	     114.13574	     122.68066	     110.77881
       0.58982	     118.94226	     119.70520	     136.71875	     127.56348
       0.60293	     154.80042	     138.62610	     113.83057	     111.61804
       0.61604	     107.19299	     117.79785	     111.77063	     119.17114
       0.62915	      96.35925	     100.63171	     106.50635	     136.18469
       0.64225	     122.68066	     126.03760	     112.68616	     160.44617
       0.65536	     110.85510	     119.55261	     105.28564	      93.07861
       0.66847	     112.68616	     125.27466	      84.07593	      95.29114
       0.68157	      94.60449	     107.34558	     120.84961	     128.78418
       0.69468	     137.10022	     114.51721	      94.29932	     143.50891
       0.70779	     118.56079	     112.45728	     120.08667	     194.70215
       0.72090	     126.03760	     113.60168	      96.51184	     136.87134
       0.73400	     115.05127	     117.95044	     134.73511	     100.40283
       0.74711	     154.49524	     102.23389	     117.34009	     135.49805
