ALV-7004/USB-FAST
Date :	"3/14/2024"
Time :	"12:34:02 PM"
Samplename : 	""
SampMemo(0) : 	""
SampMemo(1) : 	""
SampMemo(2) : 	""
SampMemo(3) : 	""
SampMemo(4) : 	""
SampMemo(5) : 	""
SampMemo(6) : 	""
SampMemo(7) : 	""
SampMemo(8) : 	""
SampMemo(9) : 	""
Temperature [K] :	     298.16000
Viscosity [cp]  :	       0.89000
Refractive Index:	       1.33200
Wavelength [nm] :	       0.00000
Angle [°]       :	       0.00000
Duration [s]    :	         1
FloatDur [ms]   :	          944
Stop TP [ms]   :	      3399
Runs            :	         1
Mode            :	"A-CH0+1  A-CH2+3 "
MeanCR0 [kHz]   :	     112.86312
MeanCR1 [kHz]   :	     110.15680
MeanCR2 [kHz]   :	     114.85630
MeanCR3 [kHz]   :	     111.07869

"Correlation"
  3.12500E-006	 -1.00000E+000	 -1.00000E+000	 -1.00000E+000	 -1.00000E+000
  6.25000E-006	 -1.00000E+000	 -1.00000E+000	 -1.00000E+000	 -1.00000E+000
  9.37500E-006	 -1.00000E+000	 -1.00000E+000	 -1.00000E+000	 -1.00000E+000
  1.25000E-005	 -1.00000E+000	 -1.00000E+000	 -1.00000E+000	 -1.00000E+000
  1.56250E-005	 -1.00000E+000	 -1.00000E+000	 -1.00000E+000	 -1.00000E+000
  1.87500E-005	 -1.00000E+000	 -1.00000E+000	 -1.00000E+000	 -1.00000E+000
  2.18750E-005	 -9.20141E-001	 -4.99120E-002	 -1.77477E-001	 -9.17554E-001
  2.50000E-005	  6.42690E+000	  6.65659E+000	  5.58018E+000	  1.15042E+001
  2.81250E-005	  2.22099E+000	  1.40316E+000	  1.46757E+000	  5.23838E+000
  3.12500E-005	  8.90000E-001	  8.16345E-001	  9.53491E-001	  2.76501E+000
  3.43750E-005	  9.43239E-001	  1.26344E+000	  7.99268E-001	  2.02300E+000
  3.75000E-005	  2.24507E-001	  8.16345E-001	  8.24972E-001	  1.85811E+000
  4.06250E-005	  6.77042E-001	  7.60457E-001	  1.08201E+000	  2.18790E+000
  4.37500E-005	  5.17324E-001	  6.48682E-001	  5.42230E-001	  1.33596E+000
  4.68750E-005	  5.97183E-001	  6.20738E-001	  4.90822E-001	  1.61078E+000
  5.00000E-005	  6.37113E-001	  7.18541E-001	  7.73565E-001	  1.01992E+000
  5.62500E-005	  6.50422E-001	  7.88401E-001	  7.47861E-001	  1.23977E+000
  6.25000E-005	  5.70563E-001	  5.50879E-001	  6.19341E-001	  8.13802E-001
  6.87500E-005	  4.90704E-001	  5.22935E-001	  6.19341E-001	  6.90134E-001
  7.50000E-005	  7.43591E-001	  6.20738E-001	  5.55082E-001	  8.82507E-001
  8.12500E-005	  5.30634E-001	  5.50879E-001	  6.70749E-001	  8.68766E-001
  8.75000E-005	  4.77394E-001	  7.18541E-001	  6.06490E-001	  7.17616E-001
  9.37500E-005	  7.16972E-001	  5.08963E-001	  7.35009E-001	  7.45098E-001
  1.00000E-004	  6.90352E-001	  5.01977E-001	  4.97248E-001	  6.42041E-001
  1.12500E-004	  5.97183E-001	  7.60457E-001	  6.06489E-001	  6.83263E-001
  1.25000E-004	  4.77394E-001	  4.25132E-001	  6.25767E-001	  5.18372E-001
  1.37500E-004	  4.70739E-001	  3.90202E-001	  6.70749E-001	  5.59595E-001
  1.50000E-004	  3.24331E-001	  5.15949E-001	  6.45045E-001	  4.08445E-001
  1.62500E-004	  5.10669E-001	  5.99780E-001	  4.13711E-001	  5.93947E-001
  1.75000E-004	  5.37288E-001	  5.50879E-001	  4.52266E-001	  5.18372E-001
  1.87500E-004	  3.84225E-001	  6.62654E-001	  5.80786E-001	  6.55782E-001
  2.00000E-004	  6.43767E-001	  6.31217E-001	  4.23349E-001	  4.53103E-001
  2.25000E-004	  6.20475E-001	  4.00681E-001	  4.71544E-001	  5.66465E-001
  2.50000E-004	  5.10668E-001	  5.36906E-001	  5.64720E-001	  4.84020E-001
  2.75000E-004	  6.03837E-001	  6.34710E-001	  4.58692E-001	  4.11880E-001
  3.00000E-004	  5.53925E-001	  4.74033E-001	  4.61905E-001	  5.66465E-001
  3.25000E-004	  5.60580E-001	  5.08963E-001	  4.61905E-001	  5.66465E-001
  3.50000E-004	  3.47623E-001	  5.50878E-001	  5.06887E-001	  3.15693E-001
  3.75000E-004	  5.60580E-001	  4.77526E-001	  3.94433E-001	  4.05009E-001
  4.00000E-004	  5.13995E-001	  4.98483E-001	  4.95641E-001	  4.37643E-001
  4.50000E-004	  5.28969E-001	  5.54371E-001	  5.58294E-001	  4.84005E-001
  5.00000E-004	  5.47270E-001	  5.40399E-001	  5.72752E-001	  4.56523E-001
  5.50000E-004	  5.33960E-001	  5.40399E-001	  5.59900E-001	  5.25227E-001
  6.00000E-004	  5.38951E-001	  5.66596E-001	  5.53474E-001	  5.06334E-001
  6.50000E-004	  6.38775E-001	  5.19441E-001	  4.89215E-001	  4.42783E-001
  7.00000E-004	  5.12332E-001	  5.31666E-001	  4.63511E-001	  5.16639E-001
  7.50000E-004	  5.30633E-001	  5.38652E-001	  5.79178E-001	  4.89158E-001
  8.00000E-004	  4.86542E-001	  6.09384E-001	  5.26966E-001	  4.88312E-001
  9.00000E-004	  5.59747E-001	  5.10707E-001	  4.70739E-001	  4.51383E-001
  1.00000E-003	  4.87374E-001	  5.25552E-001	  5.36605E-001	  4.44513E-001
  1.10000E-003	  4.73233E-001	  5.48257E-001	  4.97246E-001	  5.15794E-001
  1.20000E-003	  4.96525E-001	  5.55243E-001	  4.77968E-001	  5.06347E-001
  1.30000E-003	  4.86542E-001	  5.61355E-001	  5.02869E-001	  5.02038E-001
  1.40000E-003	  4.45781E-001	  5.90172E-001	  5.14917E-001	  5.02038E-001
  1.50000E-003	  5.09003E-001	  5.49130E-001	  4.77968E-001	  4.71980E-001
  1.60000E-003	  4.91115E-001	  5.13761E-001	  4.83602E-001	  4.86162E-001
  1.80000E-003	  4.61168E-001	  5.10705E-001	  5.19347E-001	  4.76286E-001
  2.00000E-003	  5.13991E-001	  5.52184E-001	  4.94044E-001	  4.23040E-001
  2.20000E-003	  4.82797E-001	  5.00662E-001	  5.02478E-001	  4.46228E-001
  2.40000E-003	  4.75310E-001	  5.19874E-001	  4.75971E-001	  4.65122E-001
  2.60000E-003	  5.26053E-001	  5.21620E-001	  5.09306E-001	  4.28193E-001
  2.80000E-003	  4.81133E-001	  5.17691E-001	  5.11716E-001	  4.64263E-001
  3.00000E-003	  4.64911E-001	  5.17691E-001	  4.80791E-001	  4.56090E-001
  3.20000E-003	  4.86743E-001	  5.24890E-001	  4.93852E-001	  4.54395E-001
  3.60000E-003	  4.64075E-001	  4.91270E-001	  4.50476E-001	  4.66633E-001
  4.00000E-003	  5.05252E-001	  4.90397E-001	  4.52886E-001	  4.32066E-001
  4.40000E-003	  4.81128E-001	  5.02622E-001	  4.88229E-001	  4.68995E-001
  4.80000E-003	  4.80296E-001	  5.41278E-001	  4.63516E-001	  4.74792E-001
  5.20000E-003	  4.99845E-001	  5.13989E-001	  4.77773E-001	  4.73075E-001
  5.60000E-003	  4.75097E-001	  5.30799E-001	  4.54881E-001	  4.39796E-001
  6.00000E-003	  4.79672E-001	  5.12679E-001	  4.84601E-001	  4.74148E-001
  6.40000E-003	  4.73319E-001	  5.02954E-001	  4.72255E-001	  4.69751E-001
  7.20000E-003	  4.72279E-001	  5.03390E-001	  4.77088E-001	  4.67160E-001
  8.00000E-003	  4.89228E-001	  4.88218E-001	  4.66244E-001	  4.53433E-001
  8.80000E-003	  4.74567E-001	  5.10267E-001	  4.64537E-001	  4.73937E-001
  9.60000E-003	  4.87773E-001	  5.10049E-001	  4.57709E-001	  4.42054E-001
  1.04000E-002	  4.86019E-001	  5.02968E-001	  4.70073E-001	  4.55044E-001
  1.12000E-002	  4.77596E-001	  5.25454E-001	  4.69457E-001	  4.63202E-001
  1.20000E-002	  4.53784E-001	  5.09518E-001	  4.52287E-001	  4.57727E-001
  1.28000E-002	  4.69206E-001	  4.96824E-001	  4.54403E-001	  4.46960E-001
  1.44000E-002	  4.90314E-001	  5.16963E-001	  4.67406E-001	  4.50288E-001
  1.60000E-002	  4.67958E-001	  4.99989E-001	  4.52947E-001	  4.45457E-001
  1.76000E-002	  4.55546E-001	  4.94477E-001	  4.59775E-001	  4.42036E-001
  1.92000E-002	  4.62357E-001	  4.95187E-001	  4.45517E-001	  4.58622E-001
  2.08000E-002	  4.64852E-001	  5.02063E-001	  4.37133E-001	  4.44062E-001
  2.24000E-002	  4.70155E-001	  4.86072E-001	  4.67556E-001	  4.37835E-001
  2.40000E-002	  4.45563E-001	  4.83343E-001	  4.56649E-001	  4.43793E-001
  2.56000E-002	  4.57886E-001	  5.01782E-001	  4.43511E-001	  4.35341E-001
  2.88000E-002	  4.61889E-001	  4.82037E-001	  4.58522E-001	  4.39166E-001
  3.20000E-002	  4.59823E-001	  4.87481E-001	  4.26065E-001	  4.23385E-001
  3.52000E-002	  4.56885E-001	  4.77288E-001	  4.44214E-001	  4.30148E-001
  3.84000E-002	  4.41678E-001	  4.82228E-001	  4.36444E-001	  4.41595E-001
  4.16000E-002	  4.40820E-001	  4.77616E-001	  4.32126E-001	  4.31236E-001
  4.48000E-002	  4.38949E-001	  4.81355E-001	  4.19990E-001	  4.20715E-001
  4.80000E-002	  4.43784E-001	  4.68215E-001	  4.28727E-001	  4.15441E-001
  5.12000E-002	  4.38468E-001	  4.64593E-001	  4.25164E-001	  4.15016E-001
  5.76000E-002	  4.28903E-001	  4.67309E-001	  4.10655E-001	  4.17096E-001
  6.40000E-002	  4.20532E-001	  4.62942E-001	  3.99572E-001	  4.08736E-001
  7.04000E-002	  4.22469E-001	  4.45762E-001	  4.11809E-001	  4.03166E-001
  7.68000E-002	  4.12085E-001	  4.48736E-001	  4.04631E-001	  3.94000E-001
  8.32000E-002	  4.09914E-001	  4.41667E-001	  3.95518E-001	  4.03797E-001
  8.96000E-002	  4.13346E-001	  4.34708E-001	  3.84297E-001	  3.84927E-001
  9.60000E-002	  4.15828E-001	  4.22100E-001	  3.84762E-001	  3.86135E-001
  1.02400E-001	  4.00392E-001	  4.23284E-001	  3.82287E-001	  3.78338E-001
  1.15200E-001	  3.91886E-001	  4.13171E-001	  3.72829E-001	  3.66870E-001
  1.28000E-001	  3.88045E-001	  3.99810E-001	  3.61808E-001	  3.66561E-001
  1.40800E-001	  3.69414E-001	  3.92816E-001	  3.53824E-001	  3.52394E-001
  1.53600E-001	  3.62571E-001	  3.89848E-001	  3.42256E-001	  3.37792E-001
  1.66400E-001	  3.54506E-001	  3.75696E-001	  3.35208E-001	  3.34235E-001
  1.79200E-001	  3.50002E-001	  3.74325E-001	  3.27363E-001	  3.29349E-001
  1.92000E-001	  3.40870E-001	  3.53011E-001	  3.16367E-001	  3.17123E-001
  2.04800E-001	  3.30869E-001	  3.47052E-001	  3.09074E-001	  3.09061E-001
  2.30400E-001	  3.14967E-001	  3.32620E-001	  2.93886E-001	  2.94630E-001
  2.56000E-001	  2.95644E-001	  3.14389E-001	  2.73522E-001	  2.82695E-001
  2.81600E-001	  2.83148E-001	  2.96343E-001	  2.63767E-001	  2.57967E-001
  3.07200E-001	  2.67847E-001	  2.80676E-001	  2.45247E-001	  2.42084E-001
  3.32800E-001	  2.54510E-001	  2.65305E-001	  2.34567E-001	  2.32480E-001
  3.58400E-001	  2.44200E-001	  2.56175E-001	  2.20678E-001	  2.18092E-001
  3.84000E-001	  2.31049E-001	  2.40996E-001	  2.08383E-001	  2.09222E-001
  4.09600E-001	  2.15214E-001	  2.26351E-001	  1.96759E-001	  1.95912E-001
  4.60800E-001	  1.94490E-001	  2.02094E-001	  1.73127E-001	  1.66518E-001
  5.12000E-001	  1.70500E-001	  1.82649E-001	  1.55593E-001	  1.48076E-001
  5.63200E-001	  1.57784E-001	  1.61355E-001	  1.34059E-001	  1.33259E-001
  6.14400E-001	  1.39696E-001	  1.41058E-001	  1.20468E-001	  1.20583E-001
  6.65600E-001	  1.22007E-001	  1.28215E-001	  1.05486E-001	  1.07816E-001
  7.16800E-001	  1.10299E-001	  1.09332E-001	  9.23587E-002	  9.87353E-002
  7.68000E-001	  9.96835E-002	  1.01023E-001	  8.07142E-002	  8.59134E-002
  8.19200E-001	  9.11533E-002	  9.21771E-002	  7.23617E-002	  7.90705E-002
  9.21600E-001	  7.25364E-002	  7.75152E-002	  5.50694E-002	  6.31638E-002
  1.02400E+000	  5.94966E-002	  6.36454E-002	  4.21741E-002	  4.95881E-002
  1.12640E+000	  5.21065E-002	  5.48737E-002	  3.13397E-002	  4.22829E-002
  1.22880E+000	  4.70663E-002	  4.49285E-002	  2.36965E-002	  3.92122E-002
  1.33120E+000	  4.06983E-002	  3.84440E-002	  1.75966E-002	  3.33393E-002
  1.43360E+000	  3.68285E-002	  3.27683E-002	  1.17588E-002	  2.84803E-002
  1.53600E+000	  3.11988E-002	  2.15949E-002	  9.64562E-003	  2.07508E-002
  1.63840E+000	  2.84649E-002	  1.70824E-002	  8.49734E-003	  1.38049E-002
  1.84320E+000	  2.60840E-002	  9.90755E-003	 -1.36694E-003	  3.87502E-003
  2.04800E+000	  2.02653E-002	  4.22206E-003	 -4.88079E-003	  2.10686E-003
  2.25280E+000	  9.09386E-003	  3.07601E-003	 -7.36380E-003	 -3.43876E-003
  2.45760E+000	  9.21734E-003	  6.42323E-003	 -1.34461E-002	 -1.07312E-002
  2.66240E+000	  1.34477E-002	  1.12887E-002	 -2.08233E-002	 -9.56077E-003
  2.86720E+000	  1.52308E-002	  1.64974E-002	 -2.24081E-002	 -3.43495E-003
  3.07200E+000	  1.67164E-002	  1.32033E-002	 -1.35904E-002	 -1.20507E-003
  3.27680E+000	  2.02054E-002	  1.13394E-003	 -7.49301E-003	  4.69871E-003
  3.68640E+000	  1.36542E-002	 -9.11735E-003	 -6.94062E-003	  1.06481E-002
  4.09600E+000	  1.46479E-003	 -6.19169E-003	 -1.05997E-002	  3.49758E-003
  4.50560E+000	 -1.93592E-002	  4.31101E-004	 -1.19381E-002	  6.41391E-003
  4.91520E+000	 -2.16490E-002	 -4.01354E-003	 -6.19296E-003	  1.48281E-002
  5.32480E+000	 -1.61412E-002	 -2.06504E-002	  8.65272E-003	  1.97185E-002
  5.73440E+000	 -1.18886E-004	 -1.63945E-002	  2.36296E-002	  2.16053E-002
  6.14400E+000	  8.16601E-003	 -1.00707E-002	  1.56486E-002	  2.79031E-002
  6.55360E+000	  1.36953E-002	 -1.31656E-002	  4.40793E-003	  9.56742E-003
  7.37280E+000	  1.72884E-002	  3.87496E-003	  5.21691E-003	  4.90837E-003
  8.19200E+000	  3.87713E-003	  2.18335E-003	  1.26811E-002	  1.35181E-002
  9.01120E+000	 -1.15961E-002	  7.30894E-003	  1.88624E-002	  1.32124E-002
  9.83040E+000	 -1.52728E-002	 -5.61089E-003	  9.10993E-004	  1.49457E-002
  1.06496E+001	 -1.48701E-002	 -4.41539E-003	 -1.55179E-002	  8.31585E-003
  1.14688E+001	 -1.59592E-002	  3.80052E-004	 -2.34104E-002	 -4.69443E-003
  1.22880E+001	 -1.26525E-002	  1.01491E-002	 -1.63010E-002	  8.17280E-003
  1.31072E+001	 -6.64243E-003	  8.54911E-003	  3.40501E-004	  1.20361E-002
  1.47456E+001	 -7.34827E-003	 -8.78501E-003	  6.39296E-003	  1.40935E-002
  1.63840E+001	 -2.42343E-002	 -4.94238E-003	  6.62616E-003	  9.07706E-003
  1.80224E+001	 -2.44108E-002	 -8.60408E-003	  5.92924E-003	 -1.29024E-002
  1.96608E+001	 -1.00825E-002	  4.20564E-003	  5.79217E-003	  3.57438E-004
  2.12992E+001	 -1.08859E-003	  9.27897E-003	  3.66558E-003	  1.25184E-002
  2.29376E+001	 -3.64626E-003	  7.01447E-003	 -2.97048E-003	  1.10434E-002
  2.45760E+001	  2.37779E-003	  5.03394E-003	 -7.11326E-003	  7.35127E-003
  2.62144E+001	  3.25327E-003	  2.21232E-003	  2.60032E-004	  2.26580E-003
  2.94912E+001	 -3.55519E-003	 -4.24610E-003	  1.03086E-003	  2.25526E-002
  3.27680E+001	  2.15404E-003	 -4.24048E-003	  1.15561E-003	  2.17325E-005
  3.60448E+001	  4.42501E-003	 -1.51234E-003	  3.91562E-003	  2.70048E-003
  3.93216E+001	  1.78089E-003	 -4.67026E-003	 -3.10815E-004	  5.05191E-003
  4.25984E+001	  2.02543E-004	 -6.67113E-003	  1.57193E-003	  7.83399E-003
  4.58752E+001	  2.55614E-003	  1.26172E-003	 -1.51411E-003	 -4.57017E-003
  4.91520E+001	  2.88551E-003	  6.05772E-003	  5.52919E-003	 -1.42350E-002
  5.24288E+001	  3.26450E-003	  1.10546E-002	  1.37165E-003	 -9.92858E-003
  5.89824E+001	 -6.22736E-003	 -1.59897E-002	  7.22627E-004	 -3.63933E-003
  6.55360E+001	  1.42125E-002	 -4.94803E-003	 -4.12753E-003	 -4.09498E-003
  7.20896E+001	  1.17345E-002	 -8.98721E-003	 -2.26548E-003	 -5.76169E-003
  7.86432E+001	  2.92595E-003	  3.54562E-003	 -5.53077E-003	  6.11945E-003
  8.51968E+001	 -1.30977E-002	  2.45369E-004	 -2.92543E-004	 -3.65574E-003
  9.17504E+001	 -4.44178E-003	 -5.26765E-003	  2.33656E-004	  1.47657E-003
  9.83040E+001	  3.97632E-003	 -1.94248E-004	 -9.73459E-004	 -9.15348E-003
  1.04858E+002	  3.87187E-003	 -3.54569E-004	 -3.92945E-003	 -8.19824E-003
  1.17965E+002	  1.51132E-003	 -4.03336E-004	 -5.67802E-003	 -7.96944E-004
  1.31072E+002	 -3.81740E-003	  8.10294E-003	  1.65205E-003	 -2.44311E-003
  1.44179E+002	  2.77172E-003	 -8.29238E-003	 -3.01056E-003	  6.52777E-004
  1.57286E+002	 -7.89706E-003	 -1.47818E-003	  9.19734E-004	  5.59090E-003
  1.70394E+002	  1.26302E-003	 -2.94722E-004	 -2.42355E-003	  1.90050E-003
  1.83501E+002	  2.85417E-003	  9.91253E-003	  3.57203E-003	  8.85958E-004
  1.96608E+002	 -2.39523E-003	 -1.94717E-003	  1.47318E-003	  2.26477E-004
  2.09715E+002	 -6.08969E-004	 -1.17939E-003	 -2.43462E-004	 -1.37027E-003
  2.35930E+002	  7.75676E-004	 -3.30916E-003	 -3.97737E-003	  3.67317E-003
  2.62144E+002	  2.71393E-004	  2.62652E-003	 -4.42994E-003	 -3.19399E-003
  2.88358E+002	 -3.88483E-003	  3.09075E-003	 -3.68736E-003	 -7.06663E-003
  3.14573E+002	 -1.44155E-003	 -3.92517E-004	 -1.17269E-003	  4.90559E-003
  3.40787E+002	 -1.78068E-003	 -5.21983E-003	  2.36534E-003	  3.39091E-003
  3.67002E+002	 -3.24255E-003	 -2.26206E-003	  6.99032E-003	  5.08124E-003
  3.93216E+002	 -3.33018E-003	  1.93353E-003	  5.84361E-003	  1.51535E-003

"Count Rate"
       0.01311	      78.81165	     114.05945	     150.83313	     109.63440
       0.02621	      88.04321	     192.94739	      97.42737	     111.69434
       0.03932	     106.88782	     101.16577	     101.31836	     151.06201
       0.05243	     100.09766	     133.74329	     101.69983	     103.37830
       0.06554	     126.95313	     121.00220	     125.50354	     133.43811
       0.07864	     171.96655	      88.34839	     146.17920	      81.86340
       0.09175	      97.19849	      79.80347	     146.17920	      95.74890
       0.10486	     137.55798	     101.85242	      93.76526	     126.87683
       0.11796	     110.32104	     113.52539	     114.28833	     134.12476
       0.13107	     114.13574	     102.46277	     114.66980	     148.54431
       0.14418	     151.29089	      84.99146	     154.95300	     180.13000
       0.15729	      97.12219	      88.65356	     111.92322	     160.44617
       0.17039	     113.14392	      77.20947	     108.10852	     128.47900
       0.18350	     112.99133	     101.39465	     144.27185	      98.11401
       0.19661	     112.68616	     142.74597	     107.72705	     113.14392
       0.20972	     145.41626	     105.81970	     109.55811	      73.47107
       0.22282	      93.61267	      95.82520	      74.23401	     113.90686
       0.23593	      92.54456	     167.92297	     116.80603	      70.41931
       0.24904	     128.78418	     100.09766	      88.50098	     100.93689
       0.26214	     105.20935	      97.73254	      95.90149	     122.75696
       0.27525	      91.09497	      78.73535	     116.34827	     101.69983
       0.28836	     108.79517	      87.43286	      95.90149	      81.10046
       0.30147	     101.62354	      87.50916	      95.06226	     123.51990
       0.31457	     126.03760	     138.09204	     138.77869	      93.76526
       0.32768	      94.14673	     125.73242	      87.50916	     114.59351
       0.34079	     100.78430	     114.28833	     122.37549	     145.87402
       0.35389	     131.30188	      81.78711	     130.53894	      80.18494
       0.36700	      97.27478	     129.92859	     135.19287	      93.30750
       0.38011	     120.23926	      91.70532	     126.80054	     102.69165
       0.39322	      90.10315	     108.10852	     122.75696	     101.54724
       0.40632	      90.10315	      96.51184	      96.35925	      92.31567
       0.41943	     113.90686	     134.81140	     103.83606	     107.04041
       0.43254	     105.36194	      90.63721	      93.53638	     105.43823
       0.44564	      96.28296	     117.87415	     105.97229	      81.78711
       0.45875	      82.93152	     103.45459	     133.89587	      90.78979
       0.47186	     125.27466	     104.37012	     138.93127	     132.14111
       0.48497	     123.36731	     117.11121	     108.41370	     109.71069
       0.49807	      82.24487	     129.39453	     141.22009	     132.21741
       0.51118	      88.57727	      78.12500	     157.16553	     130.69153
       0.52429	     100.40283	     128.63159	     120.39185	      98.34290
       0.53740	     102.46277	      97.96143	     100.17395	     100.93689
       0.55050	     132.82776	      93.53638	     126.57166	      93.99414
       0.56361	     108.26111	      91.09497	     108.87146	      87.43286
       0.57672	      98.41919	      91.17126	     108.10852	     117.11121
       0.58982	     146.17920	     106.88782	      86.13586	      94.29932
       0.60293	      89.95056	     129.62341	     129.39453	      77.05688
       0.61604	     111.84692	     144.27185	      94.52820	     114.89868
       0.62915	     141.83044	      84.22852	      91.85791	      87.73804
       0.64225	      88.80615	     113.98315	     110.39734	     153.12195
       0.65536	      83.54187	     142.44080	     130.53894	      91.70532
       0.66847	     126.49536	     125.19836	     114.36462	      89.03503
       0.68157	     112.15210	     106.20117	      96.58813	      97.42737
       0.69468	     111.77063	      68.35938	     127.86865	     112.60986
       0.70779	     105.51453	     125.96130	      83.46558	     116.95862
       0.72090	      80.33752	      94.75708	     115.35645	     106.12488
       0.73400	     132.98035	      93.76526	     131.60706	     119.93408
       0.74711	      94.29932	      76.29395	     105.89600	      93.46008
