ALV-7004/USB-FAST
Date :	"3/14/2024"
Time :	"12:31:57 PM"
Samplename : 	""
SampMemo(0) : 	""
SampMemo(1) : 	""
SampMemo(2) : 	""
SampMemo(3) : 	""
SampMemo(4) : 	""
SampMemo(5) : 	""
SampMemo(6) : 	""
SampMemo(7) : 	""
SampMemo(8) : 	""
SampMemo(9) : 	""
Temperature [K] :	     298.16000
Viscosity [cp]  :	       0.89000
Refractive Index:	       1.33200
Wavelength [nm] :	       0.00000
Angle [°]       :	       0.00000
Duration [s]    :	         1
FloatDur [ms]   :	          944
Stop TP [ms]   :	      3200
Runs            :	         1
Mode            :	"A-CH0+1  A-CH2+3 "
MeanCR0 [kHz]   :	     145.94078
MeanCR1 [kHz]   :	     150.70067
MeanCR2 [kHz]   :	     142.66014
MeanCR3 [kHz]   :	     140.55677

"Correlation"
  3.12500E-006	 -1.00000E+000	 -1.00000E+000	 -1.00000E+000	 -1.00000E+000
  6.25000E-006	 -1.00000E+000	 -1.00000E+000	 -1.00000E+000	 -1.00000E+000
  9.37500E-006	 -1.00000E+000	 -1.00000E+000	 -1.00000E+000	 -1.00000E+000
  1.25000E-005	 -1.00000E+000	 -1.00000E+000	 -1.00000E+000	 -1.00000E+000
  1.56250E-005	 -1.00000E+000	 -1.00000E+000	 -1.00000E+000	 -1.00000E+000
  1.87500E-005	 -1.00000E+000	 -1.00000E+000	 -1.00000E+000	 -1.00000E+000
  2.18750E-005	 -9.52239E-001	 -5.07290E-001	 -4.66847E-001	 -9.48510E-001
  2.50000E-005	  5.11344E+000	  5.46495E+000	  4.74806E+000	  9.69274E+000
  2.81250E-005	  1.51542E+000	  1.22466E+000	  1.19926E+000	  4.11466E+000
  3.12500E-005	  1.08557E+000	  8.81255E-001	  7.99393E-001	  2.07223E+000
  3.43750E-005	  8.62688E-001	  6.42366E-001	  6.82766E-001	  1.90060E+000
  3.75000E-005	  7.51245E-001	  5.22921E-001	  6.99427E-001	  1.93492E+000
  4.06250E-005	  8.46767E-001	  5.97574E-001	  9.49342E-001	  1.59166E+000
  4.37500E-005	  8.14927E-001	  3.88545E-001	  7.49410E-001	  1.43719E+000
  4.68750E-005	  4.64678E-001	  6.12504E-001	  5.82799E-001	  1.09392E+000
  5.00000E-005	  5.04479E-001	  7.17018E-001	  5.57808E-001	  1.31705E+000
  5.62500E-005	  6.00001E-001	  5.75178E-001	  5.32816E-001	  8.96545E-001
  6.25000E-005	  4.24876E-001	  5.67712E-001	  5.82799E-001	  7.24912E-001
  6.87500E-005	  5.52240E-001	  7.31949E-001	  2.57909E-001	  1.11967E+000
  7.50000E-005	  4.72638E-001	  5.97574E-001	  4.91163E-001	  7.67820E-001
  8.12500E-005	  5.52240E-001	  5.37851E-001	  4.91163E-001	  7.50656E-001
  8.75000E-005	  4.64677E-001	  3.51219E-001	  4.41180E-001	  6.73422E-001
  9.37500E-005	  5.20399E-001	  4.93059E-001	  6.74435E-001	  7.50656E-001
  1.00000E-004	  3.73135E-001	  4.44535E-001	  5.61973E-001	  5.91896E-001
  1.12500E-004	  4.44777E-001	  4.52000E-001	  5.49477E-001	  5.87605E-001
  1.25000E-004	  6.11941E-001	  5.82643E-001	  5.16155E-001	  4.15972E-001
  1.37500E-004	  6.43782E-001	  6.01306E-001	  4.16189E-001	  4.88916E-001
  1.50000E-004	  4.68657E-001	  4.96792E-001	  3.95362E-001	  6.51967E-001
  1.62500E-004	  5.36319E-001	  4.70663E-001	  5.07824E-001	  4.67462E-001
  1.75000E-004	  4.80598E-001	  6.75959E-001	  5.24485E-001	  5.14661E-001
  1.87500E-004	  4.12936E-001	  5.37851E-001	  5.66138E-001	  5.18952E-001
  2.00000E-004	  4.98508E-001	  5.62113E-001	  4.80750E-001	  5.64005E-001
  2.25000E-004	  5.18408E-001	  5.71445E-001	  5.47394E-001	  4.97497E-001
  2.50000E-004	  4.58707E-001	  5.56514E-001	  4.84915E-001	  4.61025E-001
  2.75000E-004	  3.95025E-001	  4.40802E-001	  5.07824E-001	  4.76043E-001
  3.00000E-004	  5.54229E-001	  5.50915E-001	  3.91197E-001	  4.73898E-001
  3.25000E-004	  4.70647E-001	  5.45316E-001	  5.03659E-001	  5.03934E-001
  3.50000E-004	  5.54229E-001	  4.33337E-001	  5.26568E-001	  5.14661E-001
  3.75000E-004	  4.10946E-001	  3.73614E-001	  4.82832E-001	  4.15972E-001
  4.00000E-004	  4.38806E-001	  4.12807E-001	  4.95328E-001	  4.96424E-001
  4.50000E-004	  5.28358E-001	  4.95858E-001	  5.18248E-001	  5.17878E-001
  5.00000E-004	  4.96517E-001	  4.24938E-001	  4.48479E-001	  5.06078E-001
  5.50000E-004	  5.31343E-001	  5.26652E-001	  4.60975E-001	  4.40643E-001
  6.00000E-004	  5.29353E-001	  5.33184E-001	  5.19289E-001	  4.51370E-001
  6.50000E-004	  5.43283E-001	  5.03323E-001	  5.59901E-001	  4.82479E-001
  7.00000E-004	  4.40796E-001	  4.66930E-001	  4.77636E-001	  4.40643E-001
  7.50000E-004	  4.97512E-001	  4.58531E-001	  5.79686E-001	  4.46007E-001
  8.00000E-004	  4.78606E-001	  4.22614E-001	  5.41699E-001	  4.76589E-001
  9.00000E-004	  4.96018E-001	  5.08465E-001	  5.29203E-001	  4.72834E-001
  1.00000E-003	  4.85571E-001	  5.03332E-001	  5.19831E-001	  5.09843E-001
  1.10000E-003	  4.48755E-001	  5.45325E-001	  4.37045E-001	  5.24325E-001
  1.20000E-003	  4.63680E-001	  4.96800E-001	  4.81822E-001	  4.56196E-001
  1.30000E-003	  4.84576E-001	  4.59007E-001	  4.67244E-001	  5.02859E-001
  1.40000E-003	  5.23879E-001	  5.40193E-001	  4.97442E-001	  4.80869E-001
  1.50000E-003	  4.96516E-001	  5.11731E-001	  4.53706E-001	  4.47615E-001
  1.60000E-003	  4.50245E-001	  5.12206E-001	  4.93286E-001	  4.71234E-001
  1.80000E-003	  4.54971E-001	  4.88876E-001	  4.90422E-001	  4.98856E-001
  2.00000E-003	  5.10195E-001	  4.65303E-001	  4.87287E-001	  5.11729E-001
  2.20000E-003	  4.65419E-001	  4.99131E-001	  4.89109E-001	  4.71770E-001
  2.40000E-003	  4.74374E-001	  4.45707E-001	  4.84683E-001	  4.84911E-001
  2.60000E-003	  4.62683E-001	  4.82100E-001	  4.84683E-001	  4.81693E-001
  2.80000E-003	  4.61190E-001	  5.08229E-001	  4.75832E-001	  5.15472E-001
  3.00000E-003	  4.86812E-001	  4.72302E-001	  4.58129E-001	  4.78195E-001
  3.20000E-003	  4.71757E-001	  4.83537E-001	  4.79743E-001	  4.79017E-001
  3.60000E-003	  4.76857E-001	  4.74905E-001	  4.91849E-001	  4.45226E-001
  4.00000E-003	  4.54593E-001	  5.01151E-001	  4.75198E-001	  4.70022E-001
  4.40000E-003	  4.67280E-001	  4.63007E-001	  4.97208E-001	  4.79408E-001
  4.80000E-003	  4.70638E-001	  5.02784E-001	  4.89137E-001	  4.55272E-001
  5.20000E-003	  4.66533E-001	  4.82593E-001	  4.80926E-001	  4.63586E-001
  5.60000E-003	  4.45638E-001	  4.87026E-001	  4.68180E-001	  4.82235E-001
  6.00000E-003	  4.53598E-001	  4.95424E-001	  4.92261E-001	  4.57552E-001
  6.40000E-003	  4.58719E-001	  4.82683E-001	  4.86144E-001	  4.65150E-001
  7.20000E-003	  4.63757E-001	  4.54444E-001	  4.65968E-001	  4.48935E-001
  8.00000E-003	  4.61331E-001	  4.70706E-001	  4.83368E-001	  4.69587E-001
  8.80000E-003	  4.57289E-001	  4.65748E-001	  4.58765E-001	  4.58792E-001
  9.60000E-003	  4.56242E-001	  4.41067E-001	  4.70285E-001	  4.71263E-001
  1.04000E-002	  4.53071E-001	  4.72679E-001	  4.64363E-001	  4.46913E-001
  1.12000E-002	  4.47536E-001	  4.68431E-001	  4.61043E-001	  4.61999E-001
  1.20000E-002	  4.59228E-001	  4.65563E-001	  4.48927E-001	  4.49863E-001
  1.28000E-002	  4.54068E-001	  4.57789E-001	  4.56598E-001	  4.43481E-001
  1.44000E-002	  4.46325E-001	  4.58295E-001	  4.52345E-001	  4.34083E-001
  1.60000E-002	  4.32943E-001	  4.42208E-001	  4.46682E-001	  4.28450E-001
  1.76000E-002	  4.37711E-001	  4.50383E-001	  4.49167E-001	  4.26105E-001
  1.92000E-002	  4.24185E-001	  4.51404E-001	  4.37917E-001	  4.20439E-001
  2.08000E-002	  4.22132E-001	  4.29307E-001	  4.32872E-001	  4.22048E-001
  2.24000E-002	  4.21448E-001	  4.37025E-001	  4.37244E-001	  4.20875E-001
  2.40000E-002	  4.25812E-001	  4.24194E-001	  4.21232E-001	  4.15164E-001
  2.56000E-002	  4.16688E-001	  4.19677E-001	  4.19393E-001	  4.13210E-001
  2.88000E-002	  4.02492E-001	  4.12891E-001	  4.13687E-001	  4.03671E-001
  3.20000E-002	  3.89188E-001	  3.97152E-001	  4.00835E-001	  3.91399E-001
  3.52000E-002	  3.95868E-001	  3.94076E-001	  4.02116E-001	  3.83241E-001
  3.84000E-002	  3.86181E-001	  3.83411E-001	  3.81786E-001	  3.73048E-001
  4.16000E-002	  3.70084E-001	  3.79051E-001	  3.86766E-001	  3.66797E-001
  4.48000E-002	  3.61210E-001	  3.76120E-001	  3.71225E-001	  3.66435E-001
  4.80000E-002	  3.53580E-001	  3.66170E-001	  3.61074E-001	  3.50529E-001
  5.12000E-002	  3.47111E-001	  3.56948E-001	  3.53510E-001	  3.49500E-001
  5.76000E-002	  3.27283E-001	  3.41007E-001	  3.32984E-001	  3.28502E-001
  6.40000E-002	  3.24297E-001	  3.24695E-001	  3.27893E-001	  3.21257E-001
  7.04000E-002	  3.08368E-001	  3.17618E-001	  3.15024E-001	  3.12040E-001
  7.68000E-002	  2.96626E-001	  3.02348E-001	  3.00558E-001	  2.92203E-001
  8.32000E-002	  2.86386E-001	  2.88912E-001	  2.90492E-001	  2.78040E-001
  8.96000E-002	  2.77086E-001	  2.86340E-001	  2.79346E-001	  2.74503E-001
  9.60000E-002	  2.68703E-001	  2.71041E-001	  2.66682E-001	  2.53286E-001
  1.02400E-001	  2.56297E-001	  2.63680E-001	  2.64020E-001	  2.49513E-001
  1.15200E-001	  2.40635E-001	  2.44726E-001	  2.45336E-001	  2.34859E-001
  1.28000E-001	  2.22073E-001	  2.27414E-001	  2.31501E-001	  2.14655E-001
  1.40800E-001	  2.05525E-001	  2.13090E-001	  2.17948E-001	  1.99511E-001
  1.53600E-001	  1.95536E-001	  2.03083E-001	  2.05091E-001	  1.89676E-001
  1.66400E-001	  1.82178E-001	  1.89166E-001	  1.89080E-001	  1.73892E-001
  1.79200E-001	  1.76487E-001	  1.77297E-001	  1.79558E-001	  1.62078E-001
  1.92000E-001	  1.65985E-001	  1.71776E-001	  1.72671E-001	  1.56945E-001
  2.04800E-001	  1.56536E-001	  1.63611E-001	  1.58094E-001	  1.47850E-001
  2.30400E-001	  1.41514E-001	  1.45057E-001	  1.46868E-001	  1.34016E-001
  2.56000E-001	  1.30220E-001	  1.29124E-001	  1.33662E-001	  1.21756E-001
  2.81600E-001	  1.15095E-001	  1.18986E-001	  1.21914E-001	  1.04657E-001
  3.07200E-001	  1.07946E-001	  1.09164E-001	  1.10420E-001	  9.59800E-002
  3.32800E-001	  9.86072E-002	  9.60423E-002	  1.00326E-001	  8.87087E-002
  3.58400E-001	  9.28139E-002	  9.07862E-002	  9.11021E-002	  8.42496E-002
  3.84000E-001	  8.39592E-002	  8.23399E-002	  8.26590E-002	  7.53555E-002
  4.09600E-001	  7.58920E-002	  7.59807E-002	  7.53769E-002	  7.01876E-002
  4.60800E-001	  6.12253E-002	  6.14050E-002	  6.50229E-002	  5.67707E-002
  5.12000E-001	  4.86365E-002	  5.45346E-002	  5.41405E-002	  4.69907E-002
  5.63200E-001	  4.46142E-002	  4.27195E-002	  4.10480E-002	  4.30333E-002
  6.14400E-001	  4.20620E-002	  3.50328E-002	  3.20630E-002	  3.44136E-002
  6.65600E-001	  3.32300E-002	  2.81582E-002	  2.65983E-002	  3.40293E-002
  7.16800E-001	  2.98796E-002	  2.64625E-002	  1.88255E-002	  2.77106E-002
  7.68000E-001	  2.79202E-002	  2.32403E-002	  1.03370E-002	  2.49577E-002
  8.19200E-001	  2.10489E-002	  1.92043E-002	  3.99957E-003	  1.75382E-002
  9.21600E-001	  1.20647E-002	  1.53845E-002	 -2.77190E-003	  1.09473E-002
  1.02400E+000	  1.43780E-002	  1.58247E-002	  4.62137E-003	  2.81037E-003
  1.12640E+000	  1.48127E-002	  1.29297E-002	  4.30267E-003	 -1.85657E-003
  1.22880E+000	  1.66189E-002	  8.79312E-003	  8.57339E-003	 -2.09746E-003
  1.33120E+000	  1.41932E-002	  4.00834E-003	  4.98468E-003	 -4.47353E-003
  1.43360E+000	  1.39329E-002	  5.51406E-003	  1.93607E-003	 -5.32193E-003
  1.53600E+000	  6.43586E-003	  7.27441E-003	  4.49682E-003	 -6.27579E-003
  1.63840E+000	  1.12641E-004	  5.75909E-003	  5.21694E-003	 -8.21277E-003
  1.84320E+000	 -8.20706E-003	  8.94111E-003	  4.21997E-003	  2.73097E-004
  2.04800E+000	  1.39149E-003	  3.40250E-003	  1.21040E-002	  4.36579E-003
  2.25280E+000	  4.80545E-003	  1.75365E-003	  1.55209E-002	  6.66620E-003
  2.45760E+000	  5.57263E-003	 -2.84169E-004	  1.52785E-002	  1.49852E-002
  2.66240E+000	  6.10706E-003	  1.50397E-003	  1.12287E-002	  1.19005E-002
  2.86720E+000	  1.19225E-003	 -2.31719E-003	  1.06337E-002	  1.00860E-002
  3.07200E+000	 -5.78777E-004	  2.88026E-003	  3.89836E-003	  5.06175E-003
  3.27680E+000	 -5.48638E-003	  3.77860E-003	  9.81757E-003	  4.70507E-003
  3.68640E+000	 -6.18279E-003	  4.13126E-003	  5.50611E-003	  1.34297E-002
  4.09600E+000	  3.16440E-003	  5.61004E-003	 -9.53499E-004	  1.65555E-003
  4.50560E+000	  1.09178E-002	  8.88290E-003	  3.59941E-003	 -2.00183E-003
  4.91520E+000	  1.88527E-002	  5.77713E-003	  1.66436E-003	  5.26248E-003
  5.32480E+000	  8.32268E-003	  2.28237E-003	  8.02663E-003	  8.33300E-003
  5.73440E+000	  1.44666E-003	  2.12116E-003	  7.86244E-003	 -1.60539E-003
  6.14400E+000	 -2.67711E-003	 -3.32585E-003	  2.16065E-003	  2.43199E-004
  6.55360E+000	  6.05821E-003	 -5.15083E-003	 -9.08176E-003	 -1.18031E-003
  7.37280E+000	  3.90481E-003	 -5.02002E-003	 -5.78947E-003	  1.22715E-003
  8.19200E+000	 -1.50179E-003	 -1.36996E-002	 -5.41071E-003	  1.71139E-003
  9.01120E+000	  1.48759E-003	  3.29248E-003	 -1.15885E-003	 -8.30648E-003
  9.83040E+000	  6.08963E-003	 -2.42731E-003	 -3.34587E-003	 -1.99544E-003
  1.06496E+001	  7.80184E-003	 -6.43977E-003	 -3.30879E-003	  4.93667E-004
  1.14688E+001	 -1.16877E-003	 -8.59326E-004	 -3.74888E-004	 -3.07685E-003
  1.22880E+001	  1.06997E-003	 -3.66292E-003	 -5.91359E-003	  4.13539E-003
  1.31072E+001	  3.07404E-003	 -6.86612E-003	 -3.45787E-003	  1.68272E-003
  1.47456E+001	 -6.37232E-003	 -7.45000E-004	  3.75160E-003	  1.65626E-003
  1.63840E+001	 -2.45095E-003	  3.70093E-003	  6.86738E-003	  1.82873E-003
  1.80224E+001	 -5.86038E-003	 -6.09477E-003	 -3.81024E-003	 -1.36925E-003
  1.96608E+001	 -6.64018E-003	  6.39721E-003	 -2.02304E-003	 -4.42712E-003
  2.12992E+001	 -1.69671E-003	 -7.51565E-004	  1.15485E-003	 -4.30413E-003
  2.29376E+001	  2.69439E-003	 -4.74571E-003	 -3.08045E-004	 -7.84347E-003
  2.45760E+001	 -4.54926E-003	 -5.21864E-003	 -2.75589E-003	  3.48724E-003
  2.62144E+001	  6.96391E-004	  9.71996E-004	 -1.50969E-003	 -6.19361E-003
  2.94912E+001	 -1.45664E-003	 -4.84561E-003	  3.78259E-003	  4.07336E-004
  3.27680E+001	  5.92519E-003	 -2.80066E-004	  3.42754E-003	 -1.25458E-003
  3.60448E+001	 -7.53565E-003	 -9.21537E-004	 -5.40453E-003	 -4.99872E-003
  3.93216E+001	 -1.44111E-003	  1.84825E-004	 -1.03674E-003	  2.83857E-003
  4.25984E+001	  3.67050E-003	  5.38238E-003	 -3.08627E-003	 -1.98461E-003
  4.58752E+001	  1.55670E-003	  1.47906E-003	 -5.04066E-003	  2.88637E-003
  4.91520E+001	  3.27528E-003	 -1.97184E-003	 -6.53767E-003	 -6.12631E-003
  5.24288E+001	  2.23202E-003	  1.67993E-003	 -5.07068E-003	 -2.55545E-003
  5.89824E+001	  2.02828E-003	 -4.43210E-003	  2.08638E-003	  2.33941E-003
  6.55360E+001	 -4.02721E-003	 -8.97669E-004	 -6.13624E-003	  4.04459E-004
  7.20896E+001	  1.40724E-004	 -3.49847E-003	 -4.39717E-003	  4.03764E-003
  7.86432E+001	  2.53866E-003	 -3.07792E-004	 -4.81011E-004	 -1.48711E-003
  8.51968E+001	 -1.94275E-003	 -1.52036E-003	 -1.47371E-004	 -2.01329E-004
  9.17504E+001	 -1.84697E-003	  3.56357E-003	 -2.50232E-003	 -1.58669E-003
  9.83040E+001	 -5.60934E-003	 -4.14415E-003	  1.66089E-003	 -5.36883E-004
  1.04858E+002	 -2.19146E-003	 -2.75299E-003	 -1.28816E-004	 -2.69955E-003
  1.17965E+002	 -1.74248E-004	  2.57455E-003	  1.32202E-003	  1.37750E-003
  1.31072E+002	  1.68673E-003	  7.02533E-004	  3.41548E-004	 -3.19224E-003
  1.44179E+002	  1.62877E-003	  2.27401E-003	 -2.47348E-003	  4.97663E-004
  1.57286E+002	 -2.32780E-003	  2.56093E-003	 -5.25284E-004	  1.97719E-003
  1.70394E+002	 -1.14018E-003	  2.04703E-003	  3.59558E-003	  1.13276E-003
  1.83501E+002	 -8.71197E-004	 -2.40823E-003	 -1.76669E-003	 -4.18865E-003
  1.96608E+002	 -2.50866E-003	 -1.03950E-003	 -2.98831E-004	  9.12431E-004
  2.09715E+002	 -1.34600E-003	 -3.56350E-003	 -1.78977E-004	 -9.85849E-004
  2.35930E+002	  1.63314E-003	 -2.92230E-003	 -6.27164E-004	  3.93772E-003
  2.62144E+002	 -2.91936E-003	  4.70551E-004	  1.21228E-003	  2.70042E-003
  2.88358E+002	  2.55218E-003	  3.09821E-003	  1.34121E-003	 -8.31366E-004
  3.14573E+002	 -2.34889E-003	  1.95368E-003	 -1.40719E-003	 -5.01328E-003
  3.40787E+002	  3.41039E-003	 -1.36037E-003	  7.15877E-004	 -3.00863E-003
  3.67002E+002	  3.77993E-004	 -2.12759E-003	 -1.73164E-003	 -4.77702E-004
  3.93216E+002	 -1.86716E-003	 -1.07622E-004	  8.37185E-004	  1.99524E-003

"Count Rate"
       0.01311	     159.14917	     160.52246	     156.40259	     182.64771
       0.02621	     158.15735	     134.65881	     158.46252	     126.72424
       0.03932	     138.39722	     117.49268	     132.67517	     145.56885
       0.05243	     115.20386	     175.24719	     125.50354	     120.54443
       0.06554	     122.68066	     138.54980	     166.39709	     160.36987
       0.07864	     113.44910	     144.88220	     155.56335	     134.20105
       0.09175	     147.70508	     130.38635	     159.37805	     123.59619
       0.10486	     176.46790	     184.24988	     148.46802	     136.41357
       0.11796	     166.93115	     145.87402	     128.02124	     135.49805
       0.13107	     152.58789	     144.19556	     142.97485	     141.52527
       0.14418	     129.24194	     134.65881	     121.76514	     126.72424
       0.15729	     164.48975	     145.79773	     137.02393	     119.32373
       0.17039	     126.26648	     158.08105	     125.96130	     124.81689
       0.18350	     148.46802	     141.67786	     129.54712	     127.63977
       0.19661	     139.08386	     168.22815	     127.18201	     135.34546
       0.20972	     157.54700	     143.12744	     204.31519	     199.58496
       0.22282	     126.80054	     161.36169	     148.54431	     152.51160
       0.23593	     154.26636	     116.65344	     162.50610	     104.82788
       0.24904	     187.07275	     141.52527	     167.23633	     114.82239
       0.26214	     161.43799	     164.79492	     123.74878	     142.13562
       0.27525	     116.42456	     121.15479	     125.27466	     146.86584
       0.28836	     141.14380	     131.14929	     120.92590	     127.71606
       0.30147	     175.93384	     131.83594	     134.50623	     130.92041
       0.31457	     146.48438	     149.99390	     123.74878	     120.39185
       0.32768	     148.84949	     158.23364	     122.75696	     164.94751
       0.34079	     111.38916	     187.91199	     138.77869	     112.99133
       0.35389	     106.88782	     127.18201	     158.69141	     135.34546
       0.36700	     176.77307	     157.85217	     121.61255	     167.46521
       0.38011	     131.45447	     145.03479	     136.64246	     139.92310
       0.39322	     131.22559	     139.08386	     118.56079	     123.36731
       0.40632	     120.23926	     146.78955	     140.83862	     155.41077
       0.41943	     150.07019	     168.07556	     155.63965	     146.33179
       0.43254	     106.65894	     150.83313	     151.67236	     158.00476
       0.44564	     175.47607	     130.08118	     122.45178	     148.69690
       0.45875	     138.85498	     174.48425	     140.91492	     146.33179
       0.47186	     180.81665	     121.38367	     156.70776	     166.85486
       0.48497	     127.10571	     151.44348	     120.77332	     135.42175
       0.49807	     157.39441	     186.76758	     139.08386	     169.44885
       0.51118	     143.58521	     179.67224	     156.17371	     100.47913
       0.52429	     122.98584	     159.83582	     137.32910	     129.77600
       0.53740	     116.57715	     132.29370	     133.13293	     156.17371
       0.55050	     161.36169	     164.33716	     156.02112	     117.03491
       0.56361	     123.97766	     131.53076	     100.70801	     124.35913
       0.57672	     136.41357	     116.95862	     147.09473	     136.64246
       0.58982	     165.86304	     141.75415	     146.71326	     168.60962
       0.60293	     153.35083	     132.52258	     147.01843	     148.31543
       0.61604	     134.12476	     166.39709	     118.63708	     152.13013
       0.62915	     124.58801	     154.19006	     141.67786	     131.75964
       0.64225	     153.57971	     176.84937	     142.59338	     137.63428
       0.65536	     124.28284	     158.46252	     131.98853	     147.09473
       0.66847	     121.84143	     148.31543	     124.43542	     166.62598
       0.68157	     125.42725	     153.96118	     151.44348	     129.01306
       0.69468	     115.12756	     143.96667	     147.70508	     126.87683
       0.70779	     138.09204	     129.47083	     186.23352	     135.42175
       0.72090	     138.32092	     145.33997	     147.78137	     130.15747
       0.73400	     135.04028	     133.28552	     134.88770	     173.41614
       0.74711	     132.52258	     145.03479	     119.40002	     119.24744
