ALV-7004/USB-FAST
Date :	"3/14/2024"
Time :	"12:34:34 PM"
Samplename : 	""
SampMemo(0) : 	""
SampMemo(1) : 	""
SampMemo(2) : 	""
SampMemo(3) : 	""
SampMemo(4) : 	""
SampMemo(5) : 	""
SampMemo(6) : 	""
SampMemo(7) : 	""
SampMemo(8) : 	""
SampMemo(9) : 	""
Temperature [K] :	     298.16000
Viscosity [cp]  :	       0.89000
Refractive Index:	       1.33200
Wavelength [nm] :	       0.00000
Angle [°]       :	       0.00000
Duration [s]    :	         1
FloatDur [ms]   :	          944
Stop TP [ms]   :	      3577
Runs            :	         1
Mode            :	"A-CH0+1  A-CH2+3 "
MeanCR0 [kHz]   :	     106.29866
MeanCR1 [kHz]   :	     103.65804
MeanCR2 [kHz]   :	     104.05116
MeanCR3 [kHz]   :	     102.90358

"Correlation"
  3.12500E-006	 -1.00000E+000	 -1.00000E+000	 -1.00000E+000	 -1.00000E+000
  6.25000E-006	 -1.00000E+000	 -1.00000E+000	 -1.00000E+000	 -1.00000E+000
  9.37500E-006	 -1.00000E+000	 -1.00000E+000	 -1.00000E+000	 -1.00000E+000
  1.25000E-005	 -1.00000E+000	 -1.00000E+000	 -1.00000E+000	 -1.00000E+000
  1.56250E-005	 -1.00000E+000	 -1.00000E+000	 -1.00000E+000	 -1.00000E+000
  1.87500E-005	 -1.00000E+000	 -1.00000E+000	 -1.00000E+000	 -1.00000E+000
  2.18750E-005	 -9.09973E-001	 -4.31966E-001	 -1.85695E-001	 -9.67978E-001
  2.50000E-005	  5.99210E+000	  6.19509E+000	  6.36006E+000	  1.33139E+001
  2.81250E-005	  2.06092E+000	  1.05123E+000	  1.53687E+000	  4.98815E+000
  3.12500E-005	  1.04061E+000	  3.56969E-001	  3.78054E-001	  2.58649E+000
  3.43750E-005	  9.80596E-001	  6.09429E-001	  1.00444E+000	  2.87469E+000
  3.75000E-005	  9.80596E-001	  3.25412E-001	  8.47845E-001	  1.84998E+000
  4.06250E-005	  4.70443E-001	  2.30740E-001	  8.16526E-001	  1.62582E+000
  4.37500E-005	  5.30461E-001	  5.46314E-001	  5.34651E-001	  1.14549E+000
  4.68750E-005	  7.40524E-001	  4.20084E-001	  6.91248E-001	  1.43369E+000
  5.00000E-005	  7.25519E-001	  6.25207E-001	  6.12950E-001	  1.19352E+000
  5.62500E-005	  5.60470E-001	  5.30535E-001	  6.75589E-001	  1.40166E+000
  6.25000E-005	  6.35492E-001	  6.88322E-001	  8.47845E-001	  9.21331E-001
  6.87500E-005	  6.65501E-001	  4.04305E-001	  5.81630E-001	  8.25265E-001
  7.50000E-005	  6.50497E-001	  3.88527E-001	  5.18992E-001	  9.21331E-001
  8.12500E-005	  4.10424E-001	  5.62092E-001	  3.46735E-001	  8.09254E-001
  8.75000E-005	  6.80506E-001	  3.25412E-001	  4.72012E-001	  6.65154E-001
  9.37500E-005	  4.40433E-001	  6.56765E-001	  4.87672E-001	  6.65154E-001
  1.00000E-004	  3.05393E-001	  4.51641E-001	  5.26821E-001	  6.65154E-001
  1.12500E-004	  3.80415E-001	  4.12194E-001	  6.05120E-001	  6.33132E-001
  1.25000E-004	  6.27990E-001	  3.64858E-001	  5.97290E-001	  4.73021E-001
  1.37500E-004	  3.95420E-001	  4.67420E-001	  5.65970E-001	  5.77093E-001
  1.50000E-004	  6.05483E-001	  4.43752E-001	  5.11162E-001	  4.49004E-001
  1.62500E-004	  3.57908E-001	  6.56765E-001	  5.42481E-001	  4.00971E-001
  1.75000E-004	  3.65411E-001	  4.83199E-001	  4.64182E-001	  5.77093E-001
  1.87500E-004	  4.25429E-001	  6.17318E-001	  6.28609E-001	  4.81026E-001
  2.00000E-004	  4.02922E-001	  5.97594E-001	  5.22906E-001	  3.92965E-001
  2.25000E-004	  3.91668E-001	  4.98977E-001	  3.78054E-001	  4.57009E-001
  2.50000E-004	  5.45465E-001	  4.95032E-001	  4.28948E-001	  5.53076E-001
  2.75000E-004	  4.66691E-001	  3.84581E-001	  6.36439E-001	  3.40929E-001
  3.00000E-004	  4.47935E-001	  5.10811E-001	  5.22906E-001	  5.09045E-001
  3.25000E-004	  2.60379E-001	  5.62092E-001	  4.75927E-001	  5.13048E-001
  3.50000E-004	  6.12985E-001	  5.02922E-001	  3.62394E-001	  4.24987E-001
  3.75000E-004	  4.66691E-001	  4.98977E-001	  2.99755E-001	  3.48934E-001
  4.00000E-004	  4.42308E-001	  4.79253E-001	  4.19160E-001	  3.96967E-001
  4.50000E-004	  4.96684E-001	  5.08838E-001	  3.99585E-001	  4.85028E-001
  5.00000E-004	  4.61049E-001	  5.10810E-001	  4.68096E-001	  4.83027E-001
  5.50000E-004	  5.15440E-001	  5.04893E-001	  5.15075E-001	  5.23054E-001
  6.00000E-004	  4.21663E-001	  4.16138E-001	  4.26990E-001	  5.05042E-001
  6.50000E-004	  3.37263E-001	  4.75308E-001	  4.77884E-001	  4.14979E-001
  7.00000E-004	  4.72302E-001	  4.73336E-001	  5.11161E-001	  3.96967E-001
  7.50000E-004	  3.93529E-001	  4.81225E-001	  5.15075E-001	  4.10977E-001
  8.00000E-004	  3.36337E-001	  4.83196E-001	  4.55372E-001	  3.57939E-001
  9.00000E-004	  4.85445E-001	  4.67418E-001	  4.03499E-001	  4.40996E-001
  1.00000E-003	  4.93885E-001	  4.58542E-001	  4.94521E-001	  4.14978E-001
  1.10000E-003	  5.06076E-001	  4.65445E-001	  4.26988E-001	  4.76020E-001
  1.20000E-003	  4.46058E-001	  4.55584E-001	  4.94521E-001	  4.73018E-001
  1.30000E-003	  4.41355E-001	  3.85566E-001	  4.75925E-001	  4.12977E-001
  1.40000E-003	  4.31977E-001	  4.39805E-001	  5.04308E-001	  3.81955E-001
  1.50000E-003	  4.88243E-001	  5.00948E-001	  5.26819E-001	  4.35993E-001
  1.60000E-003	  4.27769E-001	  5.55677E-001	  4.75433E-001	  4.52016E-001
  1.80000E-003	  4.33395E-001	  4.39310E-001	  4.73476E-001	  4.44026E-001
  2.00000E-003	  4.69031E-001	  4.81715E-001	  4.79348E-001	  4.48529E-001
  2.20000E-003	  3.88382E-001	  4.83194E-001	  4.76412E-001	  4.21510E-001
  2.40000E-003	  4.47931E-001	  4.66429E-001	  4.97454E-001	  4.65541E-001
  2.60000E-003	  4.44649E-001	  4.40789E-001	  4.41667E-001	  4.15505E-001
  2.80000E-003	  4.78878E-001	  4.89604E-001	  4.49497E-001	  4.46527E-001
  3.00000E-003	  4.68547E-001	  4.21559E-001	  4.30901E-001	  4.28515E-001
  3.20000E-003	  4.59414E-001	  4.36839E-001	  4.63209E-001	  4.33028E-001
  3.60000E-003	  4.62227E-001	  4.82696E-001	  4.84741E-001	  4.23271E-001
  4.00000E-003	  4.49802E-001	  4.15637E-001	  4.63943E-001	  4.42270E-001
  4.40000E-003	  4.34094E-001	  4.76039E-001	  4.66145E-001	  4.35515E-001
  4.80000E-003	  4.11822E-001	  4.37086E-001	  4.68103E-001	  4.36766E-001
  5.20000E-003	  4.31515E-001	  4.37825E-001	  4.31400E-001	  4.36265E-001
  5.60000E-003	  4.84968E-001	  4.67410E-001	  4.50241E-001	  4.29260E-001
  6.00000E-003	  4.51912E-001	  4.89106E-001	  4.62720E-001	  4.44271E-001
  6.40000E-003	  4.31857E-001	  4.56676E-001	  4.55399E-001	  4.31936E-001
  7.20000E-003	  4.38656E-001	  4.46321E-001	  4.47936E-001	  4.36565E-001
  8.00000E-003	  4.53543E-001	  4.58525E-001	  4.28346E-001	  4.26808E-001
  8.80000E-003	  4.40648E-001	  4.65428E-001	  4.43517E-001	  4.17050E-001
  9.60000E-003	  4.40883E-001	  4.75290E-001	  4.65905E-001	  4.29935E-001
  1.04000E-002	  4.21570E-001	  4.47677E-001	  4.62847E-001	  4.45432E-001
  1.12000E-002	  4.50407E-001	  4.37939E-001	  4.53671E-001	  4.28044E-001
  1.20000E-002	  4.34230E-001	  4.20805E-001	  4.54405E-001	  4.26293E-001
  1.28000E-002	  4.36789E-001	  4.45069E-001	  4.41599E-001	  4.42657E-001
  1.44000E-002	  4.30694E-001	  4.59814E-001	  4.45988E-001	  4.17358E-001
  1.60000E-002	  4.33390E-001	  4.48782E-001	  4.48252E-001	  4.16733E-001
  1.76000E-002	  4.30283E-001	  4.53713E-001	  4.54675E-001	  4.19985E-001
  1.92000E-002	  4.15572E-001	  4.39598E-001	  4.49245E-001	  4.33808E-001
  2.08000E-002	  4.23602E-001	  4.42742E-001	  4.29303E-001	  4.18172E-001
  2.24000E-002	  4.16217E-001	  4.35099E-001	  4.59277E-001	  4.17421E-001
  2.40000E-002	  4.22781E-001	  4.42680E-001	  4.31199E-001	  4.07024E-001
  2.56000E-002	  4.19107E-001	  4.36583E-001	  4.34732E-001	  4.01756E-001
  2.88000E-002	  4.10198E-001	  4.41960E-001	  4.35481E-001	  4.09700E-001
  3.20000E-002	  4.24968E-001	  4.28585E-001	  4.51862E-001	  4.08793E-001
  3.52000E-002	  4.00937E-001	  4.24517E-001	  4.18506E-001	  4.09919E-001
  3.84000E-002	  4.12513E-001	  4.34656E-001	  4.26167E-001	  4.05665E-001
  4.16000E-002	  4.05450E-001	  4.30866E-001	  4.18658E-001	  3.83714E-001
  4.48000E-002	  4.12513E-001	  4.15149E-001	  4.20784E-001	  4.05887E-001
  4.80000E-002	  4.03956E-001	  4.18385E-001	  4.14835E-001	  3.82619E-001
  5.12000E-002	  3.94684E-001	  4.10738E-001	  4.06833E-001	  3.90095E-001
  5.76000E-002	  4.05879E-001	  4.14158E-001	  4.07750E-001	  3.87470E-001
  6.40000E-002	  3.96574E-001	  4.05052E-001	  4.04658E-001	  3.89598E-001
  7.04000E-002	  3.79430E-001	  4.07858E-001	  4.04399E-001	  3.76932E-001
  7.68000E-002	  3.85320E-001	  3.97828E-001	  4.01278E-001	  3.85752E-001
  8.32000E-002	  3.82681E-001	  3.90739E-001	  3.90357E-001	  3.74178E-001
  8.96000E-002	  3.87004E-001	  3.85315E-001	  3.87695E-001	  3.73600E-001
  9.60000E-002	  3.70971E-001	  3.87441E-001	  3.90081E-001	  3.69959E-001
  1.02400E-001	  3.74690E-001	  3.84629E-001	  3.83147E-001	  3.56734E-001
  1.15200E-001	  3.59592E-001	  3.79148E-001	  3.76255E-001	  3.49778E-001
  1.28000E-001	  3.54843E-001	  3.68355E-001	  3.67499E-001	  3.45493E-001
  1.40800E-001	  3.52755E-001	  3.54501E-001	  3.64884E-001	  3.36765E-001
  1.53600E-001	  3.41193E-001	  3.56055E-001	  3.46306E-001	  3.37464E-001
  1.66400E-001	  3.37223E-001	  3.44559E-001	  3.49060E-001	  3.26180E-001
  1.79200E-001	  3.30007E-001	  3.38011E-001	  3.42526E-001	  3.23138E-001
  1.92000E-001	  3.24870E-001	  3.32834E-001	  3.36897E-001	  3.12669E-001
  2.04800E-001	  3.19231E-001	  3.22888E-001	  3.31339E-001	  3.05017E-001
  2.30400E-001	  3.10840E-001	  3.12017E-001	  3.13757E-001	  2.90081E-001
  2.56000E-001	  2.95421E-001	  2.99336E-001	  3.03392E-001	  2.77771E-001
  2.81600E-001	  2.85286E-001	  2.84262E-001	  2.91058E-001	  2.66273E-001
  3.07200E-001	  2.69163E-001	  2.72564E-001	  2.78475E-001	  2.51446E-001
  3.32800E-001	  2.63276E-001	  2.58143E-001	  2.64918E-001	  2.42129E-001
  3.58400E-001	  2.50674E-001	  2.48835E-001	  2.55607E-001	  2.34226E-001
  3.84000E-001	  2.41499E-001	  2.38638E-001	  2.40836E-001	  2.21621E-001
  4.09600E-001	  2.34222E-001	  2.25034E-001	  2.31230E-001	  2.10845E-001
  4.60800E-001	  2.11448E-001	  2.04401E-001	  2.09148E-001	  1.91090E-001
  5.12000E-001	  1.95088E-001	  1.84988E-001	  1.92025E-001	  1.71981E-001
  5.63200E-001	  1.80137E-001	  1.63124E-001	  1.69935E-001	  1.56355E-001
  6.14400E-001	  1.63755E-001	  1.50171E-001	  1.55390E-001	  1.39581E-001
  6.65600E-001	  1.45259E-001	  1.29234E-001	  1.38249E-001	  1.22568E-001
  7.16800E-001	  1.29207E-001	  1.19338E-001	  1.25599E-001	  1.08249E-001
  7.68000E-001	  1.21133E-001	  1.09494E-001	  1.15374E-001	  9.52594E-002
  8.19200E-001	  1.10485E-001	  1.01094E-001	  1.02883E-001	  8.57495E-002
  9.21600E-001	  9.28400E-002	  8.69590E-002	  8.87084E-002	  6.33965E-002
  1.02400E+000	  7.56580E-002	  7.03973E-002	  6.83828E-002	  5.07442E-002
  1.12640E+000	  6.10465E-002	  6.20619E-002	  5.68707E-002	  3.61614E-002
  1.22880E+000	  5.22271E-002	  5.41947E-002	  4.85345E-002	  2.67157E-002
  1.33120E+000	  4.45326E-002	  5.12737E-002	  3.84658E-002	  2.07708E-002
  1.43360E+000	  3.47907E-002	  5.07461E-002	  3.51775E-002	  1.60885E-002
  1.53600E+000	  2.69554E-002	  4.95851E-002	  2.72500E-002	  1.23041E-002
  1.63840E+000	  2.33990E-002	  4.50899E-002	  2.60290E-002	  1.36588E-002
  1.84320E+000	  1.51780E-002	  3.99121E-002	  2.17249E-002	  1.20427E-002
  2.04800E+000	  7.22896E-003	  3.12009E-002	  1.61911E-002	  1.28232E-002
  2.25280E+000	  3.55821E-003	  1.89114E-002	  1.50373E-002	  8.84096E-003
  2.45760E+000	  2.68062E-003	  1.27698E-002	  8.14318E-003	  7.29060E-003
  2.66240E+000	 -3.33153E-004	  7.24322E-003	  6.04877E-003	  9.49230E-003
  2.86720E+000	 -4.34367E-003	  9.53215E-003	  1.99717E-004	  5.77174E-003
  3.07200E+000	 -3.47315E-003	  6.86097E-003	 -5.82339E-003	  5.62356E-003
  3.27680E+000	 -5.03741E-004	  2.74928E-003	 -9.21725E-003	  4.83912E-003
  3.68640E+000	  2.56135E-003	  7.64262E-003	 -8.69051E-003	 -1.43196E-003
  4.09600E+000	 -9.84679E-004	  1.52049E-003	 -1.14498E-003	 -2.35244E-004
  4.50560E+000	  1.05611E-003	 -9.03174E-003	 -1.05269E-003	 -2.74180E-003
  4.91520E+000	  4.73487E-003	 -2.75478E-003	 -5.63562E-003	 -6.65823E-003
  5.32480E+000	  7.13666E-003	  6.17139E-003	 -5.49019E-003	 -6.39053E-003
  5.73440E+000	  4.49777E-003	  2.39027E-003	  3.23235E-003	 -5.14466E-003
  6.14400E+000	 -3.69289E-004	 -1.07300E-002	  1.24848E-002	 -6.65185E-003
  6.55360E+000	  4.09948E-003	 -1.62250E-002	  1.07320E-002	 -2.05630E-003
  7.37280E+000	 -3.20638E-003	 -1.25028E-004	  7.97996E-003	  1.24023E-002
  8.19200E+000	 -2.93160E-003	  1.03593E-003	 -6.31614E-003	  1.00688E-002
  9.01120E+000	 -7.03527E-003	  7.75207E-003	 -2.11655E-002	  9.14061E-003
  9.83040E+000	 -7.33687E-003	  1.35975E-002	 -8.11081E-003	  9.35116E-003
  1.06496E+001	 -2.13777E-003	  1.04379E-002	 -2.73636E-003	  2.13043E-002
  1.14688E+001	 -1.16305E-002	  2.24592E-002	  6.31490E-003	  6.35642E-003
  1.22880E+001	 -1.38432E-002	  4.56434E-003	  1.68306E-002	  3.16058E-003
  1.31072E+001	 -1.20819E-002	  3.22829E-003	  1.23070E-002	  4.77517E-003
  1.47456E+001	  4.74815E-003	  9.70247E-003	 -1.05613E-002	  1.43762E-002
  1.63840E+001	 -1.13513E-003	  9.15678E-004	  1.50845E-003	  2.60824E-003
  1.80224E+001	 -5.28658E-003	  1.67106E-002	 -1.75323E-002	 -1.54063E-002
  1.96608E+001	  1.10517E-002	  1.67255E-002	 -6.57104E-003	 -9.66737E-003
  2.12992E+001	  1.03227E-002	  9.82146E-003	  8.30106E-003	 -1.34669E-002
  2.29376E+001	 -6.40626E-003	  2.03886E-002	  5.09640E-004	 -1.30402E-004
  2.45760E+001	 -5.53844E-004	  1.37588E-002	  1.63783E-003	 -1.51735E-002
  2.62144E+001	 -7.44016E-003	  2.38072E-002	  1.95811E-003	 -1.30851E-002
  2.94912E+001	  3.57533E-003	 -2.24292E-003	 -1.74526E-003	 -8.42344E-003
  3.27680E+001	 -7.00868E-003	 -1.85565E-003	  9.98331E-003	 -2.57335E-003
  3.60448E+001	  1.41383E-003	 -2.26684E-003	 -1.40925E-002	  3.63527E-003
  3.93216E+001	 -1.15694E-002	 -4.87700E-003	 -4.35931E-003	  2.50170E-003
  4.25984E+001	 -2.34520E-003	  1.25095E-002	  8.44409E-003	  1.39334E-003
  4.58752E+001	 -1.01319E-002	 -2.69821E-003	  1.39634E-002	  3.20543E-003
  4.91520E+001	 -1.86521E-003	 -6.88276E-003	  1.46291E-003	  9.50941E-004
  5.24288E+001	 -1.19778E-002	  3.03165E-003	  1.46664E-003	  2.54664E-003
  5.89824E+001	 -4.35813E-003	 -6.00224E-003	 -5.09086E-003	  6.00747E-003
  6.55360E+001	 -5.86583E-003	  2.68373E-003	 -3.68054E-003	  2.61054E-003
  7.20896E+001	 -4.64854E-003	 -3.31871E-003	 -2.56398E-003	 -8.51622E-003
  7.86432E+001	 -6.04328E-003	  1.59830E-003	 -1.98661E-005	 -4.25055E-004
  8.51968E+001	 -3.59644E-004	  4.34417E-004	 -7.32674E-003	 -5.83690E-003
  9.17504E+001	 -2.26071E-003	  8.37751E-003	  1.29073E-003	  1.32479E-003
  9.83040E+001	 -6.65661E-003	 -1.24870E-003	  1.04364E-003	  9.32476E-003
  1.04858E+002	 -1.34656E-002	 -8.53528E-003	 -6.40161E-003	  1.54341E-003
  1.17965E+002	  2.60893E-003	 -1.27595E-002	 -4.32108E-003	 -2.76822E-003
  1.31072E+002	  2.42675E-003	 -1.87938E-003	 -2.45588E-003	 -7.76506E-004
  1.44179E+002	  8.57417E-003	 -4.02923E-003	 -1.10843E-002	 -3.22977E-003
  1.57286E+002	  3.88921E-003	 -3.13127E-003	  4.98813E-003	 -2.50861E-004
  1.70394E+002	  3.84446E-004	  1.12991E-002	  5.18410E-003	 -1.13569E-003
  1.83501E+002	  1.53445E-003	  5.58378E-003	 -2.71208E-003	 -4.17917E-003
  1.96608E+002	 -9.57039E-003	  9.40113E-004	 -5.77394E-004	 -7.46176E-003
  2.09715E+002	 -7.60255E-003	  4.03272E-003	  3.41375E-003	 -4.55761E-003
  2.35930E+002	 -1.43523E-003	  2.74257E-003	 -2.13131E-003	  3.77541E-003
  2.62144E+002	  1.74963E-003	 -2.61914E-003	  7.15151E-004	 -3.97643E-003
  2.88358E+002	  3.85112E-003	 -7.17048E-003	 -4.88851E-003	  6.88784E-003
  3.14573E+002	  2.54867E-003	  1.44999E-003	 -7.69435E-004	 -1.10257E-003
  3.40787E+002	  5.14088E-004	 -4.97588E-003	  2.09300E-003	  1.31981E-003
  3.67002E+002	 -6.25674E-003	 -8.74822E-003	  6.69194E-003	 -1.75899E-003
  3.93216E+002	  2.65765E-003	 -2.05507E-003	 -2.45749E-004	  3.18262E-003

"Count Rate"
       0.01311	     103.53088	      98.19031	      90.10315	     107.26929
       0.02621	     108.71887	     113.60168	      78.73535	     100.40283
       0.03932	     121.53625	     120.46814	      94.29932	     133.05664
       0.05243	     107.72705	      75.37842	     123.59619	     100.02136
       0.06554	      94.83337	      78.20129	     141.75415	      94.52820
       0.07864	     116.34827	      85.37292	      76.82800	     177.45972
       0.09175	      64.39209	      90.25574	     101.08948	     120.23926
       0.10486	     143.89038	     109.71069	     144.27185	      89.03503
       0.11796	      71.25854	      90.48462	     105.89600	     126.26648
       0.13107	     110.47363	     131.83594	      76.14136	     109.40552
       0.14418	     123.59619	      79.49829	     113.90686	      73.39478
       0.15729	     131.60706	      63.70544	      89.72168	      83.16040
       0.17039	     118.33191	     103.83606	      83.99963	     121.84143
       0.18350	      80.94788	      63.32397	      81.25305	      94.75708
       0.19661	      91.24756	     134.04846	     104.82788	     104.29382
       0.20972	      77.36206	     111.31287	      80.33752	      91.62903
       0.22282	     108.71887	     108.64258	     102.76794	     104.44641
       0.23593	     105.51453	      62.86621	     113.83057	      85.75439
       0.24904	      82.77893	      90.78979	      69.19861	      80.71899
       0.26214	      84.38110	      95.59631	     106.43005	      90.17944
       0.27525	      87.96692	     123.21472	     104.21753	     109.63440
       0.28836	     145.56885	     107.26929	      91.47644	      85.06775
       0.30147	     110.85510	     153.19824	     134.81140	      97.65625
       0.31457	     100.78430	      93.15491	     120.77332	      94.83337
       0.32768	      92.62085	     111.38916	      99.10583	      85.29663
       0.34079	     120.77332	      98.80066	      99.41101	     126.64795
       0.35389	     110.77881	     115.35645	     125.04578	     102.31018
       0.36700	      92.23938	      92.08679	      91.78162	      80.41382
       0.38011	     127.86865	     115.89050	      97.80884	      77.20947
       0.39322	      92.92603	     132.44629	     100.70801	      98.26660
       0.40632	      96.58813	     114.97498	     140.99121	     125.35095
       0.41943	      76.44653	      99.02954	     130.46265	     117.56897
       0.43254	     110.93140	     115.81421	     120.39185	     110.62622
       0.44564	     112.68616	     135.19287	     100.47913	      71.48743
       0.45875	     125.96130	     102.38647	     114.21204	     103.98865
       0.47186	      95.21484	     130.08118	     124.66431	     131.68335
       0.48497	     100.55542	     112.83875	     112.83875	      99.41101
       0.49807	      98.26660	      95.06226	      75.30212	      84.60999
       0.51118	      82.62634	      94.68079	     110.39734	     115.89050
       0.52429	      92.84973	     110.62622	      74.84436	      92.54456
       0.53740	      76.52283	      78.88794	      88.04321	      93.91785
       0.55050	     112.99133	      77.66724	      69.73267	      83.84705
       0.56361	      74.53918	      78.43018	      95.59631	     100.25024
       0.57672	     145.72144	      97.73254	     103.75977	      91.47644
       0.58982	      92.54456	     105.97229	     117.87415	     108.56628
       0.60293	     109.86328	     141.22009	     100.25024	      71.64001
       0.61604	     121.99402	     146.02661	     101.92871	      96.05408
       0.62915	     110.62622	     105.51453	     118.86597	     108.10852
       0.64225	      93.99414	     110.77881	     101.62354	     121.53625
       0.65536	      86.66992	     144.50073	      97.96143	      85.22034
       0.66847	     104.90417	     104.59900	     164.26086	      65.84167
       0.68157	      71.33484	      92.62085	      99.63989	      87.66174
       0.69468	      86.89880	     114.21204	      73.92883	     129.69971
       0.70779	     153.19824	      70.03784	      69.80896	     102.15759
       0.72090	     129.24194	      86.21216	      93.91785	     107.04041
       0.73400	     114.36462	      68.89343	      99.79248	     104.29382
       0.74711	     108.87146	      90.25574	     126.26648	     128.02124
