ALV-7004/USB-FAST
Date :	"3/14/2024"
Time :	"12:34:12 PM"
Samplename : 	""
SampMemo(0) : 	""
SampMemo(1) : 	""
SampMemo(2) : 	""
SampMemo(3) : 	""
SampMemo(4) : 	""
SampMemo(5) : 	""
SampMemo(6) : 	""
SampMemo(7) : 	""
SampMemo(8) : 	""
SampMemo(9) : 	""
Temperature [K] :	     298.16000
Viscosity [cp]  :	       0.89000
Refractive Index:	       1.33200
Wavelength [nm] :	       0.00000
Angle [°]       :	       0.00000
Duration [s]    :	         1
FloatDur [ms]   :	          944
Stop TP [ms]   :	      3450
Runs            :	         1
Mode            :	"A-CH0+1  A-CH2+3 "
MeanCR0 [kHz]   :	     118.27151
MeanCR1 [kHz]   :	     109.97348
MeanCR2 [kHz]   :	     106.52966
MeanCR3 [kHz]   :	     107.76944

"Correlation"
  3.12500E-006	 -1.00000E+000	 -1.00000E+000	 -1.00000E+000	 -1.00000E+000
  6.25000E-006	 -1.00000E+000	 -1.00000E+000	 -1.00000E+000	 -1.00000E+000
  9.37500E-006	 -1.00000E+000	 -1.00000E+000	 -1.00000E+000	 -1.00000E+000
  1.25000E-005	 -1.00000E+000	 -1.00000E+000	 -1.00000E+000	 -1.00000E+000
  1.56250E-005	 -1.00000E+000	 -1.00000E+000	 -1.00000E+000	 -1.00000E+000
  1.87500E-005	 -1.00000E+000	 -1.00000E+000	 -1.00000E+000	 -1.00000E+000
  2.18750E-005	 -9.75759E-001	 -4.11223E-001	 -3.42661E-001	 -9.70804E-001
  2.50000E-005	  5.78743E+000	  6.56999E+000	  6.91794E+000	  1.26343E+001
  2.81250E-005	  2.15131E+000	  1.46726E+000	  1.50984E+000	  4.92669E+000
  3.12500E-005	  1.08471E+000	  8.50442E-001	  8.82379E-001	  2.24070E+000
  3.43750E-005	  7.21098E-001	  7.38294E-001	  6.13467E-001	  2.21151E+000
  3.75000E-005	  4.05967E-001	  6.26146E-001	  5.83588E-001	  1.89036E+000
  4.06250E-005	  1.03623E+000	  7.10257E-001	  8.52500E-001	  1.89036E+000
  4.37500E-005	  5.02931E-001	  5.42035E-001	  5.83588E-001	  1.24806E+000
  4.68750E-005	  4.54449E-001	  5.13998E-001	  5.23830E-001	  1.21886E+000
  5.00000E-005	  4.30208E-001	  5.42035E-001	  4.93951E-001	  1.14587E+000
  5.62500E-005	  5.27171E-001	  6.54183E-001	  7.03104E-001	  1.30645E+000
  6.25000E-005	  6.24135E-001	  5.56054E-001	  7.18044E-001	  1.45242E+000
  6.87500E-005	  5.63533E-001	  5.84091E-001	  5.53709E-001	  9.56100E-001
  7.50000E-005	  7.45339E-001	  5.98109E-001	  4.93951E-001	  9.56100E-001
  8.12500E-005	  5.75653E-001	  5.13998E-001	  4.34193E-001	  1.23346E+000
  8.75000E-005	  5.51412E-001	  6.26146E-001	  2.69859E-001	  8.39318E-001
  9.37500E-005	  7.69580E-001	  4.15869E-001	  3.89375E-001	  7.37134E-001
  1.00000E-004	  5.63532E-001	  3.38767E-001	  4.64072E-001	  8.46617E-001
  1.12500E-004	  5.39292E-001	  5.77081E-001	  6.20937E-001	  7.73628E-001
  1.25000E-004	  3.93847E-001	  4.15868E-001	  4.49133E-001	  4.74374E-001
  1.37500E-004	  3.63546E-001	  4.22878E-001	  4.19254E-001	  5.61960E-001
  1.50000E-004	  6.42315E-001	  3.31757E-001	  7.03104E-001	  8.17421E-001
  1.62500E-004	  4.78690E-001	  5.70072E-001	  5.61179E-001	  6.49547E-001
  1.75000E-004	  3.02944E-001	  5.35026E-001	  3.22147E-001	  4.08684E-001
  1.87500E-004	  3.63546E-001	  5.13998E-001	  5.76118E-001	  4.96270E-001
  2.00000E-004	  4.05967E-001	  4.29887E-001	  5.27565E-001	  6.05753E-001
  2.25000E-004	  4.81719E-001	  3.24748E-001	  4.45397E-001	  4.48827E-001
  2.50000E-004	  5.15050E-001	  3.77317E-001	  4.75276E-001	  6.27650E-001
  2.75000E-004	  4.36268E-001	  4.57924E-001	  5.05155E-001	  5.21816E-001
  3.00000E-004	  4.87780E-001	  4.19373E-001	  4.82746E-001	  5.25466E-001
  3.25000E-004	  3.66576E-001	  4.43905E-001	  5.49974E-001	  4.63425E-001
  3.50000E-004	  5.24141E-001	  5.56053E-001	  5.20095E-001	  5.47362E-001
  3.75000E-004	  5.12020E-001	  4.71942E-001	  4.37928E-001	  5.80207E-001
  4.00000E-004	  4.74144E-001	  4.84208E-001	  3.94976E-001	  5.21816E-001
  4.50000E-004	  4.84749E-001	  4.35143E-001	  4.41662E-001	  5.27290E-001
  5.00000E-004	  5.46866E-001	  4.61428E-001	  4.93950E-001	  4.72548E-001
  5.50000E-004	  4.75659E-001	  4.26381E-001	  4.77143E-001	  5.83856E-001
  6.00000E-004	  4.75659E-001	  4.17620E-001	  4.47264E-001	  5.58310E-001
  6.50000E-004	  4.28692E-001	  4.08858E-001	  4.28590E-001	  4.74373E-001
  7.00000E-004	  4.65053E-001	  3.84326E-001	  4.49132E-001	  4.14157E-001
  7.50000E-004	  5.30200E-001	  4.01849E-001	  4.71541E-001	  6.75092E-001
  8.00000E-004	  4.80960E-001	  4.47408E-001	  4.79943E-001	  5.61958E-001
  9.00000E-004	  4.83233E-001	  4.51789E-001	  5.09822E-001	  5.87504E-001
  1.00000E-003	  4.35509E-001	  4.48284E-001	  5.02352E-001	  5.31850E-001
  1.10000E-003	  4.48386E-001	  4.21999E-001	  5.25695E-001	  4.42439E-001
  1.20000E-003	  5.25654E-001	  4.66683E-001	  4.18318E-001	  4.91706E-001
  1.30000E-003	  4.20358E-001	  4.22875E-001	  4.75275E-001	  4.99932E-001
  1.40000E-003	  4.56719E-001	  4.24628E-001	  4.77142E-001	  5.20005E-001
  1.50000E-003	  4.27933E-001	  4.92092E-001	  4.16450E-001	  4.91721E-001
  1.60000E-003	  4.43081E-001	  4.70185E-001	  4.62667E-001	  5.22739E-001
  1.80000E-003	  4.81728E-001	  4.04036E-001	  4.40725E-001	  5.15440E-001
  2.00000E-003	  4.59381E-001	  4.78071E-001	  4.56598E-001	  4.84420E-001
  2.20000E-003	  4.64684E-001	  4.72814E-001	  4.73405E-001	  5.51022E-001
  2.40000E-003	  4.52563E-001	  4.45215E-001	  4.50995E-001	  5.73832E-001
  2.60000E-003	  5.00288E-001	  4.81137E-001	  4.49128E-001	  5.26389E-001
  2.80000E-003	  4.36655E-001	  4.52224E-001	  5.10753E-001	  5.12247E-001
  3.00000E-003	  4.46124E-001	  4.70623E-001	  5.08419E-001	  5.22739E-001
  3.20000E-003	  4.49718E-001	  4.43239E-001	  4.91374E-001	  5.13169E-001
  3.60000E-003	  4.37787E-001	  4.24402E-001	  4.45155E-001	  5.16590E-001
  4.00000E-003	  4.69982E-001	  4.64923E-001	  4.55659E-001	  5.31188E-001
  4.40000E-003	  4.63732E-001	  4.54205E-001	  5.00010E-001	  5.34382E-001
  4.80000E-003	  4.79072E-001	  4.48729E-001	  4.77368E-001	  5.00168E-001
  5.20000E-003	  4.47647E-001	  4.19158E-001	  4.26247E-001	  5.20696E-001
  5.60000E-003	  4.75866E-001	  4.56395E-001	  4.38852E-001	  4.91956E-001
  6.00000E-003	  4.63366E-001	  3.90683E-001	  4.80869E-001	  5.22521E-001
  6.40000E-003	  4.52398E-001	  4.30662E-001	  4.77124E-001	  5.18306E-001
  7.20000E-003	  4.59595E-001	  4.12701E-001	  4.59151E-001	  5.07585E-001
  8.00000E-003	  4.75125E-001	  4.41066E-001	  4.47363E-001	  4.80556E-001
  8.80000E-003	  4.69727E-001	  4.31319E-001	  4.76891E-001	  5.05646E-001
  9.60000E-003	  4.54671E-001	  4.13577E-001	  4.50514E-001	  4.93999E-001
  1.04000E-002	  4.61962E-001	  4.31319E-001	  4.70472E-001	  5.20001E-001
  1.12000E-002	  4.54955E-001	  4.10743E-001	  4.61952E-001	  4.86586E-001
  1.20000E-002	  4.56565E-001	  4.16767E-001	  4.44211E-001	  4.96166E-001
  1.28000E-002	  4.52951E-001	  4.27275E-001	  4.56913E-001	  5.05884E-001
  1.44000E-002	  4.43719E-001	  4.17733E-001	  4.50786E-001	  5.08564E-001
  1.60000E-002	  4.40013E-001	  4.16761E-001	  4.40632E-001	  5.03546E-001
  1.76000E-002	  4.35540E-001	  4.17308E-001	  4.47868E-001	  4.89119E-001
  1.92000E-002	  4.42156E-001	  4.11462E-001	  4.46059E-001	  4.95277E-001
  2.08000E-002	  4.41162E-001	  4.20827E-001	  4.40574E-001	  4.95734E-001
  2.24000E-002	  4.45234E-001	  4.05055E-001	  4.52945E-001	  4.78726E-001
  2.40000E-002	  4.39031E-001	  4.08451E-001	  4.50144E-001	  4.90088E-001
  2.56000E-002	  4.33887E-001	  4.09055E-001	  4.49564E-001	  4.95682E-001
  2.88000E-002	  4.22521E-001	  4.00868E-001	  4.31853E-001	  4.92160E-001
  3.20000E-002	  4.28582E-001	  3.96568E-001	  4.38127E-001	  4.79801E-001
  3.52000E-002	  4.29032E-001	  4.01114E-001	  4.34654E-001	  4.78432E-001
  3.84000E-002	  4.14709E-001	  3.93749E-001	  4.31503E-001	  4.81454E-001
  4.16000E-002	  4.15987E-001	  3.97336E-001	  4.23683E-001	  4.67654E-001
  4.48000E-002	  4.13228E-001	  3.91215E-001	  4.22487E-001	  4.59798E-001
  4.80000E-002	  4.06860E-001	  3.84671E-001	  4.27798E-001	  4.69735E-001
  5.12000E-002	  4.16976E-001	  3.84029E-001	  4.15989E-001	  4.57297E-001
  5.76000E-002	  4.07601E-001	  3.80291E-001	  4.24845E-001	  4.59207E-001
  6.40000E-002	  4.01290E-001	  3.68775E-001	  4.09775E-001	  4.53532E-001
  7.04000E-002	  4.01597E-001	  3.71746E-001	  3.98775E-001	  4.38747E-001
  7.68000E-002	  3.96425E-001	  3.61792E-001	  4.02714E-001	  4.43723E-001
  8.32000E-002	  3.87700E-001	  3.66871E-001	  3.97491E-001	  4.30022E-001
  8.96000E-002	  3.82658E-001	  3.55957E-001	  3.92939E-001	  4.32061E-001
  9.60000E-002	  3.82409E-001	  3.47399E-001	  3.85440E-001	  4.31162E-001
  1.02400E-001	  3.79047E-001	  3.44705E-001	  3.77223E-001	  4.22667E-001
  1.15200E-001	  3.70168E-001	  3.38157E-001	  3.73700E-001	  4.13334E-001
  1.28000E-001	  3.64071E-001	  3.27750E-001	  3.66020E-001	  4.10389E-001
  1.40800E-001	  3.57873E-001	  3.25947E-001	  3.58055E-001	  3.93912E-001
  1.53600E-001	  3.43861E-001	  3.15681E-001	  3.47538E-001	  3.87769E-001
  1.66400E-001	  3.40599E-001	  3.09422E-001	  3.42434E-001	  3.72739E-001
  1.79200E-001	  3.35815E-001	  3.00259E-001	  3.34711E-001	  3.71336E-001
  1.92000E-001	  3.28208E-001	  2.95625E-001	  3.30692E-001	  3.66111E-001
  2.04800E-001	  3.24480E-001	  2.89719E-001	  3.24257E-001	  3.55108E-001
  2.30400E-001	  3.11847E-001	  2.81511E-001	  3.09575E-001	  3.45626E-001
  2.56000E-001	  3.02314E-001	  2.71010E-001	  2.97026E-001	  3.26299E-001
  2.81600E-001	  2.86872E-001	  2.56643E-001	  2.82753E-001	  3.17234E-001
  3.07200E-001	  2.78490E-001	  2.46420E-001	  2.71983E-001	  3.07067E-001
  3.32800E-001	  2.64703E-001	  2.37902E-001	  2.66086E-001	  2.88965E-001
  3.58400E-001	  2.56912E-001	  2.25948E-001	  2.48237E-001	  2.78861E-001
  3.84000E-001	  2.48495E-001	  2.15225E-001	  2.41998E-001	  2.68526E-001
  4.09600E-001	  2.41981E-001	  2.08769E-001	  2.28995E-001	  2.63352E-001
  4.60800E-001	  2.22247E-001	  1.93304E-001	  2.13140E-001	  2.42430E-001
  5.12000E-001	  2.03242E-001	  1.77178E-001	  1.98456E-001	  2.24404E-001
  5.63200E-001	  1.83930E-001	  1.63661E-001	  1.85098E-001	  2.06676E-001
  6.14400E-001	  1.72383E-001	  1.50630E-001	  1.71281E-001	  1.89990E-001
  6.65600E-001	  1.60184E-001	  1.40979E-001	  1.58385E-001	  1.77835E-001
  7.16800E-001	  1.42969E-001	  1.29243E-001	  1.43567E-001	  1.61408E-001
  7.68000E-001	  1.31805E-001	  1.20353E-001	  1.29028E-001	  1.53447E-001
  8.19200E-001	  1.20282E-001	  1.11794E-001	  1.14883E-001	  1.43728E-001
  9.21600E-001	  1.02700E-001	  9.32207E-002	  9.58138E-002	  1.23177E-001
  1.02400E+000	  8.19464E-002	  7.51430E-002	  7.64386E-002	  1.05470E-001
  1.12640E+000	  6.62582E-002	  6.00959E-002	  6.49649E-002	  8.81491E-002
  1.22880E+000	  5.59545E-002	  4.97036E-002	  5.40386E-002	  7.85472E-002
  1.33120E+000	  4.43084E-002	  3.95393E-002	  4.39309E-002	  6.82313E-002
  1.43360E+000	  3.65230E-002	  3.70362E-002	  3.52717E-002	  5.49833E-002
  1.53600E+000	  2.78607E-002	  3.28339E-002	  2.49032E-002	  4.70761E-002
  1.63840E+000	  1.88885E-002	  2.88262E-002	  1.95636E-002	  4.21217E-002
  1.84320E+000	  1.45884E-002	  1.69498E-002	  1.39097E-002	  4.01828E-002
  2.04800E+000	  1.21374E-002	  8.23852E-003	  1.10204E-002	  3.52261E-002
  2.25280E+000	  8.69422E-003	  3.93766E-003	  4.62992E-003	  3.00371E-002
  2.45760E+000	  4.38209E-003	  1.10559E-003	  4.17739E-003	  2.95857E-002
  2.66240E+000	 -2.52138E-003	  3.76765E-003	  6.14087E-003	  3.41188E-002
  2.86720E+000	 -1.56729E-003	  6.26073E-003	  5.14509E-003	  3.38115E-002
  3.07200E+000	  2.61672E-003	  7.45121E-003	  5.01602E-003	  3.53791E-002
  3.27680E+000	  9.15944E-004	  6.57011E-003	  1.12173E-003	  3.49533E-002
  3.68640E+000	 -7.52201E-004	  6.83052E-003	 -1.81064E-003	  2.91304E-002
  4.09600E+000	  7.45961E-004	  3.02113E-003	 -6.96179E-004	  3.12016E-002
  4.50560E+000	 -4.18273E-003	 -7.14324E-003	 -5.82867E-003	  3.16668E-002
  4.91520E+000	 -1.12817E-002	 -1.09960E-002	 -1.70363E-002	  2.83213E-002
  5.32480E+000	 -8.99646E-003	 -1.29067E-002	 -2.54338E-002	  1.64310E-002
  5.73440E+000	 -9.41270E-003	 -9.48474E-003	 -1.85003E-002	 -6.26145E-004
  6.14400E+000	 -3.87457E-003	 -7.34501E-003	 -1.60106E-002	 -7.57104E-003
  6.55360E+000	 -4.21466E-003	 -2.12460E-003	 -1.14989E-002	 -1.08192E-002
  7.37280E+000	 -5.81210E-004	  1.70654E-003	 -5.21300E-003	  8.51869E-004
  8.19200E+000	 -7.89577E-003	  1.69482E-003	 -9.61185E-003	  2.15064E-003
  9.01120E+000	 -6.90150E-004	 -1.06138E-004	 -1.13273E-002	  3.37100E-003
  9.83040E+000	 -4.99790E-003	 -1.57389E-003	  7.45885E-003	 -1.07779E-003
  1.06496E+001	 -2.19708E-003	 -1.13231E-002	  1.09502E-002	 -1.08503E-002
  1.14688E+001	  1.44978E-002	 -1.04169E-002	  1.03893E-002	 -7.17769E-003
  1.22880E+001	  1.53453E-002	 -1.55297E-002	  9.33981E-003	 -1.78460E-003
  1.31072E+001	  1.24782E-002	 -9.61347E-003	  8.04272E-003	 -6.19142E-003
  1.47456E+001	 -1.10814E-002	 -1.89573E-003	 -7.98973E-003	  7.53722E-004
  1.63840E+001	  1.98599E-003	 -1.40385E-003	 -1.51050E-002	  2.95208E-002
  1.80224E+001	 -3.34450E-003	 -8.98763E-004	 -2.32638E-003	  1.49857E-002
  1.96608E+001	 -1.03738E-002	 -2.03712E-003	 -9.22652E-003	 -1.49780E-002
  2.12992E+001	  6.32757E-003	 -1.61244E-002	 -1.42938E-003	 -1.32870E-003
  2.29376E+001	 -1.62508E-002	 -2.78871E-003	 -1.17875E-002	 -3.56083E-003
  2.45760E+001	 -1.30032E-002	 -8.54841E-003	 -1.34155E-002	  1.34139E-002
  2.62144E+001	 -8.48519E-003	 -9.13301E-003	 -2.55059E-002	  1.63803E-002
  2.94912E+001	 -3.77345E-003	  1.23286E-002	  8.70765E-003	  1.27888E-002
  3.27680E+001	 -1.27683E-002	  2.13800E-003	  5.64634E-003	  3.13557E-003
  3.60448E+001	 -1.17811E-002	 -8.83043E-003	 -1.85786E-002	  1.10355E-003
  3.93216E+001	 -3.34499E-003	  3.45663E-003	 -8.49579E-003	 -6.83580E-003
  4.25984E+001	  1.16093E-003	  4.04781E-003	  6.92571E-005	  6.43140E-003
  4.58752E+001	 -3.92315E-003	 -4.52793E-003	  9.23324E-003	  6.76826E-003
  4.91520E+001	  1.07460E-002	 -1.43883E-002	  3.54946E-003	  3.57175E-003
  5.24288E+001	  6.32872E-003	 -1.33423E-002	  6.59055E-003	  5.16279E-003
  5.89824E+001	  8.58810E-003	  3.93263E-003	 -6.31231E-004	  1.06412E-002
  6.55360E+001	 -2.94354E-003	  1.25407E-002	  3.86377E-003	  7.19605E-003
  7.20896E+001	  3.37971E-003	  1.38720E-002	  9.13555E-003	 -9.77505E-004
  7.86432E+001	  4.97147E-003	  8.16290E-003	 -5.82648E-003	 -3.47574E-003
  8.51968E+001	  4.72420E-003	  2.07964E-003	 -7.76456E-003	 -6.12059E-003
  9.17504E+001	 -1.62889E-002	 -1.57544E-003	 -8.05525E-003	  2.09549E-004
  9.83040E+001	 -9.93067E-003	 -1.15473E-002	 -1.26591E-002	  9.94744E-004
  1.04858E+002	 -9.43654E-003	  2.34977E-003	 -5.29977E-004	 -3.05032E-003
  1.17965E+002	  3.60587E-003	 -8.61059E-003	 -2.36350E-003	 -4.74695E-003
  1.31072E+002	  1.09647E-002	 -3.79326E-003	 -7.11096E-003	 -6.91798E-003
  1.44179E+002	 -4.58905E-003	  4.36682E-003	  1.07087E-002	 -1.07802E-002
  1.57286E+002	  1.90283E-004	 -2.94207E-003	  3.21492E-003	 -1.63424E-002
  1.70394E+002	 -1.45333E-003	  1.69858E-003	 -4.40021E-003	 -1.02055E-002
  1.83501E+002	 -3.71432E-003	  1.82788E-003	 -6.95391E-003	 -9.61586E-003
  1.96608E+002	  7.72698E-003	 -4.44942E-003	  2.65867E-003	  1.18904E-002
  2.09715E+002	  1.12219E-003	 -7.68724E-003	  1.88581E-003	  1.30443E-002
  2.35930E+002	 -9.82901E-004	  7.87525E-004	 -5.81483E-003	 -1.93163E-004
  2.62144E+002	  2.61395E-003	  1.02455E-003	 -1.55790E-003	  4.50107E-003
  2.88358E+002	 -3.04708E-003	 -6.15552E-003	  2.72528E-003	  2.59449E-004
  3.14573E+002	  4.60686E-003	 -7.48152E-004	  3.19275E-003	  1.69619E-003
  3.40787E+002	  3.14784E-003	 -2.07115E-003	  5.10042E-003	 -1.00746E-002
  3.67002E+002	 -3.55804E-003	 -1.54762E-003	  1.61971E-003	 -2.01436E-002
  3.93216E+002	  6.28248E-004	 -1.57420E-004	 -7.59699E-003	 -1.09218E-002

"Count Rate"
       0.01311	     107.57446	      97.80884	     101.39465	     109.32922
       0.02621	     130.99670	     109.55811	     103.68347	      99.10583
       0.03932	     105.05676	      99.18213	      94.98596	      94.98596
       0.05243	      89.18762	     122.07031	      95.67261	      88.88245
       0.06554	     104.06494	     103.68347	     121.53625	     115.05127
       0.07864	     106.12488	     114.44092	     118.56079	     129.24194
       0.09175	      97.57996	     131.30188	      85.37292	     120.08667
       0.10486	     132.52258	      88.34839	     102.84424	     109.63440
       0.11796	      92.92603	     116.27197	     124.43542	      96.81702
       0.13107	     116.95862	      96.43555	      92.54456	     139.84680
       0.14418	      83.31299	     127.94495	     109.10034	     126.19019
       0.15729	      91.62903	     114.36462	      92.08679	      97.04590
       0.17039	     106.96411	     112.45728	     124.28284	     107.57446
       0.18350	     148.08655	     129.16565	      97.96143	      98.80066
       0.19661	     123.67249	      66.90979	      87.05139	      93.23120
       0.20972	      88.19580	     127.10571	     103.14941	     106.12488
       0.22282	     138.32092	      93.30750	     134.73511	      83.69446
       0.23593	     131.22559	     104.75159	     116.34827	      96.20667
       0.24904	     105.89600	     112.91504	      71.94519	      72.47925
       0.26214	     142.28821	      84.68628	      96.74072	      87.58545
       0.27525	      91.93420	     110.01587	     108.18481	      94.14673
       0.28836	      92.92603	      92.92603	     157.92847	     118.40820
       0.30147	     123.29102	      84.07593	      65.68909	     123.59619
       0.31457	     133.36182	     140.60974	     107.49817	      95.90149
       0.32768	      89.56909	      82.01599	     117.49268	      76.59912
       0.34079	     157.77588	      88.19580	     123.36731	     174.10278
       0.35389	     129.85229	     141.60156	     126.26648	      91.32385
       0.36700	     142.82227	      93.76526	     102.46277	     130.00488
       0.38011	     117.64526	     101.16577	      95.52002	      88.19580
       0.39322	     186.23352	     114.13574	     115.05127	     143.58521
       0.40632	     102.99683	      89.87427	     126.57166	     109.55811
       0.41943	      75.45471	     158.30994	     105.51453	      81.86340
       0.43254	     121.61255	     129.39453	      79.04053	      73.01331
       0.44564	     127.94495	     100.17395	      61.49292	      76.29395
       0.45875	     120.23926	     116.27197	      88.50098	      78.58276
       0.47186	     106.43005	      73.85254	     104.82788	      88.19580
       0.48497	      94.83337	     133.66699	     119.17114	      98.57178
       0.49807	     104.29382	     131.37817	      94.83337	      85.06775
       0.51118	     165.25269	     103.75977	      84.60999	      89.64539
       0.52429	     106.96411	      71.79260	     111.84692	      57.06787
       0.53740	     110.16846	     103.30200	     152.43530	     100.09766
       0.55050	      80.56641	     149.76501	     120.77332	      81.63452
       0.56361	     111.84692	     119.55261	      89.56909	      89.11133
       0.57672	     113.75427	     138.93127	     101.31836	      84.38110
       0.58982	     169.44885	     110.39734	     117.56897	     136.26099
       0.60293	      93.00232	     106.58264	      69.19861	     150.75684
       0.61604	      98.19031	     117.03491	     129.31824	     122.37549
       0.62915	     123.36731	     105.97229	     111.99951	     119.09485
       0.64225	     151.29089	     145.87402	     154.64783	      95.74890
       0.65536	      96.58813	     129.01306	      79.95605	     119.32373
       0.66847	     119.01855	     108.41370	      64.23950	     116.42456
       0.68157	     140.22827	      95.29114	     127.71606	     144.57703
       0.69468	     151.74866	      91.40015	     146.78955	     128.40271
       0.70779	     123.21472	      81.93970	      92.92603	     103.98865
       0.72090	     121.68884	     124.05396	     137.25281	     114.44092
       0.73400	      82.62634	     121.23108	      83.08411	     103.22571
       0.74711	     132.98035	     101.54724	      90.25574	      86.51733
