ALV-7004/USB-FAST
Date :	"3/14/2024"
Time :	"12:34:27 PM"
Samplename : 	""
SampMemo(0) : 	""
SampMemo(1) : 	""
SampMemo(2) : 	""
SampMemo(3) : 	""
SampMemo(4) : 	""
SampMemo(5) : 	""
SampMemo(6) : 	""
SampMemo(7) : 	""
SampMemo(8) : 	""
SampMemo(9) : 	""
Temperature [K] :	     298.16000
Viscosity [cp]  :	       0.89000
Refractive Index:	       1.33200
Wavelength [nm] :	       0.00000
Angle [°]       :	       0.00000
Duration [s]    :	         1
FloatDur [ms]   :	          944
Stop TP [ms]   :	      3537
Runs            :	         1
Mode            :	"A-CH0+1  A-CH2+3 "
MeanCR0 [kHz]   :	     107.59459
MeanCR1 [kHz]   :	     109.67043
MeanCR2 [kHz]   :	     101.27916
MeanCR3 [kHz]   :	     102.56449

"Correlation"
  3.12500E-006	 -1.00000E+000	 -1.00000E+000	 -1.00000E+000	 -1.00000E+000
  6.25000E-006	 -1.00000E+000	 -1.00000E+000	 -1.00000E+000	 -1.00000E+000
  9.37500E-006	 -1.00000E+000	 -1.00000E+000	 -1.00000E+000	 -1.00000E+000
  1.25000E-005	 -1.00000E+000	 -1.00000E+000	 -1.00000E+000	 -1.00000E+000
  1.56250E-005	 -1.00000E+000	 -1.00000E+000	 -1.00000E+000	 -1.00000E+000
  1.87500E-005	 -1.00000E+000	 -1.00000E+000	 -1.00000E+000	 -1.00000E+000
  2.18750E-005	 -8.53548E-001	 -1.82427E-001	 -1.40510E-001	 -9.67766E-001
  2.50000E-005	  6.43978E+000	  6.97838E+000	  6.90070E+000	  1.12489E+001
  2.81250E-005	  2.13408E+000	  1.42453E+000	  1.71070E+000	  4.67317E+000
  3.12500E-005	  8.74591E-001	  1.28357E+000	  9.83438E-001	  1.86882E+000
  3.43750E-005	  9.62463E-001	  4.37801E-001	  8.18152E-001	  1.93329E+000
  3.75000E-005	  9.03882E-001	  1.02984E+000	  1.08261E+000	  1.93329E+000
  4.06250E-005	  6.69558E-001	  4.09608E-001	  7.52037E-001	  1.73989E+000
  4.37500E-005	  6.10977E-001	  6.35146E-001	  7.85094E-001	  1.38531E+000
  4.68750E-005	  7.28139E-001	  7.19722E-001	  9.50381E-001	  1.57872E+000
  5.00000E-005	  6.69558E-001	  7.19722E-001	  9.83438E-001	  1.48201E+000
  5.62500E-005	  4.93815E-001	  8.04299E-001	  7.85094E-001	  1.28861E+000
  6.25000E-005	  6.10977E-001	  5.22377E-001	  7.85094E-001	  9.98504E-001
  6.87500E-005	  5.96332E-001	  4.80089E-001	  5.86750E-001	  9.34037E-001
  7.50000E-005	  6.25622E-001	  7.47914E-001	  4.37993E-001	  1.22414E+000
  8.12500E-005	  3.32717E-001	  7.47914E-001	  6.19808E-001	  8.21218E-001
  8.75000E-005	  5.81686E-001	  6.35146E-001	  6.85922E-001	  6.60048E-001
  9.37500E-005	  2.59491E-001	  3.39128E-001	  5.37165E-001	  5.95580E-001
  1.00000E-004	  5.96331E-001	  5.08281E-001	  3.80142E-001	  6.43931E-001
  1.12500E-004	  4.42556E-001	  3.53224E-001	  4.04935E-001	  7.48691E-001
  1.25000E-004	  3.69330E-001	  6.14001E-001	  5.12371E-001	  6.19755E-001
  1.37500E-004	  4.64524E-001	  4.16656E-001	  6.44601E-001	  5.47229E-001
  1.50000E-004	  6.03654E-001	  5.57617E-001	  5.12371E-001	  5.87521E-001
  1.62500E-004	  5.52396E-001	  5.99905E-001	  4.71050E-001	  4.58586E-001
  1.75000E-004	  3.25394E-001	  2.33407E-001	  4.54521E-001	  4.98878E-001
  1.87500E-004	  5.96331E-001	  6.42193E-001	  4.21464E-001	  5.63346E-001
  2.00000E-004	  4.75508E-001	  4.37800E-001	  4.46256E-001	  5.35141E-001
  2.25000E-004	  4.53540E-001	  4.83612E-001	  4.04935E-001	  3.73971E-001
  2.50000E-004	  5.67041E-001	  5.82285E-001	  6.03279E-001	  5.02907E-001
  2.75000E-004	  5.70702E-001	  5.43521E-001	  7.52036E-001	  4.86790E-001
  3.00000E-004	  5.30427E-001	  3.46175E-001	  5.61957E-001	  3.73971E-001
  3.25000E-004	  4.82830E-001	  3.53224E-001	  5.41296E-001	  6.11697E-001
  3.50000E-004	  3.65669E-001	  3.46175E-001	  3.59481E-001	  4.90819E-001
  3.75000E-004	  5.19444E-001	  4.76564E-001	  4.62785E-001	  3.13533E-001
  4.00000E-004	  4.68185E-001	  4.41323E-001	  5.33031E-001	  5.39170E-001
  4.50000E-004	  4.80999E-001	  4.71278E-001	  5.16503E-001	  4.60599E-001
  5.00000E-004	  4.91983E-001	  5.55854E-001	  4.46256E-001	  5.27082E-001
  5.50000E-004	  4.53539E-001	  4.67754E-001	  4.77247E-001	  5.51257E-001
  6.00000E-004	  4.80999E-001	  5.39996E-001	  5.43362E-001	  4.72687E-001
  6.50000E-004	  3.82144E-001	  4.80088E-001	  5.08238E-001	  4.94848E-001
  7.00000E-004	  4.46217E-001	  5.24138E-001	  4.75181E-001	  4.68658E-001
  7.50000E-004	  4.71846E-001	  5.73474E-001	  5.55758E-001	  3.94117E-001
  8.00000E-004	  4.86490E-001	  4.78324E-001	  4.99973E-001	  4.88803E-001
  9.00000E-004	  3.85804E-001	  4.51013E-001	  4.61750E-001	  5.27081E-001
  1.00000E-003	  3.94042E-001	  5.39995E-001	  5.09270E-001	  4.70671E-001
  1.10000E-003	  4.56284E-001	  4.64228E-001	  4.98940E-001	  5.41183E-001
  1.20000E-003	  4.20586E-001	  4.79205E-001	  5.29931E-001	  5.19022E-001
  1.30000E-003	  4.82829E-001	  4.44846E-001	  5.18567E-001	  4.37430E-001
  1.40000E-003	  4.50792E-001	  4.88015E-001	  5.47492E-001	  5.05927E-001
  1.50000E-003	  3.94042E-001	  4.40441E-001	  4.67948E-001	  4.91825E-001
  1.60000E-003	  4.41636E-001	  4.84077E-001	  4.82925E-001	  4.64121E-001
  1.80000E-003	  4.05023E-001	  4.54563E-001	  4.70529E-001	  4.92326E-001
  2.00000E-003	  4.53993E-001	  5.15794E-001	  4.35922E-001	  4.57574E-001
  2.20000E-003	  4.65893E-001	  4.86720E-001	  4.29207E-001	  4.97866E-001
  2.40000E-003	  4.84199E-001	  4.25049E-001	  5.18048E-001	  4.78224E-001
  2.60000E-003	  4.42552E-001	  5.09627E-001	  5.29412E-001	  4.76209E-001
  2.80000E-003	  4.15550E-001	  4.43991E-001	  4.49868E-001	  5.38158E-001
  3.00000E-003	  4.34771E-001	  5.19318E-001	  4.76727E-001	  4.58077E-001
  3.20000E-003	  4.46437E-001	  4.77479E-001	  4.77755E-001	  4.89803E-001
  3.60000E-003	  4.52158E-001	  4.91355E-001	  5.01256E-001	  4.63865E-001
  4.00000E-003	  4.31119E-001	  4.82985E-001	  4.84986E-001	  4.59332E-001
  4.40000E-003	  4.22195E-001	  4.62267E-001	  4.96866E-001	  4.51777E-001
  4.80000E-003	  4.25399E-001	  4.80768E-001	  4.64584E-001	  4.88795E-001
  5.20000E-003	  4.42561E-001	  4.73500E-001	  4.75172E-001	  4.68649E-001
  5.60000E-003	  4.32721E-001	  4.67993E-001	  5.05130E-001	  4.35912E-001
  6.00000E-003	  4.52172E-001	  4.86715E-001	  4.90668E-001	  4.56310E-001
  6.40000E-003	  4.45869E-001	  4.68548E-001	  4.81877E-001	  4.56944E-001
  7.20000E-003	  4.13947E-001	  4.88371E-001	  4.97243E-001	  4.47894E-001
  8.00000E-003	  4.02963E-001	  4.86940E-001	  4.78520E-001	  4.42102E-001
  8.80000E-003	  4.08799E-001	  4.61390E-001	  4.94790E-001	  4.40717E-001
  9.60000E-003	  4.01362E-001	  4.77028E-001	  4.71547E-001	  4.98008E-001
  1.04000E-002	  4.30194E-001	  4.53461E-001	  4.66898E-001	  4.46131E-001
  1.12000E-002	  4.16465E-001	  4.68204E-001	  4.72580E-001	  4.57589E-001
  1.20000E-002	  4.27105E-001	  4.65781E-001	  4.64445E-001	  4.54315E-001
  1.28000E-002	  4.29946E-001	  4.71420E-001	  4.82453E-001	  4.61893E-001
  1.44000E-002	  4.14457E-001	  4.67400E-001	  4.90201E-001	  4.54919E-001
  1.60000E-002	  4.17432E-001	  4.69273E-001	  4.75868E-001	  4.60805E-001
  1.76000E-002	  3.97080E-001	  4.76541E-001	  4.64957E-001	  4.40972E-001
  1.92000E-002	  4.07720E-001	  4.81442E-001	  4.75287E-001	  4.48527E-001
  2.08000E-002	  4.01370E-001	  4.69658E-001	  4.75028E-001	  4.43694E-001
  2.24000E-002	  3.94862E-001	  4.59691E-001	  4.80338E-001	  4.40483E-001
  2.40000E-002	  4.20277E-001	  4.70649E-001	  4.66844E-001	  4.44639E-001
  2.56000E-002	  4.06652E-001	  4.56199E-001	  4.54321E-001	  4.48558E-001
  2.88000E-002	  4.03203E-001	  4.56282E-001	  4.66912E-001	  4.58270E-001
  3.20000E-002	  3.98211E-001	  4.44305E-001	  4.56258E-001	  4.56477E-001
  3.52000E-002	  4.08951E-001	  4.45379E-001	  4.61505E-001	  4.27577E-001
  3.84000E-002	  3.95850E-001	  4.59875E-001	  4.46655E-001	  4.35874E-001
  4.16000E-002	  4.01327E-001	  4.48724E-001	  4.41683E-001	  4.41776E-001
  4.48000E-002	  3.96707E-001	  4.45723E-001	  4.46864E-001	  4.31875E-001
  4.80000E-002	  3.88840E-001	  4.38812E-001	  4.44765E-001	  4.27955E-001
  5.12000E-002	  3.83113E-001	  4.35596E-001	  4.39248E-001	  4.23029E-001
  5.76000E-002	  3.75403E-001	  4.29897E-001	  4.37909E-001	  4.20258E-001
  6.40000E-002	  3.75431E-001	  4.22985E-001	  4.35249E-001	  4.15504E-001
  7.04000E-002	  3.66190E-001	  4.35775E-001	  4.22140E-001	  4.08719E-001
  7.68000E-002	  3.64142E-001	  4.13926E-001	  4.24417E-001	  4.12467E-001
  8.32000E-002	  3.54957E-001	  4.10787E-001	  4.15942E-001	  4.04944E-001
  8.96000E-002	  3.57216E-001	  4.11545E-001	  4.09986E-001	  4.00633E-001
  9.60000E-002	  3.51408E-001	  4.00627E-001	  4.16733E-001	  3.95296E-001
  1.02400E-001	  3.44132E-001	  4.09887E-001	  4.07200E-001	  3.91861E-001
  1.15200E-001	  3.43722E-001	  4.02142E-001	  4.02691E-001	  3.86695E-001
  1.28000E-001	  3.29788E-001	  3.87655E-001	  3.94880E-001	  3.73397E-001
  1.40800E-001	  3.21349E-001	  3.81686E-001	  3.89248E-001	  3.72984E-001
  1.53600E-001	  3.13280E-001	  3.84771E-001	  3.80502E-001	  3.61137E-001
  1.66400E-001	  3.04353E-001	  3.71586E-001	  3.73573E-001	  3.53989E-001
  1.79200E-001	  3.04265E-001	  3.73920E-001	  3.60507E-001	  3.45286E-001
  1.92000E-001	  2.91654E-001	  3.58959E-001	  3.58520E-001	  3.43961E-001
  2.04800E-001	  2.92625E-001	  3.57595E-001	  3.49334E-001	  3.38868E-001
  2.30400E-001	  2.80254E-001	  3.47324E-001	  3.42838E-001	  3.26379E-001
  2.56000E-001	  2.64030E-001	  3.36312E-001	  3.30869E-001	  3.13433E-001
  2.81600E-001	  2.53330E-001	  3.26892E-001	  3.20154E-001	  3.02949E-001
  3.07200E-001	  2.47472E-001	  3.14585E-001	  3.07294E-001	  2.94044E-001
  3.32800E-001	  2.34211E-001	  3.08743E-001	  2.99194E-001	  2.82446E-001
  3.58400E-001	  2.24322E-001	  2.96049E-001	  2.87914E-001	  2.71996E-001
  3.84000E-001	  2.12286E-001	  2.87092E-001	  2.74716E-001	  2.68482E-001
  4.09600E-001	  2.08511E-001	  2.76179E-001	  2.66515E-001	  2.57942E-001
  4.60800E-001	  1.94660E-001	  2.58177E-001	  2.43349E-001	  2.38301E-001
  5.12000E-001	  1.77787E-001	  2.46402E-001	  2.28775E-001	  2.21645E-001
  5.63200E-001	  1.59078E-001	  2.28471E-001	  2.13735E-001	  2.03033E-001
  6.14400E-001	  1.45433E-001	  2.14325E-001	  1.99359E-001	  1.87467E-001
  6.65600E-001	  1.32074E-001	  2.00799E-001	  1.82629E-001	  1.70342E-001
  7.16800E-001	  1.21894E-001	  1.87631E-001	  1.72532E-001	  1.60487E-001
  7.68000E-001	  1.12292E-001	  1.81370E-001	  1.60053E-001	  1.49526E-001
  8.19200E-001	  1.02161E-001	  1.67972E-001	  1.47902E-001	  1.35437E-001
  9.21600E-001	  8.33712E-002	  1.45764E-001	  1.26273E-001	  1.16822E-001
  1.02400E+000	  6.92979E-002	  1.31273E-001	  1.06698E-001	  1.03034E-001
  1.12640E+000	  5.64530E-002	  1.16195E-001	  9.21153E-002	  9.17367E-002
  1.22880E+000	  4.97544E-002	  1.06019E-001	  8.01962E-002	  8.06963E-002
  1.33120E+000	  4.17788E-002	  9.02900E-002	  6.89007E-002	  7.09279E-002
  1.43360E+000	  3.58580E-002	  8.17383E-002	  5.86892E-002	  6.27820E-002
  1.53600E+000	  2.83456E-002	  7.44614E-002	  5.09937E-002	  5.19946E-002
  1.63840E+000	  2.48466E-002	  6.76887E-002	  4.51230E-002	  4.55302E-002
  1.84320E+000	  1.71939E-002	  5.54095E-002	  3.57117E-002	  3.26796E-002
  2.04800E+000	  1.16156E-002	  4.62181E-002	  3.02368E-002	  2.70414E-002
  2.25280E+000	  1.39531E-002	  4.26952E-002	  2.38862E-002	  1.99813E-002
  2.45760E+000	  1.85317E-002	  4.13463E-002	  2.18202E-002	  1.15481E-002
  2.66240E+000	  1.75560E-002	  3.40610E-002	  1.86246E-002	  2.45914E-003
  2.86720E+000	  1.47311E-002	  2.93272E-002	  1.55788E-002	 -3.92819E-003
  3.07200E+000	  1.30858E-002	  1.82386E-002	  1.42692E-002	 -1.19185E-002
  3.27680E+000	  1.53785E-002	  1.44121E-002	  1.03067E-002	 -1.27734E-002
  3.68640E+000	  6.88863E-003	  1.71772E-002	  3.12764E-003	 -1.45094E-002
  4.09600E+000	  3.14004E-003	  1.61794E-002	 -6.94256E-003	 -1.77613E-002
  4.50560E+000	  5.14056E-003	  1.73064E-002	 -5.30718E-003	 -1.61347E-002
  4.91520E+000	  4.80070E-003	  6.04931E-003	  3.47037E-003	 -1.19550E-002
  5.32480E+000	 -4.53281E-003	  4.01342E-003	  5.83320E-003	 -4.93277E-004
  5.73440E+000	 -1.12867E-002	  1.06347E-002	  8.69216E-003	  4.06612E-004
  6.14400E+000	 -8.13711E-003	  2.17665E-002	 -5.76657E-004	 -5.53727E-004
  6.55360E+000	 -5.63080E-003	  2.93223E-002	 -1.82516E-004	  9.84626E-003
  7.37280E+000	 -7.63586E-003	  3.77225E-002	  1.90182E-002	  2.06168E-002
  8.19200E+000	 -1.72656E-002	  3.64423E-002	  2.46501E-002	  1.82996E-002
  9.01120E+000	 -1.03936E-002	  2.87510E-002	  2.14343E-002	  9.80989E-003
  9.83040E+000	 -1.34512E-004	  1.80902E-002	  5.15834E-003	  1.53271E-002
  1.06496E+001	 -2.80337E-003	  2.30860E-002	  3.37493E-003	  2.70173E-002
  1.14688E+001	  6.18573E-003	  3.95293E-002	 -1.16675E-002	  6.76761E-003
  1.22880E+001	  7.18756E-003	  3.76849E-002	 -4.27288E-003	 -3.15163E-003
  1.31072E+001	  1.95462E-002	  2.95719E-002	 -6.47811E-003	 -4.37302E-003
  1.47456E+001	 -9.98221E-003	  1.32401E-002	 -7.31108E-003	 -7.44003E-004
  1.63840E+001	 -1.45300E-002	  9.74312E-003	 -5.96654E-003	 -3.71978E-003
  1.80224E+001	 -6.87479E-003	  2.31323E-003	  4.26567E-003	  2.35025E-002
  1.96608E+001	 -1.05953E-004	  2.17680E-003	  1.38555E-002	  1.20560E-002
  2.12992E+001	 -1.89017E-003	  1.05270E-002	 -3.92197E-003	 -1.71503E-002
  2.29376E+001	 -1.42872E-002	  1.95963E-002	 -3.71372E-003	 -1.74188E-002
  2.45760E+001	 -2.32597E-002	  1.31515E-002	 -6.81810E-003	  2.65280E-004
  2.62144E+001	 -1.25958E-002	  1.14832E-002	 -7.73486E-003	  1.58784E-002
  2.94912E+001	  3.76701E-003	 -3.09955E-003	 -7.69847E-003	  1.75240E-002
  3.27680E+001	  5.20328E-003	 -8.49127E-003	 -1.03327E-002	  1.75565E-002
  3.60448E+001	 -3.20922E-003	 -4.36725E-003	  3.58269E-003	 -9.41399E-003
  3.93216E+001	  5.67592E-003	  4.21353E-003	 -1.45540E-002	 -2.22804E-003
  4.25984E+001	 -2.04485E-004	 -1.52109E-002	 -5.26315E-003	  1.73572E-005
  4.58752E+001	 -2.54693E-003	  1.65898E-003	 -4.81019E-003	 -3.91340E-003
  4.91520E+001	  1.24723E-002	  3.51074E-003	  9.14089E-004	 -5.68837E-003
  5.24288E+001	  3.42878E-003	  1.48904E-002	 -6.49151E-003	 -1.11014E-002
  5.89824E+001	  1.30918E-003	  2.05674E-003	  1.16016E-003	 -1.13117E-004
  6.55360E+001	 -3.48168E-003	  1.52821E-003	 -4.89047E-004	 -5.38967E-003
  7.20896E+001	 -5.94913E-003	  5.48863E-003	  6.03441E-003	 -4.05028E-003
  7.86432E+001	  8.00684E-003	 -2.40971E-003	  4.93419E-003	 -7.08184E-004
  8.51968E+001	  1.86725E-003	 -1.32174E-002	 -1.61939E-002	 -5.06682E-003
  9.17504E+001	  8.37074E-004	 -1.82932E-002	  1.98273E-003	 -7.22861E-004
  9.83040E+001	  2.88468E-003	 -5.97736E-003	 -1.74642E-003	 -9.19457E-003
  1.04858E+002	  1.67535E-003	 -2.93606E-003	 -4.06021E-003	 -2.68803E-004
  1.17965E+002	 -8.95817E-003	 -1.22399E-004	 -1.33190E-002	 -3.89427E-004
  1.31072E+002	 -1.89714E-003	 -7.91701E-003	 -7.44683E-004	 -5.99724E-003
  1.44179E+002	 -8.43173E-003	  6.46598E-003	 -2.27323E-004	 -9.98762E-003
  1.57286E+002	 -4.76832E-003	  1.16404E-003	  5.08313E-003	 -9.87605E-003
  1.70394E+002	  7.74029E-003	  2.46890E-002	  3.58239E-003	 -1.33959E-003
  1.83501E+002	 -3.33591E-003	  1.52353E-002	 -8.19925E-003	 -8.80076E-003
  1.96608E+002	 -3.13517E-003	 -1.13346E-002	 -1.09313E-002	 -4.96598E-003
  2.09715E+002	  3.96536E-004	 -2.03952E-002	 -1.16365E-002	 -1.18304E-002
  2.35930E+002	 -6.70110E-003	 -1.40707E-002	  4.45668E-004	 -3.05119E-004
  2.62144E+002	  2.92880E-003	 -1.53736E-002	  5.47926E-003	  1.25746E-003
  2.88358E+002	  3.20770E-003	 -2.22401E-002	 -2.74099E-003	  7.01569E-003
  3.14573E+002	 -1.92177E-003	  2.71634E-004	  1.31818E-003	 -2.19242E-003
  3.40787E+002	  1.11462E-003	 -8.34434E-003	  8.68340E-003	 -7.66165E-003
  3.67002E+002	  4.65629E-003	 -3.63220E-003	  3.09254E-003	  4.89397E-003
  3.93216E+002	  3.16244E-003	 -3.75845E-003	 -1.26696E-003	  2.68783E-003

"Count Rate"
       0.01311	     116.50085	     119.55261	     120.84961	      90.02686
       0.02621	     100.86060	     151.29089	      99.18213	      87.05139
       0.03932	     128.17383	     114.21204	     115.66162	     136.18469
       0.05243	     131.68335	      90.86609	      64.46838	     115.35645
       0.06554	      98.26660	      83.31299	      69.04602	     102.08130
       0.07864	     144.27185	      98.80066	     109.63440	     102.31018
       0.09175	     114.05945	      87.58545	      98.19031	     108.56628
       0.10486	      72.47925	     112.38098	     135.11658	      91.85791
       0.11796	     114.66980	     101.39465	      99.41101	      79.65088
       0.13107	     118.71338	      69.42749	      97.42737	      81.25305
       0.14418	     124.66431	      73.47107	      73.92883	      79.57458
       0.15729	      72.47925	     119.55261	      87.58545	      69.65637
       0.17039	      88.19580	      77.36206	      83.46558	     114.89868
       0.18350	      89.41650	      81.40564	      65.68909	     131.45447
       0.19661	      96.05408	      83.38928	     108.18481	     103.75977
       0.20972	      88.19580	     103.75977	      62.25586	     132.98035
       0.22282	     112.53357	     117.56897	      78.04871	     107.11670
       0.23593	      90.48462	      63.01880	     166.54968	     109.63440
       0.24904	     103.68347	     105.97229	     111.00769	     124.74060
       0.26214	      88.04321	     104.44641	     136.79504	      79.80347
       0.27525	     117.79785	      94.68079	     101.85242	     131.75964
       0.28836	     113.52539	      87.43286	      84.38110	     164.03198
       0.30147	     117.11121	      80.49011	      92.31567	     134.20105
       0.31457	     144.72961	     134.12476	     106.50635	     110.09216
       0.32768	      87.50916	     214.92004	     134.88770	      93.00232
       0.34079	     111.92322	     101.62354	      93.99414	      76.82800
       0.35389	     134.81140	      96.89331	      79.34570	      71.64001
       0.36700	     109.25293	      95.36743	      91.01868	      79.72717
       0.38011	      85.44922	      92.16309	      97.88513	      93.07861
       0.39322	     173.56873	     115.66162	      87.28027	      89.26392
       0.40632	      94.14673	      93.23120	     119.01855	      95.90149
       0.41943	      80.64270	      96.05408	      80.26123	     104.67529
       0.43254	      84.91516	     113.98315	      92.46826	      85.29663
       0.44564	     109.71069	     127.25830	      67.21497	      91.85791
       0.45875	      76.82800	      99.86877	     104.44641	      89.26392
       0.47186	      93.38379	     172.57690	      68.66455	     144.11926
       0.48497	     114.59351	     140.99121	      88.95874	      70.41931
       0.49807	     112.99133	     180.20630	     138.70239	      96.66443
       0.51118	      89.03503	     188.59863	      68.66455	      61.56921
       0.52429	     124.58801	     104.98047	      76.75171	     135.42175
       0.53740	      74.46289	      75.45471	      75.30212	     113.44910
       0.55050	      93.30750	      95.82520	     105.13306	     113.98315
       0.56361	     106.12488	     103.22571	     144.27185	     119.85779
       0.57672	     115.28015	     103.53088	     110.70251	      96.81702
       0.58982	     107.19299	      90.78979	     118.10303	     114.05945
       0.60293	      92.08679	      72.63184	      97.96143	     121.00220
       0.61604	     112.53357	      94.37561	     102.69165	      70.26672
       0.62915	      94.75708	      92.92603	      89.72168	      89.79797
       0.64225	      84.45740	     147.78137	     124.81689	     120.46814
       0.65536	     117.18750	     114.13574	      89.56909	      88.04321
       0.66847	     122.52808	      86.13586	     115.58533	      96.13037
       0.68157	     139.61792	      99.41101	      83.77075	     116.95862
       0.69468	      92.23938	      95.82520	      86.05957	     145.49255
       0.70779	     104.14124	      96.20667	     104.82788	     108.64258
       0.72090	     117.34009	      72.17407	     111.46545	     101.47095
       0.73400	      88.65356	     115.50903	      92.16309	      92.23938
       0.74711	      98.34290	     128.86047	     123.82507	      86.51733
