ALV-7004/USB-FAST
Date :	"3/14/2024"
Time :	"12:36:54 PM"
Samplename : 	""
SampMemo(0) : 	""
SampMemo(1) : 	""
SampMemo(2) : 	""
SampMemo(3) : 	""
SampMemo(4) : 	""
SampMemo(5) : 	""
SampMemo(6) : 	""
SampMemo(7) : 	""
SampMemo(8) : 	""
SampMemo(9) : 	""
Temperature [K] :	     298.16000
Viscosity [cp]  :	       0.89000
Refractive Index:	       1.33200
Wavelength [nm] :	       0.00000
Angle [°]       :	       0.00000
Duration [s]    :	         1
FloatDur [ms]   :	          944
Stop TP [ms]   :	      4040
Runs            :	         1
Mode            :	"A-CH0+1  A-CH2+3 "
MeanCR0 [kHz]   :	     147.18161
MeanCR1 [kHz]   :	     139.67514
MeanCR2 [kHz]   :	     129.22393
MeanCR3 [kHz]   :	     134.92478

"Correlation"
  3.12500E-006	 -1.00000E+000	 -1.00000E+000	 -1.00000E+000	 -1.00000E+000
  6.25000E-006	 -1.00000E+000	 -1.00000E+000	 -1.00000E+000	 -1.00000E+000
  9.37500E-006	 -1.00000E+000	 -1.00000E+000	 -1.00000E+000	 -1.00000E+000
  1.25000E-005	 -1.00000E+000	 -1.00000E+000	 -1.00000E+000	 -1.00000E+000
  1.56250E-005	 -1.00000E+000	 -1.00000E+000	 -1.00000E+000	 -1.00000E+000
  1.87500E-005	 -1.00000E+000	 -1.00000E+000	 -1.00000E+000	 -1.00000E+000
  2.18750E-005	 -8.74774E-001	 -4.78577E-001	 -3.70518E-001	 -9.81374E-001
  2.50000E-005	  5.13606E+000	  5.53517E+000	  5.61971E+000	  1.05855E+001
  2.81250E-005	  1.37929E+000	  1.36379E+000	  1.17273E+000	  4.23396E+000
  3.12500E-005	  8.47079E-001	  1.08569E+000	  5.43246E-001	  1.96156E+000
  3.43750E-005	  1.05057E+000	  7.55459E-001	  7.25999E-001	  1.84981E+000
  3.75000E-005	  9.09692E-001	  5.12128E-001	  9.49364E-001	  1.30965E+000
  4.06250E-005	  7.06200E-001	  6.51174E-001	  7.66611E-001	  1.53316E+000
  4.37500E-005	  9.25345E-001	  7.38078E-001	  3.80799E-001	  1.32827E+000
  4.68750E-005	  6.59241E-001	  1.10307E+000	  6.65082E-001	  1.42140E+000
  5.00000E-005	  4.87055E-001	  7.81530E-001	  6.75234E-001	  1.30965E+000
  5.62500E-005	  6.43587E-001	  5.72961E-001	  5.83858E-001	  9.93002E-001
  6.25000E-005	  4.16616E-001	  5.29509E-001	  5.43246E-001	  8.25367E-001
  6.87500E-005	  5.49668E-001	  5.12128E-001	  5.63552E-001	  7.78801E-001
  7.50000E-005	  5.34015E-001	  5.03438E-001	  4.92482E-001	  9.09185E-001
  8.12500E-005	  5.80975E-001	  3.12249E-001	  6.44776E-001	  6.57731E-001
  8.75000E-005	  5.34015E-001	  4.94747E-001	  4.21411E-001	  4.43530E-001
  9.37500E-005	  6.43587E-001	  3.64391E-001	  6.65081E-001	  1.03957E+000
  1.00000E-004	  4.87055E-001	  5.51234E-001	  4.92481E-001	  5.13378E-001
  1.12500E-004	  5.45755E-001	  5.42544E-001	  6.85387E-001	  4.90095E-001
  1.25000E-004	  5.06622E-001	  6.16412E-001	  5.78781E-001	  3.59712E-001
  1.37500E-004	  4.51835E-001	  4.99092E-001	  5.58475E-001	  6.48418E-001
  1.50000E-004	  5.92714E-001	  4.38259E-001	  4.72175E-001	  4.38873E-001
  1.62500E-004	  4.63575E-001	  5.25163E-001	  6.39699E-001	  5.22691E-001
  1.75000E-004	  5.18362E-001	  4.94747E-001	  4.06181E-001	  5.04065E-001
  1.87500E-004	  3.65743E-001	  5.68615E-001	  4.06181E-001	  6.67044E-001
  2.00000E-004	  5.20318E-001	  5.77305E-001	  3.80799E-001	  5.66928E-001
  2.25000E-004	  6.78807E-001	  5.72960E-001	  5.66090E-001	  5.20362E-001
  2.50000E-004	  5.84887E-001	  3.55700E-001	  3.73184E-001	  4.34216E-001
  2.75000E-004	  5.73147E-001	  4.86056E-001	  4.59484E-001	  5.20362E-001
  3.00000E-004	  5.53581E-001	  4.99092E-001	  4.62022E-001	  4.94751E-001
  3.25000E-004	  4.59662E-001	  5.16473E-001	  5.07710E-001	  5.06393E-001
  3.50000E-004	  4.06832E-001	  4.25224E-001	  4.77252E-001	  5.13378E-001
  3.75000E-004	  4.83141E-001	  5.81651E-001	  4.31563E-001	  5.55286E-001
  4.00000E-004	  4.90967E-001	  5.72959E-001	  4.67098E-001	  5.66927E-001
  4.50000E-004	  4.93902E-001	  4.99091E-001	  4.51869E-001	  4.28395E-001
  5.00000E-004	  5.05653E-001	  4.20878E-001	  4.44254E-001	  5.06392E-001
  5.50000E-004	  5.09566E-001	  5.30594E-001	  4.25217E-001	  3.92307E-001
  6.00000E-004	  4.99783E-001	  5.31680E-001	  4.70905E-001	  4.85449E-001
  6.50000E-004	  4.80217E-001	  5.20817E-001	  4.97557E-001	  4.94762E-001
  7.00000E-004	  5.26198E-001	  5.07782E-001	  5.19132E-001	  4.70315E-001
  7.50000E-004	  4.60650E-001	  4.43690E-001	  5.03902E-001	  5.33179E-001
  8.00000E-004	  4.75324E-001	  5.06694E-001	  5.09612E-001	  4.73830E-001
  9.00000E-004	  5.26686E-001	  4.37171E-001	  4.20140E-001	  4.94203E-001
  1.00000E-003	  4.66519E-001	  5.20816E-001	  4.41715E-001	  5.36707E-001
  1.10000E-003	  4.87064E-001	  4.92029E-001	  4.87403E-001	  4.47647E-001
  1.20000E-003	  5.01749E-001	  5.10496E-001	  4.72173E-001	  4.16215E-001
  1.30000E-003	  4.98814E-001	  4.31740E-001	  4.36004E-001	  4.29021E-001
  1.40000E-003	  5.11044E-001	  5.00719E-001	  4.88672E-001	  4.41827E-001
  1.50000E-003	  4.76313E-001	  5.15928E-001	  5.12150E-001	  4.78498E-001
  1.60000E-003	  4.85115E-001	  4.75483E-001	  5.05192E-001	  4.82011E-001
  1.80000E-003	  4.73620E-001	  5.13504E-001	  4.79175E-001	  4.46213E-001
  2.00000E-003	  4.99546E-001	  5.10245E-001	  4.87425E-001	  4.96564E-001
  2.20000E-003	  5.03703E-001	  4.77384E-001	  4.25883E-001	  4.48227E-001
  2.40000E-003	  5.02970E-001	  5.03184E-001	  4.86168E-001	  4.48518E-001
  2.60000E-003	  4.74843E-001	  5.01011E-001	  4.73793E-001	  5.14585E-001
  2.80000E-003	  4.74598E-001	  4.82544E-001	  4.71255E-001	  4.46481E-001
  3.00000E-003	  4.80957E-001	  4.46978E-001	  4.92831E-001	  4.77331E-001
  3.20000E-003	  4.71413E-001	  4.64659E-001	  4.63659E-001	  4.61353E-001
  3.60000E-003	  4.79362E-001	  5.10421E-001	  4.55251E-001	  4.74742E-001
  4.00000E-003	  4.78629E-001	  4.91275E-001	  4.91251E-001	  4.44327E-001
  4.40000E-003	  5.03332E-001	  4.84474E-001	  4.54299E-001	  4.70522E-001
  4.80000E-003	  4.65054E-001	  4.86771E-001	  4.69371E-001	  4.68048E-001
  5.20000E-003	  5.04921E-001	  4.45219E-001	  4.67308E-001	  4.64701E-001
  5.60000E-003	  4.78873E-001	  4.59205E-001	  4.48112E-001	  4.59148E-001
  6.00000E-003	  4.46099E-001	  4.64230E-001	  4.68736E-001	  4.60166E-001
  6.40000E-003	  4.72576E-001	  4.86817E-001	  4.75572E-001	  4.68570E-001
  7.20000E-003	  4.68601E-001	  4.77651E-001	  4.70257E-001	  4.49204E-001
  8.00000E-003	  4.61753E-001	  4.81182E-001	  4.47162E-001	  4.39163E-001
  8.80000E-003	  4.74838E-001	  4.91027E-001	  4.78031E-001	  4.52915E-001
  9.60000E-003	  4.62487E-001	  4.85720E-001	  4.35672E-001	  4.51678E-001
  1.04000E-002	  4.76673E-001	  4.68474E-001	  4.55265E-001	  4.44984E-001
  1.12000E-002	  4.89035E-001	  4.69538E-001	  4.43843E-001	  4.42728E-001
  1.20000E-002	  4.70691E-001	  4.75920E-001	  4.55900E-001	  4.35793E-001
  1.28000E-002	  4.69306E-001	  4.71780E-001	  4.46425E-001	  4.63673E-001
  1.44000E-002	  4.52419E-001	  4.60384E-001	  4.43490E-001	  4.50030E-001
  1.60000E-002	  4.65596E-001	  4.53651E-001	  4.56431E-001	  4.37005E-001
  1.76000E-002	  4.44409E-001	  4.65352E-001	  4.38742E-001	  4.28624E-001
  1.92000E-002	  4.52521E-001	  4.60328E-001	  4.47587E-001	  4.42231E-001
  2.08000E-002	  4.42218E-001	  4.56118E-001	  4.33217E-001	  4.37308E-001
  2.24000E-002	  4.59115E-001	  4.40558E-001	  4.40515E-001	  4.33306E-001
  2.40000E-002	  4.37592E-001	  4.57137E-001	  4.27177E-001	  4.30916E-001
  2.56000E-002	  4.46200E-001	  4.46207E-001	  4.28597E-001	  4.28108E-001
  2.88000E-002	  4.35158E-001	  4.29436E-001	  4.17888E-001	  4.11451E-001
  3.20000E-002	  4.28575E-001	  4.29860E-001	  4.08706E-001	  4.14769E-001
  3.52000E-002	  4.18654E-001	  4.24757E-001	  3.97145E-001	  4.05379E-001
  3.84000E-002	  4.18730E-001	  4.24729E-001	  3.99250E-001	  4.12598E-001
  4.16000E-002	  4.05635E-001	  4.21357E-001	  3.87461E-001	  3.94387E-001
  4.48000E-002	  4.05747E-001	  4.06731E-001	  3.85509E-001	  3.84079E-001
  4.80000E-002	  3.99219E-001	  4.01763E-001	  3.83070E-001	  3.79229E-001
  5.12000E-002	  3.89324E-001	  3.98102E-001	  3.72958E-001	  3.69768E-001
  5.76000E-002	  3.73507E-001	  3.83195E-001	  3.57448E-001	  3.61727E-001
  6.40000E-002	  3.61401E-001	  3.82660E-001	  3.46431E-001	  3.52140E-001
  7.04000E-002	  3.51040E-001	  3.61981E-001	  3.36545E-001	  3.33614E-001
  7.68000E-002	  3.50207E-001	  3.53778E-001	  3.24396E-001	  3.26361E-001
  8.32000E-002	  3.26558E-001	  3.41325E-001	  3.12339E-001	  3.11351E-001
  8.96000E-002	  3.18314E-001	  3.31849E-001	  3.09980E-001	  3.03249E-001
  9.60000E-002	  3.07213E-001	  3.22824E-001	  2.98369E-001	  2.95473E-001
  1.02400E-001	  3.02363E-001	  3.12835E-001	  2.86300E-001	  2.82177E-001
  1.15200E-001	  2.81192E-001	  2.94206E-001	  2.64973E-001	  2.65163E-001
  1.28000E-001	  2.65673E-001	  2.76666E-001	  2.42630E-001	  2.47218E-001
  1.40800E-001	  2.54396E-001	  2.60703E-001	  2.32502E-001	  2.34784E-001
  1.53600E-001	  2.34894E-001	  2.47315E-001	  2.14372E-001	  2.18031E-001
  1.66400E-001	  2.17212E-001	  2.35538E-001	  1.96173E-001	  2.04274E-001
  1.79200E-001	  2.09631E-001	  2.22053E-001	  1.81687E-001	  1.89650E-001
  1.92000E-001	  1.92435E-001	  2.04847E-001	  1.70622E-001	  1.72827E-001
  2.04800E-001	  1.83462E-001	  2.00124E-001	  1.58798E-001	  1.63854E-001
  2.30400E-001	  1.62508E-001	  1.81791E-001	  1.34789E-001	  1.46653E-001
  2.56000E-001	  1.49978E-001	  1.65166E-001	  1.19041E-001	  1.27142E-001
  2.81600E-001	  1.34293E-001	  1.51794E-001	  1.02758E-001	  1.08121E-001
  3.07200E-001	  1.25311E-001	  1.33216E-001	  8.88420E-002	  9.79392E-002
  3.32800E-001	  1.14939E-001	  1.22981E-001	  8.48173E-002	  8.38914E-002
  3.58400E-001	  1.03158E-001	  1.10110E-001	  7.41887E-002	  7.59437E-002
  3.84000E-001	  9.15732E-002	  1.02041E-001	  6.38760E-002	  6.51714E-002
  4.09600E-001	  8.41450E-002	  9.40867E-002	  6.10175E-002	  5.66961E-002
  4.60800E-001	  7.09253E-002	  7.56124E-002	  5.28947E-002	  4.19334E-002
  5.12000E-001	  5.65039E-002	  6.39088E-002	  4.18468E-002	  2.97008E-002
  5.63200E-001	  4.86217E-002	  5.50656E-002	  3.68240E-002	  2.40432E-002
  6.14400E-001	  4.43546E-002	  4.91151E-002	  3.18097E-002	  2.47081E-002
  6.65600E-001	  3.94780E-002	  4.43683E-002	  2.43655E-002	  2.20395E-002
  7.16800E-001	  3.53959E-002	  3.53007E-002	  2.42437E-002	  1.98616E-002
  7.68000E-001	  3.32903E-002	  2.46219E-002	  1.94772E-002	  2.07087E-002
  8.19200E-001	  3.30812E-002	  2.53373E-002	  1.65634E-002	  1.78309E-002
  9.21600E-001	  3.10603E-002	  2.20172E-002	  1.37296E-002	  1.22663E-002
  1.02400E+000	  2.90193E-002	  1.75283E-002	  1.33028E-002	  6.78199E-003
  1.12640E+000	  2.82976E-002	  7.68463E-003	  8.84990E-003	  4.02963E-003
  1.22880E+000	  2.54019E-002	  1.07317E-003	  7.38701E-003	  9.63691E-003
  1.33120E+000	  2.57426E-002	 -1.56559E-003	  6.87843E-003	  3.50334E-003
  1.43360E+000	  1.65824E-002	 -4.97585E-003	  3.43839E-003	 -4.70726E-004
  1.53600E+000	  1.35213E-002	 -9.31166E-003	  1.53234E-003	  9.64145E-003
  1.63840E+000	  1.29265E-002	 -8.45083E-003	  1.09596E-003	  8.06055E-003
  1.84320E+000	  1.33294E-002	 -1.02256E-003	  1.90117E-003	  7.33464E-004
  2.04800E+000	  1.95105E-002	 -5.47615E-003	 -6.90936E-004	  1.36502E-003
  2.25280E+000	  2.35479E-002	 -1.41572E-003	 -3.22717E-003	 -3.45448E-004
  2.45760E+000	  2.12989E-002	 -5.06474E-003	 -6.78953E-003	 -9.48368E-003
  2.66240E+000	  1.25112E-002	 -6.42652E-003	 -8.29202E-003	 -1.75892E-002
  2.86720E+000	 -1.69202E-003	 -1.03999E-002	  3.14647E-003	 -1.38013E-002
  3.07200E+000	 -2.36323E-003	 -1.30551E-002	  8.63248E-003	 -4.03637E-003
  3.27680E+000	  9.91947E-003	 -1.54113E-002	  4.26274E-003	 -2.10832E-003
  3.68640E+000	  9.83843E-003	 -1.27083E-002	  6.31868E-003	 -1.39987E-003
  4.09600E+000	  4.97751E-003	 -9.06857E-003	  5.56817E-003	 -3.81017E-003
  4.50560E+000	  1.53207E-002	 -7.42701E-003	  5.74810E-003	 -9.47812E-004
  4.91520E+000	  1.47088E-002	 -4.44907E-003	  1.22443E-002	  3.09705E-003
  5.32480E+000	  6.43305E-003	 -9.20405E-003	  7.43320E-003	 -2.37411E-003
  5.73440E+000	  2.97915E-003	 -3.94592E-003	  8.56035E-003	 -1.91715E-003
  6.14400E+000	 -8.07169E-003	 -9.34183E-003	  5.62690E-003	 -6.47112E-004
  6.55360E+000	  2.15322E-003	 -5.13931E-003	 -4.28220E-003	  3.57149E-003
  7.37280E+000	 -6.52825E-003	  1.46030E-002	 -5.43500E-003	 -1.94900E-003
  8.19200E+000	 -1.26283E-003	  1.26375E-002	  1.12532E-002	  3.57320E-003
  9.01120E+000	  2.98215E-003	  1.08067E-002	  1.22630E-002	 -4.87215E-003
  9.83040E+000	  1.23177E-003	 -3.00040E-003	 -4.74172E-003	  3.54488E-003
  1.06496E+001	  4.01015E-003	 -7.65823E-003	  1.97151E-003	  3.00764E-004
  1.14688E+001	  3.28103E-003	  5.78530E-003	  4.11234E-003	 -1.26699E-003
  1.22880E+001	 -6.31848E-003	  6.97728E-003	  7.11642E-004	 -3.52906E-003
  1.31072E+001	 -3.74662E-003	  3.76162E-003	  9.86588E-004	 -3.58927E-003
  1.47456E+001	 -7.50765E-003	  4.29584E-003	  3.87531E-003	  3.34573E-003
  1.63840E+001	  1.10151E-003	 -5.75300E-004	  1.42127E-003	  5.52010E-005
  1.80224E+001	 -1.85596E-003	  8.19682E-003	  4.23244E-005	  1.44875E-003
  1.96608E+001	 -2.39727E-003	  5.44501E-003	  7.62490E-004	 -3.12607E-003
  2.12992E+001	 -6.46814E-003	  2.00578E-004	 -4.78923E-003	  2.95960E-003
  2.29376E+001	  4.61550E-004	 -1.00324E-002	 -5.03893E-003	 -5.40209E-003
  2.45760E+001	 -4.71998E-004	  4.82745E-003	 -5.44309E-003	  2.30071E-003
  2.62144E+001	 -1.84348E-003	  5.21193E-003	 -3.34006E-003	  5.35619E-003
  2.94912E+001	  9.64959E-004	  3.07123E-003	 -1.75066E-003	 -2.90295E-004
  3.27680E+001	  9.67726E-003	  2.05660E-003	  2.48465E-003	 -4.05819E-003
  3.60448E+001	  6.17455E-003	  1.17915E-004	 -3.93080E-003	  1.43594E-003
  3.93216E+001	 -4.83633E-003	 -3.43342E-004	 -4.33220E-003	  5.56360E-004
  4.25984E+001	  4.88915E-003	 -8.53690E-004	  4.68866E-003	 -2.23221E-003
  4.58752E+001	 -3.36932E-003	  9.77971E-004	  7.70305E-004	  2.42103E-003
  4.91520E+001	 -6.57709E-003	 -4.87022E-003	 -5.10325E-003	 -6.47520E-003
  5.24288E+001	  1.62370E-003	 -1.47219E-003	  6.20730E-004	  9.78739E-004
  5.89824E+001	  2.02884E-003	  1.13328E-003	 -1.86361E-003	  8.28828E-004
  6.55360E+001	 -3.19819E-003	  2.58401E-004	  4.55333E-003	  9.03527E-004
  7.20896E+001	  3.26132E-003	  3.91391E-004	  4.46995E-003	 -1.59852E-003
  7.86432E+001	 -2.72792E-004	 -1.28043E-003	 -1.16318E-003	 -8.30776E-004
  8.51968E+001	 -3.77311E-003	 -3.57225E-003	  6.07544E-003	 -1.01220E-003
  9.17504E+001	 -2.41473E-003	  4.41715E-003	  1.11097E-003	  2.43606E-003
  9.83040E+001	 -2.99467E-003	  3.48473E-003	  3.49915E-003	 -4.94036E-003
  1.04858E+002	 -3.64765E-006	  1.46686E-003	  2.24542E-004	 -2.50443E-003
  1.17965E+002	  1.99210E-004	 -1.14818E-003	 -2.54527E-003	 -2.40739E-004
  1.31072E+002	  2.08147E-003	  2.05024E-003	  2.16322E-003	 -1.23558E-003
  1.44179E+002	  1.78846E-003	 -1.06329E-003	 -7.18691E-004	 -8.12850E-004
  1.57286E+002	 -1.96279E-004	 -5.81526E-004	  6.20800E-004	  2.04227E-003
  1.70394E+002	 -3.10531E-003	 -2.77657E-003	 -1.98183E-003	 -1.13153E-003
  1.83501E+002	  2.67181E-004	 -2.82454E-004	  2.22452E-003	  2.04288E-003
  1.96608E+002	  4.52867E-003	 -1.41752E-003	  2.89367E-003	  9.01014E-004
  2.09715E+002	  3.31149E-004	  2.23226E-003	  4.02127E-003	  7.36705E-005
  2.35930E+002	  3.86536E-003	 -8.53186E-004	 -5.48384E-004	  7.07102E-004
  2.62144E+002	  2.16860E-003	 -6.23951E-004	 -1.32380E-003	 -3.22179E-004
  2.88358E+002	 -2.64688E-003	 -1.95927E-003	  1.38329E-003	 -2.30480E-003
  3.14573E+002	 -1.64921E-005	  2.16337E-003	  1.41047E-003	 -1.46139E-004
  3.40787E+002	 -3.22191E-003	  2.37281E-003	 -1.64858E-003	  4.23302E-004
  3.67002E+002	 -6.25485E-003	  8.49434E-004	 -1.16753E-003	  4.05446E-004
  3.93216E+002	  2.57168E-004	  2.36248E-004	  3.21411E-003	 -4.28782E-004

"Count Rate"
       0.01311	     120.39185	     131.14929	     118.40820	     126.19019
       0.02621	     139.31274	     122.22290	     115.66162	     114.44092
       0.03932	     149.53613	     160.90393	     148.39172	     125.57983
       0.05243	     195.38879	     141.52527	     146.48438	     106.65894
       0.06554	     160.75134	     139.38904	     103.75977	     141.60156
       0.07864	     158.53882	     179.90112	     113.83057	     118.02673
       0.09175	     181.80847	     145.72144	      97.80884	     150.98572
       0.10486	     132.52258	     128.47900	     132.67517	     111.84692
       0.11796	     117.72156	     144.27185	     159.53064	     153.96118
       0.13107	     167.69409	     134.50623	     109.17664	     125.50354
       0.14418	     145.41626	     130.46265	     106.65894	     117.03491
       0.15729	     117.79785	     129.62341	     109.32922	     133.81958
       0.17039	     153.50342	     166.85486	     100.63171	     118.78967
       0.18350	     119.47632	     121.53625	     108.79517	     142.97485
       0.19661	     116.04309	     144.04297	     130.69153	     138.77869
       0.20972	     111.38916	     151.82495	     133.05664	     114.59351
       0.22282	     160.90393	     145.41626	     112.99133	     115.73792
       0.23593	     129.39453	     135.19287	     129.54712	     120.62073
       0.24904	     160.29358	     147.39990	     111.69434	     154.95300
       0.26214	     161.81946	     170.97473	     106.81152	     142.82227
       0.27525	     186.69128	     157.24182	     125.04578	     138.32092
       0.28836	     109.93958	     146.63696	     128.17383	     132.06482
       0.30147	     142.89856	     179.59595	     162.81128	     138.62610
       0.31457	     143.20374	     107.57446	     138.09204	     155.71594
       0.32768	     131.75964	     135.72693	     127.94495	     128.47900
       0.34079	     155.10559	     105.74341	     117.18750	     122.98584
       0.35389	     117.26379	     183.71582	      90.86609	     108.71887
       0.36700	     140.68604	     129.54712	     159.83582	     140.22827
       0.38011	     164.48975	     136.26099	     133.97217	     119.85779
       0.39322	     133.13293	     145.95032	     119.62891	     127.02942
       0.40632	     133.20923	     128.09753	     112.07581	     122.45178
       0.41943	     149.76501	     127.94495	     111.16028	     145.33997
       0.43254	     116.04309	     109.48181	     144.65332	     169.14368
       0.44564	      98.72437	     138.54980	     104.75159	     140.22827
       0.45875	     157.16553	     127.18201	     109.86328	     137.17651
       0.47186	     152.43530	     132.82776	     132.06482	     143.96667
       0.48497	     150.75684	     122.37549	     115.43274	     139.31274
       0.49807	     166.54968	     126.11389	     119.40002	     117.26379
       0.51118	     123.44360	     153.65601	     138.54980	     143.50891
       0.52429	     197.14355	     148.01025	     170.82214	     126.72424
       0.53740	     163.11646	     107.42188	     119.47632	     132.59888
       0.55050	     143.12744	     108.41370	     108.26111	     116.27197
       0.56361	     172.34802	     120.54443	     138.77869	     137.25281
       0.57672	     134.20105	     153.50342	     107.49817	     129.16565
       0.58982	     169.90662	     132.67517	     140.60974	     151.90125
       0.60293	     132.90405	     154.03748	     121.53625	     126.95313
       0.61604	     164.87122	     149.61243	     149.15466	     141.90674
       0.62915	     118.63708	     118.33191	     124.51172	     136.10840
       0.64225	     161.89575	     129.54712	     123.44360	     143.50891
       0.65536	     155.71594	     139.92310	     135.57434	     143.28003
       0.66847	     179.51965	     122.45178	     144.50073	     193.55774
       0.68157	     119.85779	     160.06470	     110.09216	     134.50623
       0.69468	     148.62061	     124.20654	     138.39722	     136.64246
       0.70779	     133.74329	     153.12195	     132.44629	     150.45166
       0.72090	     218.58215	     167.54150	     135.19287	     108.94775
       0.73400	     133.28552	     143.58521	     161.66687	     135.65063
       0.74711	     108.94775	     140.38086	     153.73230	     156.70776
