ALV-7004/USB-FAST
Date :	"11/11/2025"
Time :	"3:53:39 PM"
Samplename : 	""
SampMemo(0) : 	""
SampMemo(1) : 	""
SampMemo(2) : 	""
SampMemo(3) : 	""
SampMemo(4) : 	""
SampMemo(5) : 	""
SampMemo(6) : 	""
SampMemo(7) : 	""
SampMemo(8) : 	""
SampMemo(9) : 	""
Temperature [K] :	     298.16000
Viscosity [cp]  :	       0.89000
Refractive Index:	       1.33200
Wavelength [nm] :	       0.00000
Angle [°]       :	       0.00000
Duration [s]    :	         1
FloatDur [ms]   :	          944
Stop TP [ms]   :	     58247
Runs            :	         1
Mode            :	"A-CH0+1  A-CH2+3 "
MeanCR0 [kHz]   :	      56.51686
MeanCR1 [kHz]   :	      55.66809
MeanCR2 [kHz]   :	      55.40106
MeanCR3 [kHz]   :	      52.72865

"Correlation"
  3.12500E-006	 -1.00000E+000	 -1.00000E+000	 -1.00000E+000	 -1.00000E+000
  6.25000E-006	 -1.00000E+000	 -1.00000E+000	 -1.00000E+000	 -1.00000E+000
  9.37500E-006	 -1.00000E+000	 -1.00000E+000	 -1.00000E+000	 -1.00000E+000
  1.25000E-005	 -1.00000E+000	 -1.00000E+000	 -1.00000E+000	 -1.00000E+000
  1.56250E-005	 -1.00000E+000	 -1.00000E+000	 -1.00000E+000	 -1.00000E+000
  1.87500E-005	 -1.00000E+000	 -1.00000E+000	 -1.00000E+000	 -1.00000E+000
  2.18750E-005	 -7.87685E-001	  8.60132E-001	  1.32001E+000	 -7.56082E-001
  2.50000E-005	  1.21636E+001	  1.27869E+001	  1.04896E+001	  2.33918E+001
  2.81250E-005	  4.94483E+000	  1.51665E+000	  9.88584E-001	  7.65910E+000
  3.12500E-005	  1.44163E+000	  1.18839E+000	  9.88584E-001	  5.58579E+000
  3.43750E-005	  1.22931E+000	  8.60132E-001	  6.57153E-001	  4.97600E+000
  3.75000E-005	  4.86208E-001	  3.13035E-001	  1.20954E+000	  2.65877E+000
  4.06250E-005	  1.86626E+000	  5.31874E-001	  4.36199E-001	  3.39053E+000
  4.37500E-005	  2.73892E-001	  4.22454E-001	 -5.70813E-003	  3.75640E+000
  4.68750E-005	  5.92366E-001	  8.60132E-001	  1.20954E+000	  2.65877E+000
  5.00000E-005	  5.39287E-001	  1.48905E-001	  6.01915E-001	  2.41485E+000
  5.62500E-005	  1.28239E+000	  1.24310E+000	  1.26478E+000	  1.92702E+000
  6.25000E-005	  8.04681E-001	  6.41293E-001	  8.78107E-001	  2.35387E+000
  6.87500E-005	  5.92365E-001	  6.96003E-001	  4.36199E-001	  1.98800E+000
  7.50000E-005	  8.57760E-001	  4.22454E-001	  4.91438E-001	  1.01232E+000
  8.12500E-005	  9.63917E-001	  1.07897E+000	  5.46676E-001	  1.31722E+000
  8.75000E-005	  6.45444E-001	  3.13034E-001	  3.80961E-001	  4.63509E-001
  9.37500E-005	  2.73892E-001	  6.41293E-001	  6.01915E-001	  5.24489E-001
  1.00000E-004	  6.71983E-001	  5.31873E-001	  2.42865E-001	  6.46447E-001
  1.12500E-004	  1.22931E+000	  6.41293E-001	  7.67630E-001	  8.29386E-001
  1.25000E-004	  3.53510E-001	  2.58325E-001	  5.46676E-001	  5.85468E-001
  1.37500E-004	  4.33129E-001	  6.13938E-001	  6.01914E-001	  8.29386E-001
  1.50000E-004	  6.45444E-001	  6.13938E-001	  4.91438E-001	  5.24488E-001
  1.62500E-004	  9.63917E-001	  5.04519E-001	  3.53341E-001	  5.85468E-001
  1.75000E-004	  5.65826E-001	  7.78067E-001	  6.01914E-001	  8.59876E-001
  1.87500E-004	  7.25062E-001	  3.67744E-001	  5.46676E-001	  8.59876E-001
  2.00000E-004	  6.05635E-001	  5.59228E-001	  6.29533E-001	  7.53161E-001
  2.25000E-004	  6.05635E-001	  5.31873E-001	  4.22389E-001	  6.46447E-001
  2.50000E-004	  5.12747E-001	  5.45551E-001	  4.77628E-001	  6.15957E-001
  2.75000E-004	  6.32174E-001	  4.49808E-001	  3.53341E-001	  4.17774E-001
  3.00000E-004	  6.18904E-001	  5.18196E-001	  4.08580E-001	  7.22672E-001
  3.25000E-004	  2.87162E-001	  7.78067E-001	  7.81439E-001	  5.85468E-001
  3.50000E-004	  4.06589E-001	  2.58324E-001	  6.43343E-001	  6.46447E-001
  3.75000E-004	  4.33128E-001	  4.77163E-001	  3.53341E-001	  5.39733E-001
  4.00000E-004	  4.72937E-001	  5.38711E-001	  4.98341E-001	  6.92181E-001
  4.50000E-004	  5.65825E-001	  5.59227E-001	  4.43103E-001	  5.77845E-001
  5.00000E-004	  3.26970E-001	  5.04518E-001	  6.01913E-001	  4.02528E-001
  5.50000E-004	  5.39285E-001	  5.79743E-001	  3.32626E-001	  4.63508E-001
  6.00000E-004	  4.72937E-001	  4.56647E-001	  6.01913E-001	  3.56794E-001
  6.50000E-004	  6.18904E-001	  5.72905E-001	  4.08579E-001	  3.72039E-001
  7.00000E-004	  5.26016E-001	  3.06195E-001	  5.67389E-001	  4.48263E-001
  7.50000E-004	  6.12269E-001	  5.59227E-001	  6.70961E-001	  4.63508E-001
  8.00000E-004	  4.96158E-001	  5.86581E-001	  5.74293E-001	  5.39731E-001
  9.00000E-004	  4.92840E-001	  5.38710E-001	  4.36197E-001	  5.74032E-001
  1.00000E-003	  5.89045E-001	  5.14774E-001	  4.70721E-001	  3.94905E-001
  1.10000E-003	  5.55871E-001	  5.76323E-001	  3.36078E-001	  5.01619E-001
  1.20000E-003	  5.89045E-001	  5.18194E-001	  3.63697E-001	  4.67318E-001
  1.30000E-003	  5.26014E-001	  5.48968E-001	  4.84531E-001	  4.71129E-001
  1.40000E-003	  5.35967E-001	  4.94258E-001	  4.87983E-001	  3.94905E-001
  1.50000E-003	  4.13222E-001	  4.60065E-001	  4.91435E-001	  4.06338E-001
  1.60000E-003	  4.39759E-001	  4.66901E-001	  4.67294E-001	  5.14956E-001
  1.80000E-003	  5.35964E-001	  4.77159E-001	  4.65568E-001	  5.77840E-001
  2.00000E-003	  3.88339E-001	  4.85707E-001	  5.17355E-001	  5.05427E-001
  2.20000E-003	  4.89520E-001	  4.24159E-001	  4.22412E-001	  4.44448E-001
  2.40000E-003	  5.37623E-001	  4.51514E-001	  4.98366E-001	  5.58784E-001
  2.60000E-003	  5.17718E-001	  4.75449E-001	  3.56816E-001	  5.49256E-001
  2.80000E-003	  4.97814E-001	  5.18191E-001	  4.41401E-001	  4.33015E-001
  3.00000E-003	  5.39281E-001	  5.95127E-001	  4.74199E-001	  4.53976E-001
  3.20000E-003	  5.43423E-001	  4.69460E-001	  5.11337E-001	  5.11139E-001
  3.60000E-003	  5.22689E-001	  4.13041E-001	  4.37971E-001	  4.55877E-001
  4.00000E-003	  5.87379E-001	  4.89122E-001	  4.49192E-001	  5.28290E-001
  4.40000E-003	  5.11908E-001	  4.98525E-001	  4.44013E-001	  4.64452E-001
  4.80000E-003	  4.57170E-001	  4.57493E-001	  4.80236E-001	  4.80650E-001
  5.20000E-003	  4.58000E-001	  5.22460E-001	  4.62111E-001	  5.12092E-001
  5.60000E-003	  5.21031E-001	  4.66896E-001	  5.03569E-001	  4.83508E-001
  6.00000E-003	  5.89037E-001	  5.16476E-001	  5.32052E-001	  4.89225E-001
  6.40000E-003	  5.58785E-001	  4.67769E-001	  4.78584E-001	  5.09700E-001
  7.20000E-003	  5.11511E-001	  4.88285E-001	  4.37585E-001	  4.97790E-001
  8.00000E-003	  4.66726E-001	  4.90422E-001	  4.74269E-001	  4.54914E-001
  8.80000E-003	  4.94509E-001	  4.99825E-001	  4.75132E-001	  5.46382E-001
  9.60000E-003	  4.88704E-001	  4.32720E-001	  4.59163E-001	  5.36378E-001
  1.04000E-002	  5.02388E-001	  4.83583E-001	  4.33269E-001	  5.21133E-001
  1.12000E-002	  4.93680E-001	  4.96833E-001	  4.78125E-001	  5.02077E-001
  1.20000E-002	  5.12340E-001	  5.04100E-001	  4.74672E-001	  4.42528E-001
  1.28000E-002	  5.26476E-001	  4.82793E-001	  4.65457E-001	  4.82108E-001
  1.44000E-002	  4.74018E-001	  4.42400E-001	  4.95237E-001	  4.85205E-001
  1.60000E-002	  4.65931E-001	  4.63558E-001	  4.46036E-001	  5.08787E-001
  1.76000E-002	  4.98871E-001	  4.46006E-001	  4.45173E-001	  4.94018E-001
  1.92000E-002	  5.09031E-001	  4.74430E-001	  4.52914E-001	  4.85026E-001
  2.08000E-002	  5.11104E-001	  4.38312E-001	  4.71687E-001	  4.52153E-001
  2.24000E-002	  5.04262E-001	  4.64813E-001	  4.46711E-001	  4.40719E-001
  2.40000E-002	  5.08230E-001	  4.83620E-001	  4.45173E-001	  5.04084E-001
  2.56000E-002	  4.99423E-001	  4.73113E-001	  4.61026E-001	  4.51457E-001
  2.88000E-002	  4.73397E-001	  4.55160E-001	  4.62996E-001	  4.55716E-001
  3.20000E-002	  4.95171E-001	  4.31943E-001	  4.58140E-001	  4.50565E-001
  3.52000E-002	  4.64169E-001	  4.38141E-001	  4.59731E-001	  4.68907E-001
  3.84000E-002	  4.64349E-001	  4.45167E-001	  4.26416E-001	  4.54734E-001
  4.16000E-002	  4.68185E-001	  4.53074E-001	  4.20049E-001	  4.42704E-001
  4.48000E-002	  4.61729E-001	  4.62264E-001	  4.19483E-001	  4.45563E-001
  4.80000E-002	  4.30417E-001	  4.35763E-001	  4.49372E-001	  4.56878E-001
  5.12000E-002	  4.33181E-001	  4.26768E-001	  4.34704E-001	  4.32201E-001
  5.76000E-002	  4.23870E-001	  3.92861E-001	  3.97932E-001	  4.24161E-001
  6.40000E-002	  4.12358E-001	  3.93262E-001	  3.95612E-001	  3.84320E-001
  7.04000E-002	  4.15079E-001	  3.81264E-001	  3.84497E-001	  3.85094E-001
  7.68000E-002	  3.90425E-001	  3.77417E-001	  3.71411E-001	  3.76161E-001
  8.32000E-002	  3.86432E-001	  3.67611E-001	  3.51580E-001	  3.62766E-001
  8.96000E-002	  3.62686E-001	  3.42200E-001	  3.49612E-001	  3.62647E-001
  9.60000E-002	  3.83710E-001	  3.46075E-001	  3.31241E-001	  3.48144E-001
  1.02400E-001	  3.60818E-001	  3.37155E-001	  3.22607E-001	  3.35100E-001
  1.15200E-001	  3.38518E-001	  3.13982E-001	  2.96518E-001	  3.16759E-001
  1.28000E-001	  3.10877E-001	  2.96070E-001	  2.91174E-001	  2.86533E-001
  1.40800E-001	  2.99576E-001	  2.80853E-001	  2.70293E-001	  2.74532E-001
  1.53600E-001	  2.65120E-001	  2.62359E-001	  2.51025E-001	  2.68670E-001
  1.66400E-001	  2.51338E-001	  2.37689E-001	  2.25092E-001	  2.29778E-001
  1.79200E-001	  2.40973E-001	  2.27317E-001	  2.24475E-001	  2.25580E-001
  1.92000E-001	  2.34106E-001	  2.16120E-001	  1.98249E-001	  2.24250E-001
  2.04800E-001	  2.16770E-001	  2.02634E-001	  1.97943E-001	  1.97496E-001
  2.30400E-001	  1.82482E-001	  1.74338E-001	  1.71953E-001	  1.76404E-001
  2.56000E-001	  1.65613E-001	  1.55657E-001	  1.54198E-001	  1.48141E-001
  2.81600E-001	  1.41996E-001	  1.44479E-001	  1.37200E-001	  1.35854E-001
  3.07200E-001	  1.25172E-001	  1.32017E-001	  1.29242E-001	  1.13124E-001
  3.32800E-001	  1.20194E-001	  1.17345E-001	  1.06838E-001	  1.00937E-001
  3.58400E-001	  1.04804E-001	  1.10677E-001	  9.52503E-002	  7.95322E-002
  3.84000E-001	  9.65238E-002	  9.13678E-002	  7.75061E-002	  8.34334E-002
  4.09600E-001	  8.35813E-002	  8.03340E-002	  6.86718E-002	  7.08421E-002
  4.60800E-001	  6.79076E-002	  6.98490E-002	  5.26957E-002	  5.20113E-002
  5.12000E-001	  4.90264E-002	  6.06744E-002	  4.68659E-002	  4.08577E-002
  5.63200E-001	  3.39018E-002	  5.38873E-002	  4.42412E-002	  3.26350E-002
  6.14400E-001	  2.78720E-002	  4.76161E-002	  3.11576E-002	  2.35014E-002
  6.65600E-001	  2.47990E-002	  4.17943E-002	  3.36587E-002	  2.42457E-002
  7.16800E-001	  1.91460E-002	  3.13438E-002	  2.25332E-002	  1.81820E-002
  7.68000E-001	  8.02345E-003	  3.09366E-002	  2.18448E-002	  1.32727E-002
  8.19200E-001	  2.15459E-003	  3.28151E-002	  1.86636E-002	  1.21972E-002
  9.21600E-001	 -5.01918E-003	  2.35178E-002	  1.37908E-002	  5.33003E-003
  1.02400E+000	 -6.62306E-003	  2.72015E-002	  1.90340E-002	 -2.07027E-003
  1.12640E+000	 -7.58630E-003	  2.45457E-002	  1.69099E-002	 -5.26665E-003
  1.22880E+000	 -1.43437E-002	  1.74549E-002	  1.67197E-002	 -3.21236E-003
  1.33120E+000	 -8.54612E-003	  1.75606E-002	  1.73325E-002	 -1.23131E-003
  1.43360E+000	 -1.10992E-002	  1.54515E-002	  1.84031E-002	  8.55526E-003
  1.53600E+000	 -8.94533E-003	  1.92079E-002	  1.62134E-002	  7.04613E-003
  1.63840E+000	 -9.61177E-003	  1.41862E-002	  1.57210E-002	  6.63602E-003
  1.84320E+000	 -3.77320E-003	  9.97956E-003	  5.76042E-003	  3.89869E-003
  2.04800E+000	  3.12072E-003	  1.57089E-003	  3.10394E-003	  5.03625E-003
  2.25280E+000	  2.39825E-003	  2.72496E-003	 -8.51105E-003	  7.59890E-003
  2.45760E+000	 -9.08423E-003	  9.44305E-004	 -6.62706E-003	  1.92164E-003
  2.66240E+000	 -8.58914E-003	 -3.72315E-003	 -1.34212E-003	 -3.18314E-004
  2.86720E+000	  4.23802E-003	 -4.00166E-003	  4.75888E-003	  8.11552E-003
  3.07200E+000	  2.48395E-004	  3.63590E-003	  5.05931E-003	  8.51876E-003
  3.27680E+000	 -2.49532E-003	  7.90435E-003	 -9.10514E-004	  1.13474E-002
  3.68640E+000	  5.61902E-003	  1.14068E-002	 -8.21434E-003	  2.05646E-002
  4.09600E+000	  7.38670E-003	  1.26707E-002	 -1.57233E-002	  9.54949E-003
  4.50560E+000	 -9.99285E-003	  6.21572E-003	 -2.71853E-002	  5.22790E-003
  4.91520E+000	 -9.66491E-003	  6.13003E-003	 -1.17300E-002	  8.71286E-003
  5.32480E+000	  7.74168E-003	 -8.96634E-004	 -3.56849E-003	  1.71559E-002
  5.73440E+000	  1.30793E-002	 -2.13232E-003	 -8.06566E-003	  4.16986E-003
  6.14400E+000	  1.22180E-002	 -4.46057E-005	 -5.22869E-003	 -2.18742E-003
  6.55360E+000	  4.47825E-003	 -3.02143E-003	 -1.06269E-002	 -2.98633E-003
  7.37280E+000	 -8.30112E-003	 -1.47399E-002	  2.63617E-003	 -4.01229E-005
  8.19200E+000	 -7.82293E-003	 -8.65391E-003	 -1.92984E-002	  1.26872E-003
  9.01120E+000	 -1.83505E-003	  3.72099E-003	 -5.31836E-003	  1.87195E-002
  9.83040E+000	 -6.94000E-003	  5.98939E-003	  3.55394E-003	  6.88124E-003
  1.06496E+001	  1.12019E-002	 -7.12149E-004	 -3.73020E-003	 -1.46303E-003
  1.14688E+001	  1.45961E-002	 -9.31845E-003	 -3.14755E-003	 -8.27033E-003
  1.22880E+001	  9.76335E-003	 -7.01402E-003	 -1.02038E-002	  3.86998E-003
  1.31072E+001	 -1.30444E-003	 -4.13699E-003	  1.57342E-004	  7.08778E-003
  1.47456E+001	 -6.98641E-003	 -1.26724E-002	  5.99935E-003	 -9.97935E-003
  1.63840E+001	  8.50021E-003	 -1.05595E-002	  8.85508E-003	 -2.64011E-003
  1.80224E+001	  9.59069E-003	 -5.88433E-003	  5.03625E-003	 -4.40058E-003
  1.96608E+001	 -1.04735E-003	 -2.22881E-003	 -8.29724E-003	  1.61375E-003
  2.12992E+001	  2.32403E-003	  3.60862E-003	  5.47669E-004	 -7.76362E-003
  2.29376E+001	  1.46616E-003	  8.33255E-003	 -2.76816E-003	  7.08656E-003
  2.45760E+001	  1.14559E-003	 -8.57046E-003	 -7.84651E-004	 -5.53525E-004
  2.62144E+001	  4.75394E-003	 -3.94865E-003	  1.98756E-003	 -3.22709E-003
  2.94912E+001	  5.81772E-003	  8.22867E-004	 -9.92470E-003	  1.90215E-003
  3.27680E+001	  2.43144E-003	  2.13388E-003	  2.98313E-003	  1.44861E-003
  3.60448E+001	  8.15166E-003	  7.97193E-003	 -2.93017E-003	  2.14800E-003
  3.93216E+001	  3.58425E-003	 -2.75284E-003	  1.13981E-003	 -2.60680E-003
  4.25984E+001	 -2.02801E-003	  5.17589E-004	  9.94541E-003	 -7.28096E-003
  4.58752E+001	  2.13992E-003	 -5.02494E-004	 -4.52892E-003	 -5.52755E-004
  4.91520E+001	  7.52446E-003	 -2.85313E-004	 -2.40765E-003	 -7.14292E-003
  5.24288E+001	  7.97360E-003	  1.45776E-003	  3.42863E-003	 -1.38139E-003
  5.89824E+001	 -3.85945E-004	  6.35638E-004	 -3.37089E-003	  6.84480E-003
  6.55360E+001	  1.19916E-003	  6.53166E-003	  5.00015E-003	  9.41356E-003
  7.20896E+001	  6.27347E-003	 -9.59513E-004	 -1.86117E-003	  1.20314E-004
  7.86432E+001	  1.70044E-003	 -2.25411E-003	 -7.17219E-003	 -5.86245E-003
  8.51968E+001	  2.60330E-003	 -1.37692E-003	  2.49610E-003	  7.36444E-005
  9.17504E+001	  1.82592E-003	  7.52652E-004	  1.60158E-004	 -1.15704E-003
  9.83040E+001	 -9.96535E-004	  5.89534E-004	  4.97692E-004	 -5.13373E-004
  1.04858E+002	  2.55452E-003	 -6.53365E-004	 -1.73701E-004	 -2.21695E-003
  1.17965E+002	 -4.52077E-003	  5.37039E-003	  1.06122E-003	 -1.18595E-003
  1.31072E+002	 -3.47238E-005	  2.14432E-003	  1.16917E-003	  9.26244E-005
  1.44179E+002	 -9.75375E-004	 -3.87476E-003	 -1.77364E-004	 -2.17538E-003
  1.57286E+002	 -5.04591E-005	 -1.40199E-003	 -1.72542E-003	 -1.77607E-003
  1.70394E+002	 -1.14235E-003	  1.94020E-003	 -2.33926E-003	 -1.37652E-003
  1.83501E+002	 -5.32075E-003	  7.80926E-004	 -4.39763E-004	 -4.03672E-004
  1.96608E+002	  1.44914E-003	 -6.00694E-003	 -1.02920E-003	 -1.05931E-003
  2.09715E+002	  3.64852E-004	 -3.80980E-004	 -2.13004E-003	 -1.40467E-003
  2.35930E+002	  3.31783E-004	 -2.95031E-003	  2.22602E-003	  2.60500E-006
  2.62144E+002	  2.54423E-003	  5.67420E-004	  2.93753E-003	 -2.28818E-003
  2.88358E+002	  2.53587E-003	 -2.97630E-003	  7.96864E-004	  1.80949E-003
  3.14573E+002	  2.26397E-003	 -4.58890E-003	 -2.18621E-003	 -2.96184E-003
  3.40787E+002	  1.93244E-003	 -1.63586E-003	  1.54647E-003	 -5.13891E-004
  3.67002E+002	  2.84257E-003	 -3.04537E-003	 -2.48756E-004	  2.22521E-003
  3.93216E+002	 -5.07513E-005	  2.82112E-003	  9.84686E-004	  8.89420E-005

"Count Rate"
       0.01311	      46.38672	      50.27771	      49.51477	      52.56653
       0.02621	      50.58289	      64.08691	      50.43030	      52.79541
       0.03932	      50.12512	      48.37036	      60.57739	      50.43030
       0.05243	      59.66187	      53.17688	      48.75183	      61.03516
       0.06554	      58.89893	      57.44934	      54.55017	      48.29407
       0.07864	      54.70276	      60.19592	      54.70276	      39.97803
       0.09175	      56.22864	      52.94800	      51.11694	      43.02979
       0.10486	      65.07874	      53.48206	      43.41125	      42.72461
       0.11796	      64.31580	      59.20410	      56.91528	      65.53650
       0.13107	      52.18506	      64.31580	      54.32129	      56.15234
       0.14418	      66.90979	      56.45752	      47.45483	      36.69739
       0.15729	      61.64551	      55.16052	      58.67004	      39.36768
       0.17039	      58.82263	      50.20142	      53.25317	      43.79272
       0.18350	      44.32678	      58.89893	      58.44116	      68.20679
       0.19661	      67.29126	      55.31311	      62.78992	      46.31042
       0.20972	      65.46021	      53.78723	      53.86353	      44.40308
       0.22282	      77.05688	      62.48474	      62.17957	      57.52563
       0.23593	      51.87988	      74.84436	      54.24500	      53.17688
       0.24904	      62.78992	      58.05969	      47.60742	      44.63196
       0.26214	      62.02698	      58.97522	      54.62646	      59.89075
       0.27525	      51.80359	      53.63464	      63.40027	      49.20959
       0.28836	      61.95068	      46.53931	      56.83899	      49.59106
       0.30147	      67.90161	      64.31580	      45.16602	      58.05969
       0.31457	      54.70276	      54.55017	      48.98071	      57.90710
       0.32768	      45.92896	      51.34583	      62.10327	      58.89893
       0.34079	      47.30225	      43.18237	      56.15234	      45.01343
       0.35389	      69.42749	      84.45740	      44.17419	      54.16870
       0.36700	      50.20142	      46.69189	      51.57471	      61.72180
       0.38011	      53.02429	      49.89624	      66.45203	      47.76001
       0.39322	      55.23682	      51.87988	      56.61011	      50.12512
       0.40632	      40.51208	      44.78455	      57.98340	      40.51208
       0.41943	      59.96704	      56.30493	      60.50110	      41.88538
       0.43254	      49.05701	      60.19592	      44.17419	      51.72729
       0.44564	      47.91260	      45.62378	      55.69458	      44.93713
       0.45875	      52.18506	      46.31042	      59.28040	      52.41394
       0.47186	      48.37036	      52.26135	      52.33765	      55.23682
       0.48497	      51.42212	      52.87170	      54.01611	      58.05969
       0.49807	      59.35669	      52.56653	      59.05151	      46.46301
       0.51118	      50.58289	      48.21777	      63.40027	      54.85535
       0.52429	      59.58557	      66.83350	      60.72998	      55.84717
       0.53740	      52.10876	      48.52295	      53.71094	      57.14417
       0.55050	      53.48206	      36.84998	      45.08972	      51.65100
       0.56361	      59.66187	      62.63733	      55.46570	      55.23682
       0.57672	      59.12781	      48.59924	      47.37854	      59.20410
       0.58982	      68.20679	      58.05969	      51.95618	      71.48743
       0.60293	      58.28857	      44.47937	      51.11694	      58.36487
       0.61604	      52.87170	      58.59375	      47.53113	      54.62646
       0.62915	      53.78723	      56.99158	      54.70276	      51.57471
       0.64225	      43.56384	      44.63196	      58.82263	      54.55017
       0.65536	      51.26953	      51.26953	      59.58557	      38.98621
       0.66847	      60.19592	      50.81177	      62.71362	      63.24768
       0.68157	      42.72461	      43.48755	      56.68640	      55.23682
       0.69468	      52.49023	      60.80627	      54.16870	      53.32947
       0.70779	      44.86084	      48.21777	      43.48755	      47.07336
       0.72090	      51.04065	      51.04065	      53.25317	      39.67285
       0.73400	      42.41943	      51.65100	      68.89343	      69.27490
       0.74711	      46.15784	      81.63452	      60.11963	      44.55566
