ALV-7004/USB-FAST
Date :	"11/11/2025"
Time :	"3:53:05 PM"
Samplename : 	""
SampMemo(0) : 	""
SampMemo(1) : 	""
SampMemo(2) : 	""
SampMemo(3) : 	""
SampMemo(4) : 	""
SampMemo(5) : 	""
SampMemo(6) : 	""
SampMemo(7) : 	""
SampMemo(8) : 	""
SampMemo(9) : 	""
Temperature [K] :	     298.16000
Viscosity [cp]  :	       0.89000
Refractive Index:	       1.33200
Wavelength [nm] :	       0.00000
Angle [°]       :	       0.00000
Duration [s]    :	         1
FloatDur [ms]   :	          944
Stop TP [ms]   :	     58074
Runs            :	         1
Mode            :	"A-CH0+1  A-CH2+3 "
MeanCR0 [kHz]   :	      58.70501
MeanCR1 [kHz]   :	      59.62902
MeanCR2 [kHz]   :	      58.43375
MeanCR3 [kHz]   :	      56.82309

"Correlation"
  3.12500E-006	 -1.00000E+000	 -1.00000E+000	 -1.00000E+000	 -1.00000E+000
  6.25000E-006	 -1.00000E+000	 -1.00000E+000	 -1.00000E+000	 -1.00000E+000
  9.37500E-006	 -1.00000E+000	 -1.00000E+000	 -1.00000E+000	 -1.00000E+000
  1.25000E-005	 -1.00000E+000	 -1.00000E+000	 -1.00000E+000	 -1.00000E+000
  1.56250E-005	 -1.00000E+000	 -1.00000E+000	 -1.00000E+000	 -1.00000E+000
  1.87500E-005	 -1.00000E+000	 -1.00000E+000	 -1.00000E+000	 -1.00000E+000
  2.18750E-005	 -7.04826E-001	 -1.41709E-001	  1.91685E-001	 -7.89967E-001
  2.50000E-005	  1.27748E+001	  1.17790E+001	  8.93071E+000	  2.48341E+001
  2.81250E-005	  3.72279E+000	  2.33780E+000	  2.17783E+000	  7.82139E+000
  3.12500E-005	  9.67828E-001	  1.09805E+000	  1.18476E+000	  4.56588E+000
  3.43750E-005	  1.65657E+000	  1.76561E+000	  7.87527E-001	  4.25083E+000
  3.75000E-005	  3.77480E-001	  5.25851E-001	  3.90299E-001	  3.72574E+000
  4.06250E-005	  1.16461E+000	  7.16583E-001	  6.88220E-001	  3.20066E+000
  4.37500E-005	  9.67828E-001	  1.09805E+000	  1.18476E+000	  1.73043E+000
  4.68750E-005	  2.79088E-001	  1.28878E+000	  7.87527E-001	  2.46555E+000
  5.00000E-005	  4.26675E-001	  4.78168E-001	  9.36487E-001	  2.30802E+000
  5.62500E-005	  7.71045E-001	  8.59631E-001	  7.37873E-001	  2.41304E+000
  6.25000E-005	  9.18632E-001	  1.00268E+000	  6.38566E-001	  7.32773E-001
  6.87500E-005	  5.25067E-001	  1.19341E+000	  4.89606E-001	  2.09799E+000
  7.50000E-005	  8.20241E-001	  7.16583E-001	  4.89606E-001	  1.04782E+000
  8.12500E-005	  8.23054E-002	  3.35120E-001	  4.39952E-001	  1.04782E+000
  8.75000E-005	  8.23054E-002	  1.00268E+000	 -6.92952E-003	  1.10033E+000
  9.37500E-005	  9.18632E-001	  5.73534E-001	  1.18476E+000	  1.57291E+000
  1.00000E-004	  4.75871E-001	  8.83472E-001	  5.14432E-001	  1.25786E+000
  1.12500E-004	  5.74262E-001	  7.16582E-001	  9.11660E-001	  8.64044E-001
  1.25000E-004	  6.97251E-001	  6.92741E-001	  6.75507E-002	  6.54010E-001
  1.37500E-004	  3.03686E-001	  3.82803E-001	  3.90299E-001	  8.37789E-001
  1.50000E-004	  2.05295E-001	  4.54327E-001	  3.40645E-001	  7.59027E-001
  1.62500E-004	  3.52882E-001	  5.25851E-001	  3.15818E-001	  8.11535E-001
  1.75000E-004	  6.72654E-001	  4.78168E-001	  8.62007E-001	  6.54010E-001
  1.87500E-004	  6.97251E-001	  6.45058E-001	  7.87527E-001	  6.54010E-001
  2.00000E-004	  7.34148E-001	  6.92741E-001	  5.51672E-001	  7.32773E-001
  2.25000E-004	  4.02077E-001	  6.80820E-001	  4.77192E-001	  6.27756E-001
  2.50000E-004	  4.51273E-001	  3.94723E-001	  4.64778E-001	  4.57104E-001
  2.75000E-004	  5.61963E-001	  5.49692E-001	  5.64085E-001	  6.93391E-001
  3.00000E-004	  4.26675E-001	  6.33137E-001	  2.41338E-001	  4.17723E-001
  3.25000E-004	  4.14376E-001	  5.61613E-001	  5.64085E-001	  5.62121E-001
  3.50000E-004	  7.09550E-001	  4.90089E-001	  5.14432E-001	  8.90297E-001
  3.75000E-004	  6.48055E-001	  5.13930E-001	  4.02712E-001	  6.93391E-001
  4.00000E-004	  5.86560E-001	  5.07969E-001	  3.65471E-001	  4.63667E-001
  4.50000E-004	  4.88169E-001	  4.78167E-001	  3.77884E-001	  6.47446E-001
  5.00000E-004	  4.94318E-001	  5.61612E-001	  4.70985E-001	  4.57104E-001
  5.50000E-004	  3.89778E-001	  4.18564E-001	  5.45465E-001	  5.88374E-001
  6.00000E-004	  5.43514E-001	  4.96048E-001	  5.64085E-001	  4.30849E-001
  6.50000E-004	  4.69720E-001	  5.85454E-001	  5.57878E-001	  5.88374E-001
  7.00000E-004	  5.55813E-001	  3.70881E-001	  6.19945E-001	  5.55556E-001
  7.50000E-004	  4.69720E-001	  6.39097E-001	  5.26845E-001	  4.37413E-001
  8.00000E-004	  4.20524E-001	  6.06314E-001	  5.23740E-001	  4.17748E-001
  9.00000E-004	  4.63570E-001	  4.18563E-001	  5.29947E-001	  5.22766E-001
  1.00000E-003	  5.52737E-001	  4.87107E-001	  5.39257E-001	  3.78366E-001
  1.10000E-003	  5.43513E-001	  4.87107E-001	  5.54774E-001	  3.94775E-001
  1.20000E-003	  5.28139E-001	  4.72206E-001	  5.73394E-001	  6.37630E-001
  1.30000E-003	  3.71328E-001	  4.78166E-001	  4.02710E-001	  4.76820E-001
  1.40000E-003	  4.32822E-001	  5.31809E-001	  5.79600E-001	  4.83384E-001
  1.50000E-003	  5.83484E-001	  5.16908E-001	  4.43053E-001	  4.21029E-001
  1.60000E-003	  4.45119E-001	  4.57302E-001	  4.44629E-001	  5.01460E-001
  1.80000E-003	  5.00464E-001	  4.87104E-001	  4.50835E-001	  5.90070E-001
  2.00000E-003	  4.97389E-001	  3.93229E-001	  5.82730E-001	  4.17745E-001
  2.20000E-003	  4.65105E-001	  4.00679E-001	  4.91180E-001	  5.44095E-001
  2.40000E-003	  5.02001E-001	  5.07965E-001	  4.81869E-001	  4.57127E-001
  2.60000E-003	  4.23596E-001	  4.72203E-001	  3.65492E-001	  3.89850E-001
  2.80000E-003	  3.85162E-001	  4.82634E-001	  5.06697E-001	  4.83382E-001
  3.00000E-003	  4.05148E-001	  4.69223E-001	  5.05145E-001	  5.06354E-001
  3.20000E-003	  4.26666E-001	  4.28241E-001	  4.80339E-001	  4.53047E-001
  3.60000E-003	  4.41271E-001	  4.72943E-001	  4.26003E-001	  5.09659E-001
  4.00000E-003	  4.53570E-001	  4.56552E-001	  4.27555E-001	  3.83307E-001
  4.40000E-003	  4.48189E-001	  4.31221E-001	  3.73246E-001	  4.39919E-001
  4.80000E-003	  3.97456E-001	  3.98439E-001	  3.97297E-001	  4.69456E-001
  5.20000E-003	  4.18210E-001	  4.35691E-001	  4.51606E-001	  4.18561E-001
  5.60000E-003	  4.49726E-001	  4.25261E-001	  4.13590E-001	  4.80095E-001
  6.00000E-003	  3.80545E-001	  3.99184E-001	  4.29107E-001	  3.90666E-001
  6.40000E-003	  3.94372E-001	  4.25649E-001	  3.94210E-001	  4.30091E-001
  7.20000E-003	  4.17432E-001	  3.94729E-001	  4.24856E-001	  4.14502E-001
  8.00000E-003	  3.93988E-001	  4.15218E-001	  4.24080E-001	  4.30091E-001
  8.80000E-003	  3.97447E-001	  4.05905E-001	  4.25632E-001	  4.30911E-001
  9.60000E-003	  3.78230E-001	  4.34217E-001	  3.75977E-001	  4.28450E-001
  1.04000E-002	  3.83995E-001	  4.29002E-001	  4.41511E-001	  3.96451E-001
  1.12000E-002	  3.70543E-001	  3.39247E-001	  3.49961E-001	  4.01374E-001
  1.20000E-002	  3.74771E-001	  3.85441E-001	  3.50737E-001	  4.13655E-001
  1.28000E-002	  3.64015E-001	  3.92922E-001	  3.57581E-001	  4.01407E-001
  1.44000E-002	  4.05140E-001	  3.72991E-001	  3.56224E-001	  3.82331E-001
  1.60000E-002	  3.37688E-001	  3.60487E-001	  3.44198E-001	  3.77408E-001
  1.76000E-002	  3.72880E-001	  3.34037E-001	  3.46331E-001	  3.74100E-001
  1.92000E-002	  3.41580E-001	  3.59183E-001	  3.12969E-001	  3.74510E-001
  2.08000E-002	  3.42925E-001	  3.20254E-001	  3.44973E-001	  3.62819E-001
  2.24000E-002	  3.20825E-001	  3.24724E-001	  3.32366E-001	  3.43948E-001
  2.40000E-002	  3.10063E-001	  3.27518E-001	  3.34475E-001	  3.59537E-001
  2.56000E-002	  3.17618E-001	  3.07203E-001	  3.22703E-001	  3.53807E-001
  2.88000E-002	  3.16850E-001	  2.97423E-001	  3.06216E-001	  3.43346E-001
  3.20000E-002	  2.97152E-001	  3.02802E-001	  2.89049E-001	  3.14629E-001
  3.52000E-002	  2.89369E-001	  2.95001E-001	  2.74307E-001	  3.07396E-001
  3.84000E-002	  2.73131E-001	  2.70249E-001	  2.55760E-001	  2.72705E-001
  4.16000E-002	  2.75341E-001	  2.54974E-001	  2.59348E-001	  2.60090E-001
  4.48000E-002	  2.39693E-001	  2.60749E-001	  2.54499E-001	  2.74117E-001
  4.80000E-002	  2.46996E-001	  2.29547E-001	  2.22300E-001	  2.34221E-001
  5.12000E-002	  2.41663E-001	  2.26320E-001	  2.10697E-001	  2.34679E-001
  5.76000E-002	  2.07360E-001	  1.99657E-001	  2.01191E-001	  2.12884E-001
  6.40000E-002	  1.95158E-001	  1.85989E-001	  1.88242E-001	  2.00833E-001
  7.04000E-002	  1.79400E-001	  1.73020E-001	  1.65033E-001	  1.90496E-001
  7.68000E-002	  1.62969E-001	  1.59188E-001	  1.50802E-001	  1.84547E-001
  8.32000E-002	  1.47307E-001	  1.53718E-001	  1.53566E-001	  1.57880E-001
  8.96000E-002	  1.44809E-001	  1.38302E-001	  1.36551E-001	  1.36935E-001
  9.60000E-002	  1.31453E-001	  1.18788E-001	  1.24738E-001	  1.33734E-001
  1.02400E-001	  1.18429E-001	  1.11378E-001	  1.07703E-001	  1.18533E-001
  1.15200E-001	  1.03320E-001	  9.90562E-002	  8.58472E-002	  9.42252E-002
  1.28000E-001	  7.88220E-002	  8.49915E-002	  7.15671E-002	  8.52711E-002
  1.40800E-001	  6.39528E-002	  6.54495E-002	  5.89751E-002	  8.24762E-002
  1.53600E-001	  5.75151E-002	  5.38591E-002	  5.24614E-002	  7.67325E-002
  1.66400E-001	  5.07891E-002	  4.95595E-002	  4.64226E-002	  5.59630E-002
  1.79200E-001	  4.33665E-002	  3.41928E-002	  3.48114E-002	  5.54896E-002
  1.92000E-001	  4.14688E-002	  2.63906E-002	  4.02923E-002	  5.68802E-002
  2.04800E-001	  3.39162E-002	  2.40026E-002	  3.25357E-002	  3.94889E-002
  2.30400E-001	  2.42885E-002	  1.20739E-002	  1.67156E-002	  2.79696E-002
  2.56000E-001	  1.55867E-002	  4.83280E-003	  4.85549E-003	  1.74371E-002
  2.81600E-001	  1.41510E-002	  1.88025E-003	  1.67336E-002	  9.17351E-003
  3.07200E-001	  1.29436E-002	  4.76291E-003	  1.98865E-002	  1.04398E-002
  3.32800E-001	  6.16317E-003	 -3.12311E-003	  1.61573E-002	  2.41939E-003
  3.58400E-001	 -1.34363E-003	 -1.70310E-003	  1.72118E-002	  4.01535E-003
  3.84000E-001	  5.10059E-003	  3.75067E-004	  1.02878E-002	  1.87279E-003
  4.09600E-001	  2.51398E-005	  1.41826E-003	  1.31058E-002	  9.58952E-004
  4.60800E-001	 -2.41962E-003	 -7.73499E-003	  6.62248E-003	 -3.56593E-003
  5.12000E-001	 -3.63320E-003	 -2.81275E-003	  5.85870E-003	 -2.66447E-003
  5.63200E-001	  7.13363E-003	 -9.06909E-003	  3.20777E-003	 -6.97348E-003
  6.14400E-001	  4.77835E-003	 -1.22181E-003	 -5.77761E-004	 -6.50004E-003
  6.65600E-001	 -1.12416E-004	  4.17131E-003	  4.20257E-003	 -7.06619E-003
  7.16800E-001	  2.15278E-003	  1.45154E-003	  7.78778E-003	 -6.56492E-003
  7.68000E-001	  3.25824E-003	  6.05884E-004	  5.85240E-003	 -5.71002E-003
  8.19200E-001	  7.61942E-004	  7.49998E-003	  4.78303E-003	 -1.35180E-003
  9.21600E-001	  3.90105E-003	 -9.32946E-004	 -2.35598E-004	  7.16455E-003
  1.02400E+000	 -4.76711E-003	  7.31043E-003	  5.26907E-003	  1.44258E-002
  1.12640E+000	 -9.81083E-003	  7.10802E-003	  5.06569E-003	  5.04535E-003
  1.22880E+000	 -7.88450E-003	  1.27735E-002	  6.86682E-003	  8.94885E-004
  1.33120E+000	 -5.40582E-003	  1.01793E-002	  6.26898E-003	 -9.35203E-003
  1.43360E+000	 -8.18886E-003	 -2.59180E-003	  8.82029E-003	 -6.36204E-003
  1.53600E+000	 -5.80719E-004	 -3.35040E-003	  5.91961E-003	 -6.21325E-003
  1.63840E+000	 -4.52587E-003	  5.75943E-003	  2.44062E-003	 -2.26571E-003
  1.84320E+000	 -1.18894E-003	  1.45585E-002	 -7.90124E-003	 -5.20532E-003
  2.04800E+000	  8.92871E-004	  4.82901E-003	  9.23611E-006	 -3.06051E-003
  2.25280E+000	 -7.09259E-003	 -3.00367E-003	  3.54144E-003	 -7.42727E-003
  2.45760E+000	  2.99706E-003	 -5.71043E-003	  1.31716E-003	  3.15772E-003
  2.66240E+000	  1.12736E-002	 -3.62941E-003	 -2.52369E-003	 -6.99070E-004
  2.86720E+000	 -1.68567E-004	  1.07226E-003	  6.53552E-003	  1.44130E-003
  3.07200E+000	 -1.46930E-003	 -4.66681E-004	 -3.08232E-003	  5.20245E-003
  3.27680E+000	 -5.12755E-003	  1.36500E-003	 -1.67548E-003	  4.74969E-003
  3.68640E+000	 -5.98225E-004	 -1.82035E-003	 -5.47159E-004	 -3.04644E-003
  4.09600E+000	 -6.64300E-003	  4.34310E-003	 -5.29964E-003	 -5.68761E-004
  4.50560E+000	 -5.95803E-003	  8.79944E-004	 -1.97771E-003	  1.76707E-004
  4.91520E+000	 -3.84834E-003	 -4.45828E-004	 -1.97361E-004	 -5.31411E-004
  5.32480E+000	 -1.13408E-003	 -1.43134E-004	  1.89112E-003	  2.55362E-003
  5.73440E+000	 -5.82199E-004	 -1.15865E-004	  1.58515E-003	  2.69402E-003
  6.14400E+000	 -7.04502E-004	 -1.22773E-003	 -3.79778E-003	 -8.19507E-003
  6.55360E+000	  3.01778E-003	  2.24032E-003	 -1.26004E-003	 -3.25561E-003
  7.37280E+000	  1.37919E-003	 -1.31063E-003	 -3.50225E-003	  2.00062E-004
  8.19200E+000	  2.07475E-003	  2.00681E-003	  1.34013E-004	  4.36034E-003
  9.01120E+000	  3.40658E-003	  3.67793E-003	 -1.05055E-003	  1.72381E-003
  9.83040E+000	  2.19921E-003	 -3.52847E-004	  1.38792E-004	 -4.97499E-003
  1.06496E+001	 -7.50200E-004	  4.79467E-003	 -3.47143E-003	 -5.10392E-003
  1.14688E+001	 -2.72044E-003	  2.90827E-003	  6.34567E-004	  1.57545E-003
  1.22880E+001	  2.51614E-003	 -4.02193E-003	 -4.41972E-003	  5.00032E-003
  1.31072E+001	  9.09888E-004	 -1.36251E-003	 -2.70051E-003	  1.01951E-003
  1.47456E+001	 -3.05855E-003	 -3.38092E-003	 -1.33477E-003	 -6.38609E-004
  1.63840E+001	  2.37129E-003	  2.27448E-003	  3.72903E-003	  2.23075E-003
  1.80224E+001	 -2.33925E-003	  1.15760E-003	 -1.13216E-003	 -1.48937E-003
  1.96608E+001	 -6.66340E-004	  2.25209E-003	 -2.65122E-004	  1.19618E-003
  2.12992E+001	  1.86987E-003	  1.74196E-004	  7.46768E-004	 -4.59005E-003
  2.29376E+001	  2.50116E-003	  7.70717E-004	  1.56639E-003	  1.83372E-003
  2.45760E+001	 -3.44543E-003	  1.11459E-003	  3.03993E-004	 -4.30208E-004
  2.62144E+001	  8.45218E-004	  2.17164E-004	 -1.65247E-003	 -5.51691E-004
  2.94912E+001	 -1.66350E-003	  6.17615E-004	  1.00715E-003	 -4.44065E-004
  3.27680E+001	  1.32640E-003	 -1.65608E-003	  1.97674E-004	  3.15731E-004
  3.60448E+001	 -3.31075E-003	 -3.93540E-004	 -2.59707E-003	  1.36887E-003
  3.93216E+001	 -5.24962E-004	  7.07270E-004	 -1.68306E-003	 -1.86374E-003
  4.25984E+001	 -3.16774E-003	  2.77465E-005	 -1.51921E-003	  2.08168E-003
  4.58752E+001	  2.73645E-004	  1.77058E-003	  1.20453E-003	 -3.67256E-003
  4.91520E+001	  2.16556E-003	 -2.99835E-004	  3.40987E-003	  1.56916E-003
  5.24288E+001	 -1.15188E-003	 -6.13221E-004	  7.61082E-004	 -9.56941E-004
  5.89824E+001	  6.83263E-004	 -4.54202E-004	 -8.11382E-004	 -8.78230E-004
  6.55360E+001	 -1.79097E-003	  9.49118E-004	  1.92218E-004	 -5.56138E-004
  7.20896E+001	  4.52922E-004	  3.86704E-004	  7.13510E-004	  2.50408E-004
  7.86432E+001	  2.94736E-004	 -2.32172E-004	  2.96057E-004	 -1.46471E-004
  8.51968E+001	  4.89258E-004	  1.19834E-003	  3.58569E-004	  7.44432E-004
  9.17504E+001	 -1.67444E-004	 -1.07459E-003	  1.74067E-003	 -5.95947E-004
  9.83040E+001	  7.88843E-004	 -1.79258E-003	 -2.74014E-003	 -3.51408E-004
  1.04858E+002	 -1.19198E-003	 -1.17891E-003	 -4.17399E-004	 -1.12834E-004
  1.17965E+002	 -1.95331E-005	  6.93368E-004	 -4.81048E-004	  2.84498E-004
  1.31072E+002	  1.37735E-003	 -4.72182E-004	 -6.40886E-004	  1.81302E-004
  1.44179E+002	  9.63377E-004	 -1.26112E-003	 -1.55530E-003	 -5.29359E-004
  1.57286E+002	 -1.30729E-004	 -1.19992E-003	  4.79670E-004	  1.34081E-003
  1.70394E+002	 -2.03500E-003	 -1.48712E-003	  1.42410E-005	 -8.14932E-004
  1.83501E+002	 -3.41927E-004	  5.50791E-004	 -1.40051E-003	 -1.56090E-003
  1.96608E+002	 -3.99020E-004	 -1.24072E-003	  4.38041E-005	 -4.16237E-005
  2.09715E+002	  9.73211E-004	  6.63757E-004	  4.40740E-004	 -2.21758E-004
  2.35930E+002	  1.16750E-004	 -4.08065E-004	  3.37551E-004	  1.01749E-003
  2.62144E+002	 -9.67275E-004	 -5.37828E-006	  9.94215E-005	  9.60680E-004
  2.88358E+002	 -8.58251E-004	 -1.21780E-004	  6.25789E-004	 -3.84571E-004
  3.14573E+002	  6.54236E-004	  8.22080E-004	  6.83374E-004	 -2.93575E-004
  3.40787E+002	  1.03516E-003	  1.17567E-003	 -6.70989E-004	 -1.39692E-004
  3.67002E+002	 -2.05823E-004	 -3.28174E-004	  7.11960E-005	 -6.43160E-004
  3.93216E+002	  4.89390E-004	 -8.77250E-004	  1.75234E-004	 -1.64995E-004

"Count Rate"
       0.01311	      54.62646	      62.40845	      54.85535	      55.16052
       0.02621	      60.04333	      62.17957	      57.22046	      57.75452
       0.03932	      54.70276	      59.28040	      53.78723	      52.71912
       0.05243	      55.16052	      59.43298	      58.51746	      46.76819
       0.06554	      54.77905	      58.89893	      57.22046	      59.66187
       0.07864	      61.64551	      64.01062	      57.90710	      56.38123
       0.09175	      53.93982	      68.89343	      49.89624	      51.42212
       0.10486	      59.96704	      64.16321	      52.33765	      61.95068
       0.11796	      57.75452	      72.47925	      58.74634	      61.72180
       0.13107	      59.05151	      62.48474	      63.70544	      50.27771
       0.14418	      52.94800	      56.76270	      60.65369	      51.57471
       0.15729	      52.71912	      60.88257	      56.22864	      58.44116
       0.17039	      60.27222	      58.67004	      57.75452	      52.41394
       0.18350	      60.19592	      54.01611	      51.57471	      48.90442
       0.19661	      58.51746	      59.50928	      63.09509	      58.28857
       0.20972	      62.63733	      52.18506	      55.31311	      45.08972
       0.22282	      54.55017	      55.54199	      60.65369	      54.09241
       0.23593	      56.38123	      55.92346	      55.99976	      59.43298
       0.24904	      59.28040	      53.02429	      55.77087	      53.48206
       0.26214	      66.45203	      62.56104	      60.50110	      63.85803
       0.27525	      53.86353	      50.43030	      60.57739	      61.34033
       0.28836	      52.10876	      55.38940	      54.24500	      53.78723
       0.30147	      50.20142	      55.92346	      62.56104	      56.53381
       0.31457	      59.20410	      54.55017	      57.83081	      59.35669
       0.32768	      69.04602	      65.38391	      60.50110	      61.56921
       0.34079	      62.63733	      59.05151	      56.99158	      54.16870
       0.35389	      69.73267	      58.97522	      64.77356	      53.17688
       0.36700	      52.64282	      52.94800	      58.59375	      50.96436
       0.38011	      54.55017	      63.85803	      52.03247	      54.55017
       0.39322	      56.07605	      57.06787	      59.89075	      59.43298
       0.40632	      60.88257	      52.56653	      59.35669	      60.19592
       0.41943	      48.44666	      52.26135	      55.38940	      59.35669
       0.43254	      51.11694	      59.81445	      62.94250	      57.83081
       0.44564	      59.58557	      65.84167	      55.77087	      48.14148
       0.45875	      59.73816	      56.99158	      53.40576	      57.44934
       0.47186	      57.83081	      63.01880	      60.88257	      53.86353
       0.48497	      59.35669	      55.84717	      58.59375	      51.80359
       0.49807	      56.07605	      51.57471	      49.81995	      58.44116
       0.51118	      62.10327	      73.24219	      54.32129	      54.01611
       0.52429	      52.49023	      54.70276	      63.32397	      64.39209
       0.53740	      62.48474	      54.01611	      54.70276	      59.28040
       0.55050	      57.06787	      58.05969	      57.90710	      58.51746
       0.56361	      60.42480	      55.46570	      54.32129	      60.04333
       0.57672	      63.32397	      59.05151	      66.83350	      58.21228
       0.58982	      59.96704	      68.89343	      59.81445	      59.43298
       0.60293	      59.43298	      51.19324	      60.04333	      49.89624
       0.61604	      56.15234	      49.89624	      58.67004	      50.88806
       0.62915	      55.92346	      59.28040	      60.34851	      56.76270
       0.64225	      59.89075	      58.28857	      71.10596	      61.41663
       0.65536	      59.20410	      62.10327	      50.65918	      58.36487
       0.66847	      61.11145	      59.20410	      60.72998	      48.90442
       0.68157	      61.49292	      63.24768	      59.12781	      61.79810
       0.69468	      60.04333	      61.95068	      56.83899	      49.36218
       0.70779	      55.00793	      58.89893	      48.44666	      51.80359
       0.72090	      55.92346	      56.91528	      57.22046	      52.56653
       0.73400	      65.00244	      56.83899	      57.37305	      55.46570
       0.74711	      51.87988	      66.75720	      56.99158	      55.46570
