ALV-7004/USB-FAST
Date :	"11/11/2025"
Time :	"3:58:50 PM"
Samplename : 	""
SampMemo(0) : 	""
SampMemo(1) : 	""
SampMemo(2) : 	""
SampMemo(3) : 	""
SampMemo(4) : 	""
SampMemo(5) : 	""
SampMemo(6) : 	""
SampMemo(7) : 	""
SampMemo(8) : 	""
SampMemo(9) : 	""
Temperature [K] :	     298.16000
Viscosity [cp]  :	       0.89000
Refractive Index:	       1.33200
Wavelength [nm] :	       0.00000
Angle [°]       :	       0.00000
Duration [s]    :	         1
FloatDur [ms]   :	          944
Stop TP [ms]   :	     68163
Runs            :	         1
Mode            :	"A-CH0+1  A-CH2+3 "
MeanCR0 [kHz]   :	      56.26996
MeanCR1 [kHz]   :	      59.10344
MeanCR2 [kHz]   :	      58.76647
MeanCR3 [kHz]   :	      56.78283

"Correlation"
  3.12500E-006	 -1.00000E+000	 -1.00000E+000	 -1.00000E+000	 -1.00000E+000
  6.25000E-006	 -1.00000E+000	 -1.00000E+000	 -1.00000E+000	 -1.00000E+000
  9.37500E-006	 -1.00000E+000	 -1.00000E+000	 -1.00000E+000	 -1.00000E+000
  1.25000E-005	 -1.00000E+000	 -1.00000E+000	 -1.00000E+000	 -1.00000E+000
  1.56250E-005	 -1.00000E+000	 -1.00000E+000	 -1.00000E+000	 -1.00000E+000
  1.87500E-005	 -1.00000E+000	 -1.00000E+000	 -1.00000E+000	 -1.00000E+000
  2.18750E-005	 -8.92909E-001	 -2.93066E-002	  9.63714E-001	 -6.84503E-001
  2.50000E-005	  1.04588E+001	  1.12307E+001	  1.11750E+001	  2.59224E+001
  2.81250E-005	  2.85529E+000	  1.52380E+000	  1.74920E+000	  7.93907E+000
  3.12500E-005	  1.03474E+000	  3.58971E-001	  1.25827E+000	  4.78411E+000
  3.43750E-005	  9.27644E-001	 -2.93066E-002	  9.63714E-001	  3.52212E+000
  3.75000E-005	  9.27644E-001	  1.42673E+000	  1.35646E+000	  3.62728E+000
  4.06250E-005	  1.14183E+000	  2.61901E-001	  2.04376E+000	  3.41695E+000
  4.37500E-005	  1.46310E+000	  4.56040E-001	  4.72786E-001	  1.83947E+000
  4.68750E-005	  4.99278E-001	  1.64832E-001	  9.63714E-001	  2.04980E+000
  5.00000E-005	  9.27644E-001	  2.13367E-001	  8.65529E-001	  1.89205E+000
  5.62500E-005	  7.13461E-001	  3.10436E-001	  7.18250E-001	  1.68172E+000
  6.25000E-005	  6.06370E-001	  7.47248E-001	  5.21878E-001	  1.10331E+000
  6.87500E-005	  9.27644E-001	  3.58971E-001	  5.21878E-001	  1.36622E+000
  7.50000E-005	  6.59915E-001	  6.98713E-001	  9.14621E-001	  1.20848E+000
  8.12500E-005	  6.06370E-001	  7.47248E-001	  6.69157E-001	  8.92980E-001
  8.75000E-005	  2.85096E-001	  6.98713E-001	  6.69157E-001	  7.87814E-001
  9.37500E-005	  6.59915E-001	  7.47248E-001	  1.01281E+000	  6.30066E-001
  1.00000E-004	  8.20552E-001	  6.98713E-001	  6.69157E-001	  8.40397E-001
  1.12500E-004	  5.52824E-001	  4.56040E-001	  5.95518E-001	  6.56357E-001
  1.25000E-004	  7.40234E-001	  4.56040E-001	  1.29136E-001	  4.98609E-001
  1.37500E-004	  4.18960E-001	  7.22980E-001	  7.67343E-001	  4.72317E-001
  1.50000E-004	  4.18960E-001	  7.22980E-001	  8.16435E-001	  9.19271E-001
  1.62500E-004	  5.79597E-001	  3.34703E-001	  6.20064E-001	  5.24900E-001
  1.75000E-004	  2.85096E-001	  6.01644E-001	  7.42796E-001	  4.72317E-001
  1.87500E-004	  4.45733E-001	  4.07505E-001	  6.20064E-001	  3.93443E-001
  2.00000E-004	  8.33938E-001	  3.58970E-001	  8.04162E-001	  7.08939E-001
  2.25000E-004	  3.65414E-001	  3.10436E-001	  4.35966E-001	  4.59171E-001
  2.50000E-004	  2.98482E-001	  7.22980E-001	  2.27321E-001	  6.56357E-001
  2.75000E-004	  4.32346E-001	  4.92441E-001	  6.81430E-001	  3.27715E-001
  3.00000E-004	  4.99278E-001	  6.86579E-001	  7.42796E-001	  4.85463E-001
  3.25000E-004	  4.99278E-001	  6.62312E-001	  5.46424E-001	  5.90628E-001
  3.50000E-004	  6.19756E-001	  9.41386E-001	  3.86873E-001	  7.22085E-001
  3.75000E-004	  7.80393E-001	  3.95371E-001	  8.16435E-001	  5.11754E-001
  4.00000E-004	  5.05970E-001	  4.74239E-001	  4.78921E-001	  6.36638E-001
  4.50000E-004	  5.79596E-001	  4.07504E-001	  3.31643E-001	  5.90628E-001
  5.00000E-004	  5.26050E-001	  4.37838E-001	  7.36658E-001	  4.26307E-001
  5.50000E-004	  4.72504E-001	  4.49972E-001	  4.29828E-001	  5.70909E-001
  6.00000E-004	  4.45732E-001	  4.68173E-001	  4.60511E-001	  6.95793E-001
  6.50000E-004	  5.52823E-001	  5.95576E-001	  4.42102E-001	  4.92035E-001
  7.00000E-004	  4.45732E-001	  4.80306E-001	  5.46424E-001	  4.39452E-001
  7.50000E-004	  3.78800E-001	  4.25705E-001	  4.05282E-001	  6.62929E-001
  8.00000E-004	  4.25651E-001	  4.74238E-001	  4.57442E-001	  6.23490E-001
  9.00000E-004	  4.99276E-001	  5.47040E-001	  5.89379E-001	  5.15039E-001
  1.00000E-003	  5.09316E-001	  3.13467E-001	  4.94261E-001	  5.67621E-001
  1.10000E-003	  4.85890E-001	  4.74238E-001	  5.46422E-001	  4.88747E-001
  1.20000E-003	  4.35691E-001	  4.43904E-001	  4.57442E-001	  4.92034E-001
  1.30000E-003	  5.39435E-001	  6.31976E-001	  4.54374E-001	  5.34757E-001
  1.40000E-003	  5.56168E-001	  4.10537E-001	  4.75852E-001	  5.05179E-001
  1.50000E-003	  4.75850E-001	  3.49868E-001	  5.12671E-001	  3.57291E-001
  1.60000E-003	  4.50748E-001	  4.49968E-001	  5.18805E-001	  5.28182E-001
  1.80000E-003	  3.97202E-001	  3.68066E-001	  4.60508E-001	  5.23252E-001
  2.00000E-003	  5.54492E-001	  4.30251E-001	  4.92725E-001	  4.59167E-001
  2.20000E-003	  4.60788E-001	  4.15084E-001	  4.55905E-001	  4.69026E-001
  2.40000E-003	  4.20629E-001	  4.05984E-001	  5.46420E-001	  4.77242E-001
  2.60000E-003	  5.42779E-001	  3.98401E-001	  4.00676E-001	  5.47900E-001
  2.80000E-003	  4.18955E-001	  5.04570E-001	  4.74315E-001	  4.44378E-001
  3.00000E-003	  4.27322E-001	  4.18118E-001	  4.31359E-001	  4.75599E-001
  3.20000E-003	  4.34847E-001	  3.90054E-001	  4.02972E-001	  5.29820E-001
  3.60000E-003	  4.23970E-001	  3.92329E-001	  4.51298E-001	  4.75594E-001
  4.00000E-003	  4.69986E-001	  4.02946E-001	  4.39792E-001	  4.35336E-001
  4.40000E-003	  4.18950E-001	  3.68820E-001	  4.99623E-001	  4.27120E-001
  4.80000E-003	  4.66639E-001	  3.30903E-001	  4.07575E-001	  4.33693E-001
  5.20000E-003	  3.37796E-001	  4.25696E-001	  3.93768E-001	  4.02472E-001
  5.60000E-003	  4.75006E-001	  3.68820E-001	  4.20615E-001	  4.00007E-001
  6.00000E-003	  4.12257E-001	  4.08254E-001	  4.12177E-001	  4.19725E-001
  6.40000E-003	  4.07228E-001	  3.77153E-001	  3.96826E-001	  3.96300E-001
  7.20000E-003	  3.89240E-001	  3.84357E-001	  3.90690E-001	  3.83155E-001
  8.00000E-003	  3.72089E-001	  3.60848E-001	  3.94909E-001	  3.53988E-001
  8.80000E-003	  3.49918E-001	  3.58573E-001	  3.75757E-001	  4.14375E-001
  9.60000E-003	  3.96770E-001	  3.44165E-001	  4.11043E-001	  4.05338E-001
  1.04000E-002	  3.62049E-001	  3.84736E-001	  3.68086E-001	  3.89728E-001
  1.12000E-002	  4.19359E-001	  3.51369E-001	  3.69620E-001	  3.65080E-001
  1.20000E-002	  3.87567E-001	  3.61227E-001	  4.04522E-001	  3.95889E-001
  1.28000E-002	  3.79809E-001	  3.61613E-001	  3.86285E-001	  3.43289E-001
  1.44000E-002	  3.51782E-001	  3.55167E-001	  3.86285E-001	  3.60337E-001
  1.60000E-002	  3.42788E-001	  3.49289E-001	  3.50617E-001	  3.43700E-001
  1.76000E-002	  3.39860E-001	  3.55167E-001	  3.54836E-001	  3.67526E-001
  1.92000E-002	  3.11415E-001	  3.06064E-001	  3.37577E-001	  3.25009E-001
  2.08000E-002	  3.48854E-001	  3.08339E-001	  3.31248E-001	  3.29528E-001
  2.24000E-002	  3.27311E-001	  3.25615E-001	  3.15907E-001	  3.10837E-001
  2.40000E-002	  3.07023E-001	  3.54622E-001	  3.19742E-001	  3.10631E-001
  2.56000E-002	  3.00503E-001	  3.23754E-001	  3.09279E-001	  3.02688E-001
  2.88000E-002	  2.70281E-001	  2.75787E-001	  2.97485E-001	  3.02380E-001
  3.20000E-002	  2.65052E-001	  2.48223E-001	  2.86459E-001	  2.99402E-001
  3.52000E-002	  2.58464E-001	  2.61138E-001	  2.61552E-001	  2.79787E-001
  3.84000E-002	  2.51353E-001	  2.47180E-001	  2.45635E-001	  2.58016E-001
  4.16000E-002	  2.31065E-001	  2.34667E-001	  2.53977E-001	  2.29980E-001
  4.48000E-002	  2.30124E-001	  2.26135E-001	  2.44699E-001	  2.43433E-001
  4.80000E-002	  2.17889E-001	  2.11346E-001	  2.29306E-001	  2.18478E-001
  5.12000E-002	  2.10787E-001	  1.99427E-001	  2.13144E-001	  2.18275E-001
  5.76000E-002	  1.88042E-001	  1.75416E-001	  2.05882E-001	  1.85053E-001
  6.40000E-002	  1.83075E-001	  1.58921E-001	  1.81813E-001	  1.79867E-001
  7.04000E-002	  1.49612E-001	  1.46719E-001	  1.62347E-001	  1.68981E-001
  7.68000E-002	  1.49298E-001	  1.38329E-001	  1.62779E-001	  1.35040E-001
  8.32000E-002	  1.16881E-001	  1.26148E-001	  1.36361E-001	  1.37034E-001
  8.96000E-002	  1.30214E-001	  1.16174E-001	  1.29265E-001	  1.22472E-001
  9.60000E-002	  1.16620E-001	  1.04364E-001	  1.21778E-001	  1.15180E-001
  1.02400E-001	  1.11710E-001	  9.37057E-002	  1.17077E-001	  1.12138E-001
  1.15200E-001	  8.36002E-002	  8.87521E-002	  7.90890E-002	  9.77091E-002
  1.28000E-001	  5.45808E-002	  7.51475E-002	  7.28875E-002	  7.03915E-002
  1.40800E-001	  6.40509E-002	  5.74140E-002	  6.24279E-002	  7.39233E-002
  1.53600E-001	  4.88031E-002	  5.23181E-002	  4.84378E-002	  6.22271E-002
  1.66400E-001	  4.76922E-002	  4.18368E-002	  3.72391E-002	  5.05196E-002
  1.79200E-001	  4.20189E-002	  3.48683E-002	  2.56326E-002	  3.81702E-002
  1.92000E-001	  3.60185E-002	  3.02042E-002	  2.54593E-002	  2.81763E-002
  2.04800E-001	  3.62892E-002	  2.73619E-002	  2.50136E-002	  3.13607E-002
  2.30400E-001	  2.11700E-002	  2.31995E-002	  1.64418E-002	  3.01028E-002
  2.56000E-001	  1.88552E-002	  1.66639E-002	  3.64637E-003	  1.43324E-002
  2.81600E-001	  1.54943E-002	  1.29188E-002	  3.89832E-003	  1.53141E-002
  3.07200E-001	  2.38020E-002	  1.32040E-002	  1.51997E-002	  1.39662E-002
  3.32800E-001	  1.54210E-002	  7.64663E-003	  9.60887E-003	  1.22453E-002
  3.58400E-001	  1.17339E-002	  4.28571E-004	  1.09463E-002	  5.24177E-003
  3.84000E-001	  2.21869E-002	  5.37139E-003	  1.23917E-002	  4.79836E-003
  4.09600E-001	  2.17700E-002	  1.88353E-004	  3.39634E-003	  3.18755E-003
  4.60800E-001	  1.09307E-002	  4.36740E-003	 -9.19102E-004	  3.19238E-003
  5.12000E-001	  9.66888E-003	  7.06487E-003	  5.72988E-003	  8.40517E-003
  5.63200E-001	  8.19713E-003	 -5.56674E-003	  1.42316E-002	  9.55266E-003
  6.14400E-001	  7.48877E-003	 -1.06804E-003	  8.80614E-003	  4.04955E-003
  6.65600E-001	 -2.14196E-003	 -4.52413E-003	  8.43997E-004	  1.16763E-002
  7.16800E-001	 -2.75034E-003	 -1.43041E-003	  3.14094E-003	  3.61523E-003
  7.68000E-001	 -6.12292E-003	 -1.14049E-002	  4.85626E-003	  4.77058E-003
  8.19200E-001	 -4.85169E-003	 -1.05484E-002	  1.59418E-003	 -1.27576E-003
  9.21600E-001	 -3.40747E-003	 -4.51062E-004	  4.40706E-003	  7.75912E-003
  1.02400E+000	  2.18265E-003	 -3.59097E-003	  5.41325E-003	  8.55474E-004
  1.12640E+000	 -4.77813E-003	 -6.27459E-003	  1.93328E-004	  1.50132E-003
  1.22880E+000	 -4.01705E-003	 -1.32358E-003	  4.13324E-003	 -3.20662E-003
  1.33120E+000	 -8.32075E-004	 -1.82648E-003	  6.31253E-003	 -3.83588E-003
  1.43360E+000	 -4.58059E-003	 -4.06311E-003	 -6.47513E-004	 -5.00350E-003
  1.53600E+000	 -9.62263E-003	 -1.92959E-003	  3.25128E-003	 -8.41400E-004
  1.63840E+000	 -4.91318E-003	 -8.51760E-004	  8.70324E-004	 -4.26375E-003
  1.84320E+000	  9.28568E-003	 -1.67642E-003	  8.26096E-003	 -6.27211E-005
  2.04800E+000	  5.70485E-003	  3.67113E-003	  7.37147E-003	 -1.15183E-002
  2.25280E+000	  1.27619E-003	 -1.60668E-003	  9.95778E-003	 -5.39011E-003
  2.45760E+000	  4.52686E-003	 -8.20448E-003	  7.22055E-003	 -7.06492E-003
  2.66240E+000	 -1.45301E-003	 -7.59353E-003	 -2.13153E-003	  4.91499E-003
  2.86720E+000	 -1.87028E-003	 -1.11512E-002	 -6.45868E-003	  2.11759E-003
  3.07200E+000	 -1.96128E-003	 -7.06102E-003	 -2.49380E-003	 -1.54702E-003
  3.27680E+000	  3.53357E-003	 -6.04394E-003	  1.49348E-003	  1.39331E-003
  3.68640E+000	  3.42987E-006	  6.83026E-003	  1.59274E-003	  5.53086E-003
  4.09600E+000	 -1.57609E-003	  3.13765E-003	 -3.74236E-003	  1.89186E-003
  4.50560E+000	 -2.60720E-003	  1.16568E-003	  5.08341E-003	  3.52368E-003
  4.91520E+000	  1.23964E-003	 -3.90097E-003	  3.14528E-003	 -1.63814E-003
  5.32480E+000	  4.35963E-003	 -6.39793E-003	  7.08163E-003	 -6.42454E-003
  5.73440E+000	 -1.92973E-003	 -9.22315E-003	  2.75493E-003	 -1.15489E-002
  6.14400E+000	 -4.15792E-003	 -5.29256E-003	 -1.47315E-003	  6.37915E-004
  6.55360E+000	  3.72616E-004	 -5.82122E-003	  1.54199E-003	 -1.12142E-003
  7.37280E+000	 -1.68624E-003	  6.29339E-003	  3.89972E-003	 -2.54378E-003
  8.19200E+000	  5.51162E-003	  5.40825E-003	  9.60343E-004	 -2.13117E-003
  9.01120E+000	  1.00931E-003	 -2.89953E-003	 -1.66985E-003	 -4.63024E-004
  9.83040E+000	 -2.99955E-005	  7.04502E-004	 -1.46043E-003	  1.68899E-003
  1.06496E+001	  2.64533E-003	 -6.76948E-006	 -5.82494E-004	 -1.02024E-003
  1.14688E+001	  1.68991E-003	  2.37649E-004	 -1.64148E-003	 -2.66278E-003
  1.22880E+001	  5.64406E-004	  4.33352E-004	 -8.50393E-003	 -3.31256E-004
  1.31072E+001	 -2.15000E-003	 -3.36795E-003	 -5.36307E-003	  2.21334E-003
  1.47456E+001	  4.51611E-004	  3.79491E-004	  1.24394E-003	  3.73388E-003
  1.63840E+001	  2.78904E-003	 -2.88121E-003	 -3.44798E-004	 -2.13615E-003
  1.80224E+001	  1.37389E-003	 -8.82788E-005	 -3.60660E-003	  5.43832E-004
  1.96608E+001	  3.50689E-004	  2.91873E-003	 -7.99271E-004	  1.16989E-003
  2.12992E+001	 -2.22434E-004	  1.31282E-003	  4.77030E-003	 -4.13008E-003
  2.29376E+001	 -1.52697E-003	 -3.88128E-003	  1.17931E-003	  4.36095E-003
  2.45760E+001	 -3.05806E-003	 -2.12620E-003	 -1.22075E-003	  2.86362E-003
  2.62144E+001	 -8.08523E-004	  1.28581E-003	  9.02045E-004	 -9.57916E-004
  2.94912E+001	 -1.32179E-003	  7.75796E-004	  2.45091E-003	 -2.56630E-003
  3.27680E+001	  4.34047E-005	 -3.07256E-005	 -1.09732E-003	 -3.48687E-003
  3.60448E+001	  1.26927E-003	 -2.59845E-004	 -1.88410E-005	  2.10040E-003
  3.93216E+001	 -3.36577E-003	  8.75864E-004	 -4.96178E-004	 -3.56348E-003
  4.25984E+001	 -6.59932E-004	  2.85224E-004	 -1.42441E-003	 -1.97774E-003
  4.58752E+001	  1.81802E-004	  1.99363E-004	  5.67003E-004	 -1.99570E-003
  4.91520E+001	  1.41530E-003	 -7.26929E-004	  2.69361E-003	  6.39601E-005
  5.24288E+001	 -1.78022E-004	  5.12510E-004	  1.31642E-003	  2.34909E-003
  5.89824E+001	 -2.50370E-003	 -7.21648E-004	 -1.42428E-003	 -7.80921E-004
  6.55360E+001	 -2.52132E-004	 -4.39184E-004	 -2.97161E-003	  2.58270E-005
  7.20896E+001	 -1.51704E-003	 -3.65369E-004	 -7.35012E-005	  6.12655E-004
  7.86432E+001	 -5.29853E-004	  4.98987E-004	  1.85710E-003	  3.59202E-004
  8.51968E+001	 -1.67928E-003	  8.81869E-006	 -1.67133E-003	 -1.20880E-004
  9.17504E+001	  1.15079E-003	  3.71035E-004	 -1.62342E-003	  1.85586E-004
  9.83040E+001	  1.88401E-003	 -1.12354E-003	 -1.50532E-004	 -2.16725E-003
  1.04858E+002	  2.57644E-003	 -4.09635E-004	  7.14632E-004	 -3.67200E-005
  1.17965E+002	  3.01374E-004	 -1.40085E-003	  7.01365E-004	  2.26801E-004
  1.31072E+002	 -5.00241E-004	  6.29862E-004	  7.96541E-004	  6.47560E-004
  1.44179E+002	 -1.21050E-003	 -5.14810E-004	  1.18898E-003	 -3.50495E-004
  1.57286E+002	 -8.63140E-004	 -6.50915E-004	 -3.65142E-004	 -5.34947E-004
  1.70394E+002	 -1.15868E-003	  4.62207E-004	 -6.62823E-004	 -7.93522E-004
  1.83501E+002	  2.86136E-004	  4.61381E-004	  6.27075E-004	  6.02830E-004
  1.96608E+002	  2.51026E-004	 -6.02895E-004	 -2.04194E-004	  2.65449E-004
  2.09715E+002	  6.98213E-004	  4.36748E-004	 -3.99261E-004	  4.57012E-005
  2.35930E+002	 -5.33269E-004	  1.70344E-004	  7.41743E-005	 -2.19070E-005
  2.62144E+002	 -5.97430E-004	  6.14634E-004	 -1.37111E-003	  4.26830E-004
  2.88358E+002	  8.81164E-004	  1.96969E-004	  1.63721E-003	 -1.42645E-005
  3.14573E+002	 -9.65014E-004	 -6.48561E-005	 -1.77127E-004	 -8.81851E-004
  3.40787E+002	 -1.91575E-003	 -8.20935E-005	 -1.07355E-003	  1.42786E-005
  3.67002E+002	  6.89842E-004	 -4.49201E-004	 -1.25354E-003	  8.80926E-004
  3.93216E+002	  1.16338E-003	  2.00265E-005	  6.52810E-004	 -1.13701E-003

"Count Rate"
       0.01311	      50.73547	      57.37305	      58.44116	      46.38672
       0.02621	      50.20142	      56.61011	      58.36487	      50.88806
       0.03932	      51.72729	      68.66455	      48.52295	      59.35669
       0.05243	      52.56653	      63.93433	      59.43298	      60.19592
       0.06554	      51.42212	      52.64282	      62.71362	      58.28857
       0.07864	      63.17139	      58.89893	      53.71094	      54.01611
       0.09175	      54.09241	      54.09241	      55.99976	      53.93982
       0.10486	      51.11694	      58.36487	      48.37036	      58.28857
       0.11796	      52.33765	      60.80627	      57.98340	      53.40576
       0.13107	      50.50659	      55.00793	      62.40845	      54.47388
       0.14418	      58.67004	      58.82263	      51.65100	      52.41394
       0.15729	      55.16052	      61.41663	      60.04333	      55.77087
       0.17039	      57.52563	      59.89075	      55.77087	      55.38940
       0.18350	      61.34033	      60.88257	      61.34033	      52.41394
       0.19661	      52.71912	      60.34851	      51.95618	      56.22864
       0.20972	      52.64282	      61.11145	      65.15503	      56.07605
       0.22282	      55.92346	      64.23950	      53.71094	      58.21228
       0.23593	      55.77087	      55.31311	      58.36487	      64.31580
       0.24904	      68.05420	      61.03516	      68.74084	      56.99158
       0.26214	      54.32129	      56.91528	      56.68640	      61.03516
       0.27525	      50.27771	      53.25317	      53.02429	      52.56653
       0.28836	      59.96704	      58.36487	      54.24500	      60.11963
       0.30147	      57.98340	      59.35669	      52.26135	      53.40576
       0.31457	      53.78723	      55.38940	      53.48206	      59.89075
       0.32768	      49.13330	      57.14417	      51.26953	      50.04883
       0.34079	      54.39758	      51.80359	      59.96704	      55.84717
       0.35389	      59.50928	      58.21228	      59.20410	      56.76270
       0.36700	      52.18506	      58.67004	      56.68640	      64.69727
       0.38011	      48.29407	      58.36487	      62.78992	      46.99707
       0.39322	      56.45752	      61.26404	      60.95886	      53.02429
       0.40632	      62.71362	      64.39209	      55.08423	      54.55017
       0.41943	      46.69189	      53.02429	      58.13599	      57.90710
       0.43254	      65.84167	      61.56921	      50.20142	      64.46838
       0.44564	      60.42480	      54.62646	      57.22046	      53.17688
       0.45875	      61.18774	      58.05969	      60.19592	      53.40576
       0.47186	      55.61829	      56.07605	      60.19592	      57.67822
       0.48497	      54.85535	      65.23132	      53.10059	      56.38123
       0.49807	      46.61560	      54.32129	      61.56921	      56.61011
       0.51118	      49.89624	      53.48206	      56.99158	      54.39758
       0.52429	      57.60193	      57.37305	      57.75452	      52.64282
       0.53740	      62.71362	      57.90710	      64.54468	      51.42212
       0.55050	      59.05151	      53.55835	      65.07874	      60.57739
       0.56361	      64.23950	      57.90710	      58.44116	      55.16052
       0.57672	      53.93982	      54.93164	      52.41394	      57.67822
       0.58982	      58.13599	      56.07605	      62.48474	      49.66736
       0.60293	      52.10876	      51.42212	      57.37305	      57.44934
       0.61604	      50.73547	      65.07874	      54.55017	      55.38940
       0.62915	      59.81445	      56.38123	      60.88257	      54.93164
       0.64225	      59.50928	      53.10059	      70.87708	      51.72729
       0.65536	      62.40845	      59.96704	      56.38123	      52.33765
       0.66847	      65.91797	      54.93164	      70.80078	      48.44666
       0.68157	      58.05969	      59.43298	      61.18774	      52.71912
       0.69468	      54.47388	      59.89075	      65.07874	      61.34033
       0.70779	      50.43030	      60.65369	      60.72998	      61.03516
       0.72090	      56.53381	      54.47388	      45.92896	      59.20410
       0.73400	      55.23682	      59.66187	      55.77087	      62.78992
       0.74711	      50.35400	      60.42480	      61.56921	      44.86084
