ALV-7004/USB-FAST
Date :	"11/11/2025"
Time :	"3:57:04 PM"
Samplename : 	""
SampMemo(0) : 	""
SampMemo(1) : 	""
SampMemo(2) : 	""
SampMemo(3) : 	""
SampMemo(4) : 	""
SampMemo(5) : 	""
SampMemo(6) : 	""
SampMemo(7) : 	""
SampMemo(8) : 	""
SampMemo(9) : 	""
Temperature [K] :	     298.16000
Viscosity [cp]  :	       0.89000
Refractive Index:	       1.33200
Wavelength [nm] :	       0.00000
Angle [°]       :	       0.00000
Duration [s]    :	         1
FloatDur [ms]   :	          944
Stop TP [ms]   :	     67740
Runs            :	         1
Mode            :	"A-CH0+1  A-CH2+3 "
MeanCR0 [kHz]   :	      46.98541
MeanCR1 [kHz]   :	      48.03339
MeanCR2 [kHz]   :	      47.39655
MeanCR3 [kHz]   :	      46.72792

"Correlation"
  3.12500E-006	 -1.00000E+000	 -1.00000E+000	 -1.00000E+000	 -1.00000E+000
  6.25000E-006	 -1.00000E+000	 -1.00000E+000	 -1.00000E+000	 -1.00000E+000
  9.37500E-006	 -1.00000E+000	 -1.00000E+000	 -1.00000E+000	 -1.00000E+000
  1.25000E-005	 -1.00000E+000	 -1.00000E+000	 -1.00000E+000	 -1.00000E+000
  1.56250E-005	 -1.00000E+000	 -1.00000E+000	 -1.00000E+000	 -1.00000E+000
  1.87500E-005	 -1.00000E+000	 -1.00000E+000	 -1.00000E+000	 -1.00000E+000
  2.18750E-005	 -1.00000E+000	  9.10576E-001	  9.62308E-001	 -6.89412E-001
  2.50000E-005	  1.57420E+001	  1.44316E+001	  1.06229E+001	  2.85059E+001
  2.81250E-005	  4.06869E+000	  1.93935E+000	  1.71704E+000	  7.38587E+000
  3.12500E-005	  2.07193E+000	  2.08631E+000	  1.11325E+000	  7.07529E+000
  3.43750E-005	  1.30395E+000	  1.20451E+000	  1.41515E+000	  4.74588E+000
  3.75000E-005	  1.45754E+000	  7.63609E-001	  9.62308E-001	  3.19294E+000
  4.06250E-005	  6.89562E-001	  9.10576E-001	  5.66271E-002	  2.88235E+000
  4.37500E-005	  6.89562E-001	  1.93935E+000	  1.11325E+000	  2.41647E+000
  4.68750E-005	  1.30395E+000	  1.05754E+000	  1.41515E+000	  2.57176E+000
  5.00000E-005	  9.96755E-001	  1.86586E+000	  1.26420E+000	  2.49411E+000
  5.62500E-005	  9.96755E-001	  7.63608E-001	  1.18873E+000	  1.95059E+000
  6.25000E-005	  6.89562E-001	  6.90125E-001	  5.09467E-001	  1.56235E+000
  6.87500E-005	  9.96755E-001	  7.63608E-001	  5.84941E-001	  2.26117E+000
  7.50000E-005	 -1.62259E-003	  6.16641E-001	  2.07574E-001	  1.56235E+000
  8.12500E-005	  5.35965E-001	  1.05754E+000	  1.26420E+000	  1.01882E+000
  8.75000E-005	  3.82369E-001	  2.87716E-002	  4.33994E-001	  8.63528E-001
  9.37500E-005	  9.96755E-001	  1.05754E+000	  5.09467E-001	  1.17412E+000
  1.00000E-004	  6.12763E-001	  6.53383E-001	  2.07574E-001	  9.02351E-001
  1.12500E-004	  4.97566E-001	  6.53383E-001	  4.33994E-001	  7.85880E-001
  1.25000E-004	  3.82369E-001	  7.63608E-001	  2.07574E-001	  6.30586E-001
  1.37500E-004	  1.51974E-001	  6.90125E-001	  2.83047E-001	  7.85880E-001
  1.50000E-004	  6.89562E-001	  6.90125E-001	  7.73624E-001	  8.24704E-001
  1.62500E-004	  1.15035E+000	  8.00350E-001	  6.60414E-001	  5.91763E-001
  1.75000E-004	  6.51162E-001	  6.53383E-001	  6.22677E-001	  5.14116E-001
  1.87500E-004	  3.43969E-001	  6.55133E-002	  4.71730E-001	  7.85880E-001
  2.00000E-004	  4.39967E-001	  7.63608E-001	  3.39652E-001	  6.88821E-001
  2.25000E-004	  6.89561E-001	  6.35011E-001	  3.20783E-001	  6.30586E-001
  2.50000E-004	  4.78366E-001	  5.61528E-001	  3.58520E-001	  7.27645E-001
  2.75000E-004	  3.24770E-001	  4.51302E-001	  5.84940E-001	  7.08233E-001
  3.00000E-004	  5.74364E-001	  8.73833E-001	  5.28335E-001	  5.14116E-001
  3.25000E-004	  4.97566E-001	  5.43157E-001	  7.17018E-001	  5.33527E-001
  3.50000E-004	  7.08761E-001	  4.32931E-001	  5.28335E-001	  5.52939E-001
  3.75000E-004	  6.51162E-001	  6.53382E-001	  3.58520E-001	  4.94704E-001
  4.00000E-004	  4.87965E-001	  4.69673E-001	  3.49085E-001	  6.20880E-001
  4.50000E-004	  4.49566E-001	  5.52342E-001	  7.07584E-001	  4.75292E-001
  5.00000E-004	  6.89561E-001	  4.60487E-001	  3.49085E-001	  4.36468E-001
  5.50000E-004	  5.07165E-001	  4.60487E-001	  5.09466E-001	  5.52938E-001
  6.00000E-004	  3.15169E-001	  4.05374E-001	  6.22676E-001	  3.68527E-001
  6.50000E-004	  4.87965E-001	  4.23745E-001	  3.20783E-001	  5.14115E-001
  7.00000E-004	  6.22362E-001	  4.51302E-001	  4.62295E-001	  3.78233E-001
  7.50000E-004	  2.76770E-001	  6.90123E-001	  5.28334E-001	  5.52938E-001
  8.00000E-004	  4.30365E-001	  5.98268E-001	  4.76445E-001	  5.86908E-001
  9.00000E-004	  3.58367E-001	  4.55893E-001	  3.63235E-001	  5.43231E-001
  1.00000E-003	  5.26363E-001	  2.30850E-001	  5.70787E-001	  4.80143E-001
  1.10000E-003	  3.58367E-001	  5.01820E-001	  4.05689E-001	  6.35437E-001
  1.20000E-003	  3.82367E-001	  4.23744E-001	  4.33992E-001	  4.60732E-001
  1.30000E-003	  3.24768E-001	  4.51300E-001	  5.47201E-001	  3.05438E-001
  1.40000E-003	  2.91169E-001	  3.77817E-001	  4.62294E-001	  4.65584E-001
  1.50000E-003	  5.07164E-001	  4.92635E-001	  5.09465E-001	  4.94702E-001
  1.60000E-003	  5.33560E-001	  4.39816E-001	  4.33989E-001	  3.61244E-001
  1.80000E-003	  4.20763E-001	  4.30631E-001	  4.85877E-001	  3.24847E-001
  2.00000E-003	  4.66362E-001	  4.46705E-001	  4.55216E-001	  5.14111E-001
  2.20000E-003	  4.08763E-001	  3.89296E-001	  4.43423E-001	  4.43744E-001
  2.40000E-003	  3.91964E-001	  3.70925E-001	  4.29272E-001	  4.17053E-001
  2.60000E-003	  4.06364E-001	  3.80111E-001	  4.24555E-001	  4.43744E-001
  2.80000E-003	  3.58365E-001	  3.75518E-001	  4.88235E-001	  3.75803E-001
  3.00000E-003	  3.27166E-001	  4.83447E-001	  3.16062E-001	  3.92788E-001
  3.20000E-003	  3.72760E-001	  4.44404E-001	  3.52615E-001	  3.85504E-001
  3.60000E-003	  3.48760E-001	  3.53698E-001	  4.31626E-001	  4.08555E-001
  4.00000E-003	  4.06359E-001	  4.28330E-001	  3.67946E-001	  4.20688E-001
  4.40000E-003	  3.85959E-001	  4.31774E-001	  4.08040E-001	  3.41828E-001
  4.80000E-003	  4.08790E-001	  3.46809E-001	  4.36343E-001	  3.78225E-001
  5.20000E-003	  3.11591E-001	  2.64141E-001	  3.67946E-001	  3.80651E-001
  5.60000E-003	  4.77190E-001	  3.49106E-001	  3.49077E-001	  3.95210E-001
  6.00000E-003	  3.41591E-001	  3.02030E-001	  3.21954E-001	  3.72159E-001
  6.40000E-003	  3.55412E-001	  3.82998E-001	  3.64988E-001	  3.99447E-001
  7.20000E-003	  3.57212E-001	  3.27310E-001	  3.20766E-001	  3.61837E-001
  8.00000E-003	  3.95013E-001	  2.73345E-001	  3.40224E-001	  3.14521E-001
  8.80000E-003	  3.26612E-001	  3.18699E-001	  3.31379E-001	  3.12095E-001
  9.60000E-003	  2.66611E-001	  3.15254E-001	  3.04846E-001	  2.84191E-001
  1.04000E-002	  2.87612E-001	  2.82531E-001	  3.46710E-001	  3.15128E-001
  1.12000E-002	  2.39611E-001	  2.48085E-001	  3.12511E-001	  2.95110E-001
  1.20000E-002	  2.71411E-001	  2.53854E-001	  2.68289E-001	  2.95717E-001
  1.28000E-002	  2.45622E-001	  2.36696E-001	  2.67416E-001	  2.62336E-001
  1.44000E-002	  2.36322E-001	  2.45882E-001	  2.30564E-001	  2.17144E-001
  1.60000E-002	  2.20394E-001	  2.03970E-001	  1.94007E-001	  2.69312E-001
  1.76000E-002	  2.15894E-001	  1.77272E-001	  2.39703E-001	  2.02889E-001
  1.92000E-002	  1.71195E-001	  1.69808E-001	  2.01377E-001	  2.06225E-001
  2.08000E-002	  1.90995E-001	  1.69521E-001	  1.75728E-001	  2.04102E-001
  2.24000E-002	  1.67595E-001	  1.77846E-001	  1.91943E-001	  1.98340E-001
  2.40000E-002	  1.25595E-001	  1.75837E-001	  1.27673E-001	  1.45565E-001
  2.56000E-002	  1.63539E-001	  1.36316E-001	  1.64251E-001	  1.68209E-001
  2.88000E-002	  1.60389E-001	  1.18348E-001	  1.39780E-001	  1.33631E-001
  3.20000E-002	  1.14340E-001	  1.06983E-001	  1.10888E-001	  1.19831E-001
  3.52000E-002	  1.19440E-001	  1.14041E-001	  1.00446E-001	  1.06485E-001
  3.84000E-002	  6.46903E-002	  9.02132E-002	  1.06318E-001	  8.55563E-002
  4.16000E-002	  7.32160E-002	  7.72943E-002	  7.06447E-002	  9.29874E-002
  4.48000E-002	  8.46156E-002	  6.01893E-002	  8.86289E-002	  7.55469E-002
  4.80000E-002	  3.67672E-002	  8.61701E-002	  5.41347E-002	  7.82768E-002
  5.12000E-002	  4.66809E-002	  5.88616E-002	  5.07075E-002	  2.54558E-002
  5.76000E-002	  5.12558E-002	  4.31434E-002	  5.40244E-002	  4.11539E-002
  6.40000E-002	  3.13812E-002	  4.32870E-002	  3.24049E-002	  1.27912E-002
  7.04000E-002	  4.24295E-002	  3.85988E-002	  3.33630E-002	  3.50870E-002
  7.68000E-002	  2.74294E-002	  1.60851E-002	  1.23567E-002	  3.41011E-002
  8.32000E-002	  2.54794E-002	  3.34085E-002	  1.64333E-002	  1.69094E-002
  8.96000E-002	  2.67776E-002	  2.41502E-002	  1.27990E-002	  1.91624E-003
  9.60000E-002	 -6.84574E-003	  1.84580E-002	  1.24304E-002	  6.08742E-003
  1.02400E-001	  8.27909E-003	  2.28510E-002	  5.69772E-003	  1.24639E-002
  1.15200E-001	 -1.02141E-003	  2.13798E-002	  1.17788E-002	  1.12883E-002
  1.28000E-001	  7.03681E-004	  6.00806E-003	  1.08206E-002	  5.73623E-003
  1.40800E-001	 -5.01168E-003	  8.69936E-003	 -9.27284E-003	  4.97773E-003
  1.53600E-001	 -5.97942E-003	  1.69168E-002	 -3.05919E-003	  1.01735E-002
  1.66400E-001	 -1.15676E-002	  1.61991E-002	  2.85190E-003	  3.56689E-003
  1.79200E-001	 -8.22969E-003	 -5.80767E-004	  4.20107E-003	  7.62470E-003
  1.92000E-001	  1.02078E-002	  1.11802E-002	  1.13650E-002	 -1.61387E-003
  2.04800E-001	 -4.12581E-003	  1.00665E-002	  3.39445E-003	 -1.09306E-003
  2.30400E-001	  5.22815E-003	  2.42741E-003	 -6.90727E-003	  8.13707E-003
  2.56000E-001	  1.03705E-002	 -6.62956E-003	 -2.76078E-003	 -2.33393E-003
  2.81600E-001	  1.04308E-002	 -9.55425E-003	  4.97528E-003	 -6.20006E-003
  3.07200E-001	 -3.43194E-003	 -4.63976E-003	 -1.11901E-002	  2.67015E-003
  3.32800E-001	  5.79074E-003	 -4.72144E-003	 -6.56091E-003	  7.42353E-003
  3.58400E-001	 -7.56130E-003	 -1.73845E-003	  2.74145E-003	 -5.02303E-003
  3.84000E-001	  3.72474E-003	  3.07098E-003	 -6.48340E-003	 -6.69931E-003
  4.09600E-001	 -3.47376E-003	 -1.95644E-003	 -8.04849E-003	 -6.96426E-003
  4.60800E-001	 -2.88266E-003	  2.19857E-003	 -4.28352E-003	 -6.34517E-003
  5.12000E-001	 -7.94145E-004	  5.59096E-003	 -7.41290E-006	 -4.38697E-003
  5.63200E-001	  3.14977E-005	  1.93955E-003	  5.35181E-003	 -7.55017E-003
  6.14400E-001	  3.13541E-003	 -8.72111E-003	 -6.95103E-003	 -2.82721E-003
  6.65600E-001	  7.87983E-004	 -6.63469E-003	  7.12712E-003	  5.03707E-003
  7.16800E-001	 -4.88513E-003	  8.95672E-003	  4.41140E-003	 -8.49858E-005
  7.68000E-001	 -6.46153E-003	  1.77060E-003	 -4.04843E-003	 -1.76235E-003
  8.19200E-001	  2.20102E-003	 -3.94603E-003	 -2.75950E-003	 -3.02590E-004
  9.21600E-001	  9.54190E-004	  1.85347E-003	  4.64653E-003	  5.52808E-003
  1.02400E+000	  5.86707E-003	  6.62349E-004	  2.78436E-003	  1.64174E-003
  1.12640E+000	  5.25886E-003	  3.47967E-004	  1.80383E-004	 -6.27160E-004
  1.22880E+000	  1.32868E-003	  4.38975E-003	  5.04840E-003	  8.21048E-003
  1.33120E+000	  1.82350E-003	 -1.57253E-003	  2.59121E-003	 -5.68353E-003
  1.43360E+000	 -3.19672E-003	 -4.81022E-003	  9.33290E-003	 -4.68054E-003
  1.53600E+000	 -2.81538E-003	 -1.31373E-004	  7.28773E-003	 -2.26224E-003
  1.63840E+000	  2.69102E-004	 -5.18368E-004	  3.01816E-003	  2.68066E-003
  1.84320E+000	  3.59796E-003	  3.02541E-003	  7.32053E-004	 -1.62325E-003
  2.04800E+000	 -1.60637E-003	 -7.18958E-003	 -2.17663E-004	 -2.43633E-004
  2.25280E+000	 -3.53461E-003	 -1.64744E-003	 -3.81718E-003	 -1.89969E-003
  2.45760E+000	  1.83522E-005	  2.69296E-003	 -2.94997E-004	  4.69319E-003
  2.66240E+000	 -1.43642E-003	  4.21866E-003	  2.87552E-003	  6.28190E-005
  2.86720E+000	 -3.20298E-003	 -1.92345E-003	  4.64009E-003	  6.25061E-004
  3.07200E+000	 -2.42209E-003	  4.82200E-003	  2.14146E-003	  1.14702E-003
  3.27680E+000	 -2.49312E-003	 -7.88187E-004	  1.93763E-003	 -3.26496E-003
  3.68640E+000	 -2.86335E-003	  1.44305E-003	  2.72952E-003	 -5.29621E-004
  4.09600E+000	  1.43186E-003	  4.68910E-004	 -6.91653E-004	 -2.16565E-003
  4.50560E+000	  3.91632E-004	  2.69595E-003	  7.16140E-004	 -2.40029E-003
  4.91520E+000	 -1.00498E-003	 -7.73084E-006	  1.36412E-003	 -7.34739E-004
  5.32480E+000	 -3.02481E-003	 -1.46325E-003	  1.19661E-003	 -4.72780E-004
  5.73440E+000	 -2.15252E-003	 -4.79162E-003	 -2.82664E-003	 -8.32103E-004
  6.14400E+000	 -5.08091E-004	 -5.07487E-003	 -1.65674E-003	 -2.72984E-003
  6.55360E+000	 -5.26108E-004	  3.71496E-004	 -4.07740E-004	 -1.06211E-003
  7.37280E+000	  1.78752E-003	 -2.19689E-003	  7.10395E-004	  1.34068E-003
  8.19200E+000	  6.08963E-004	  4.41007E-004	 -9.76287E-004	 -1.16856E-003
  9.01120E+000	 -7.80953E-004	  1.90781E-003	  4.31740E-005	 -1.38148E-003
  9.83040E+000	  1.04881E-003	 -7.15474E-004	 -7.51731E-004	  2.42176E-003
  1.06496E+001	  2.11560E-003	  2.18345E-003	  1.92134E-004	  1.25707E-003
  1.14688E+001	 -1.82455E-003	  7.97165E-005	 -9.03938E-004	  7.99019E-004
  1.22880E+001	 -1.42172E-003	 -1.55828E-003	  6.47499E-004	  1.81473E-003
  1.31072E+001	 -1.60375E-003	 -9.23872E-004	  1.30975E-003	  7.04818E-004
  1.47456E+001	  8.65837E-004	 -1.54539E-003	  9.90053E-005	 -2.76182E-004
  1.63840E+001	  4.64847E-004	 -2.87183E-003	  8.94903E-004	 -1.71763E-003
  1.80224E+001	 -1.04127E-004	  1.41557E-003	  5.16872E-004	  5.73599E-004
  1.96608E+001	 -6.23267E-004	 -1.40286E-004	 -1.06999E-003	  8.10338E-004
  2.12992E+001	  2.26687E-003	  1.54716E-003	 -3.77499E-004	 -1.13547E-003
  2.29376E+001	  1.44831E-003	  4.20421E-004	 -2.74933E-004	 -2.99330E-004
  2.45760E+001	  1.42090E-003	  1.60291E-005	  4.79265E-005	 -1.02810E-003
  2.62144E+001	 -5.18854E-004	  1.66007E-004	  6.73511E-005	 -2.03368E-004
  2.94912E+001	  8.21570E-004	  4.33725E-004	  1.02050E-003	  1.37097E-003
  3.27680E+001	 -8.21824E-004	  8.31248E-004	 -3.15701E-004	 -2.63652E-004
  3.60448E+001	 -6.03314E-004	 -4.62506E-004	 -1.00040E-004	 -8.42399E-004
  3.93216E+001	 -1.18038E-003	 -1.17918E-004	 -8.93203E-004	  9.07618E-004
  4.25984E+001	  8.94036E-004	 -1.10205E-004	 -5.11383E-004	  2.99640E-004
  4.58752E+001	 -2.03883E-004	  7.08970E-004	 -9.80913E-004	 -8.48512E-004
  4.91520E+001	  5.95634E-004	  6.95893E-004	  1.02061E-004	  9.29034E-004
  5.24288E+001	  3.42465E-004	  2.93596E-005	 -1.41369E-003	  3.97529E-004
  5.89824E+001	  1.85313E-004	 -8.43820E-004	 -7.03548E-004	 -1.25198E-004
  6.55360E+001	  2.83768E-004	 -9.34539E-004	 -1.11159E-003	  8.59697E-006
  7.20896E+001	 -4.52176E-004	  7.39896E-005	 -3.06603E-004	 -3.17934E-005
  7.86432E+001	  5.93879E-004	  1.60629E-004	 -3.78350E-005	 -2.50834E-004
  8.51968E+001	  8.85886E-004	 -7.16017E-005	  1.07131E-003	  2.51490E-004
  9.17504E+001	 -8.94180E-004	  1.58274E-004	 -7.36294E-004	  4.94498E-004
  9.83040E+001	  5.10964E-004	  2.75525E-004	 -7.87345E-004	  6.49864E-005
  1.04858E+002	 -4.55553E-005	 -3.51404E-004	 -4.04589E-004	 -9.18125E-005
  1.17965E+002	  3.33444E-004	  1.54139E-004	  5.66192E-004	  9.24870E-005
  1.31072E+002	  6.99748E-004	  7.66723E-004	  1.50478E-004	 -7.48625E-004
  1.44179E+002	  3.85718E-004	 -5.37976E-004	  1.69366E-004	  2.67822E-004
  1.57286E+002	 -3.44639E-004	 -3.10045E-004	  2.76009E-004	 -1.97151E-004
  1.70394E+002	  2.64461E-004	  1.05013E-004	 -4.48544E-004	  1.51974E-004
  1.83501E+002	 -6.15912E-005	  3.62094E-004	 -5.15804E-004	 -5.25965E-005
  1.96608E+002	  5.41380E-004	 -5.11680E-006	 -4.55087E-004	 -6.75510E-005
  2.09715E+002	 -1.27400E-004	  1.95768E-004	 -1.22771E-003	  1.65635E-004
  2.35930E+002	  1.49897E-004	  1.15607E-004	  5.57633E-004	  5.29811E-005
  2.62144E+002	  5.45976E-005	 -1.63600E-004	  7.12711E-004	  1.16008E-004
  2.88358E+002	  3.53667E-004	 -2.43936E-005	  5.44863E-004	 -4.44495E-004
  3.14573E+002	 -1.76079E-005	 -1.12231E-004	  5.05432E-004	  2.03242E-004
  3.40787E+002	  9.16428E-005	  4.51732E-004	 -8.23196E-004	  3.22294E-004
  3.67002E+002	  6.30329E-004	 -3.17660E-004	 -4.43949E-004	 -4.88350E-004
  3.93216E+002	 -1.29259E-004	  1.43821E-004	  1.04514E-003	  2.41726E-004

"Count Rate"
       0.01311	      48.06519	      47.45483	      46.46301	      44.32678
       0.02621	      47.98889	      48.29407	      44.17419	      44.17419
       0.03932	      50.65918	      49.66736	      43.56384	      48.21777
       0.05243	      44.55566	      51.49841	      50.58289	      46.23413
       0.06554	      48.52295	      51.65100	      54.01611	      46.76819
       0.07864	      39.74915	      50.65918	      50.65918	      48.14148
       0.09175	      45.08972	      45.92896	      42.80090	      43.94531
       0.10486	      45.01343	      45.70007	      47.76001	      46.53931
       0.11796	      44.86084	      46.92078	      47.83630	      46.84448
       0.13107	      46.31042	      44.63196	      41.80908	      45.31860
       0.14418	      42.95349	      49.05701	      51.19324	      43.94531
       0.15729	      45.16602	      44.40308	      50.73547	      43.86902
       0.17039	      47.91260	      54.93164	      46.08154	      50.88806
       0.18350	      42.26685	      46.92078	      46.99707	      47.53113
       0.19661	      44.93713	      48.21777	      43.94531	      47.30225
       0.20972	      45.24231	      46.61560	      45.54749	      47.07336
       0.22282	      46.46301	      48.98071	      45.24231	      48.67554
       0.23593	      46.08154	      47.07336	      45.85266	      45.01343
       0.24904	      40.81726	      46.08154	      44.93713	      45.24231
       0.26214	      46.61560	      47.53113	      46.69189	      46.84448
       0.27525	      44.70825	      47.45483	      46.08154	      46.23413
       0.28836	      44.63196	      45.85266	      45.08972	      40.20691
       0.30147	      43.94531	      52.26135	      46.46301	      42.72461
       0.31457	      47.22595	      45.62378	      50.88806	      43.41125
       0.32768	      47.22595	      44.55566	      45.77637	      45.70007
       0.34079	      45.08972	      44.25049	      49.51477	      45.01343
       0.35389	      46.46301	      51.04065	      47.60742	      42.80090
       0.36700	      45.62378	      47.76001	      42.49573	      44.86084
       0.38011	      45.92896	      49.13330	      51.80359	      46.46301
       0.39322	      47.30225	      47.60742	      44.32678	      46.38672
       0.40632	      45.77637	      48.75183	      46.00525	      44.32678
       0.41943	      45.54749	      48.52295	      49.13330	      47.83630
       0.43254	      44.47937	      48.21777	      45.01343	      47.37854
       0.44564	      46.38672	      44.47937	      55.08423	      47.37854
       0.45875	      50.35400	      45.54749	      50.65918	      41.42761
       0.47186	      50.58289	      48.29407	      49.74365	      43.94531
       0.48497	      48.52295	      45.16602	      43.41125	      46.15784
       0.49807	      42.11426	      45.77637	      47.98889	      45.31860
       0.51118	      43.71643	      45.77637	      40.66467	      52.26135
       0.52429	      45.77637	      47.98889	      44.63196	      45.16602
       0.53740	      44.63196	      45.47119	      45.16602	      45.16602
       0.55050	      49.43848	      46.46301	      46.61560	      40.89355
       0.56361	      43.71643	      52.18506	      47.83630	      47.68372
       0.57672	      47.83630	      45.62378	      50.96436	      44.32678
       0.58982	      49.05701	      46.84448	      44.63196	      45.31860
       0.60293	      47.37854	      51.34583	      41.73279	      47.53113
       0.61604	      49.59106	      50.50659	      47.76001	      45.92896
       0.62915	      40.96985	      48.21777	      44.63196	      44.32678
       0.64225	      44.47937	      46.00525	      45.47119	      47.07336
       0.65536	      46.38672	      47.45483	      47.14966	      46.08154
       0.66847	      48.29407	      42.03796	      43.71643	      42.11426
       0.68157	      43.48755	      44.47937	      46.53931	      49.05701
       0.69468	      45.39490	      48.75183	      46.08154	      43.02979
       0.70779	      45.24231	      45.77637	      54.55017	      45.24231
       0.72090	      48.90442	      44.17419	      46.53931	      49.74365
       0.73400	      44.86084	      53.02429	      49.89624	      49.05701
       0.74711	      48.90442	      45.92896	      43.02979	      50.88806
