ALV-7004/USB-FAST
Date :	"11/11/2025"
Time :	"3:59:20 PM"
Samplename : 	""
SampMemo(0) : 	""
SampMemo(1) : 	""
SampMemo(2) : 	""
SampMemo(3) : 	""
SampMemo(4) : 	""
SampMemo(5) : 	""
SampMemo(6) : 	""
SampMemo(7) : 	""
SampMemo(8) : 	""
SampMemo(9) : 	""
Temperature [K] :	     298.16000
Viscosity [cp]  :	       0.89000
Refractive Index:	       1.33200
Wavelength [nm] :	       0.00000
Angle [°]       :	       0.00000
Duration [s]    :	         1
FloatDur [ms]   :	          944
Stop TP [ms]   :	     68304
Runs            :	         1
Mode            :	"A-CH0+1  A-CH2+3 "
MeanCR0 [kHz]   :	      54.52262
MeanCR1 [kHz]   :	      57.29357
MeanCR2 [kHz]   :	      56.67898
MeanCR3 [kHz]   :	      55.82809

"Correlation"
  3.12500E-006	 -1.00000E+000	 -1.00000E+000	 -1.00000E+000	 -1.00000E+000
  6.25000E-006	 -1.00000E+000	 -1.00000E+000	 -1.00000E+000	 -1.00000E+000
  9.37500E-006	 -1.00000E+000	 -1.00000E+000	 -1.00000E+000	 -1.00000E+000
  1.25000E-005	 -1.00000E+000	 -1.00000E+000	 -1.00000E+000	 -1.00000E+000
  1.56250E-005	 -1.00000E+000	 -1.00000E+000	 -1.00000E+000	 -1.00000E+000
  1.87500E-005	 -1.00000E+000	 -1.00000E+000	 -1.00000E+000	 -1.00000E+000
  2.18750E-005	 -1.00000E+000	  5.49484E-001	  1.00547E+000	 -6.73620E-001
  2.50000E-005	  1.41707E+001	  1.14992E+001	  1.30383E+001	  2.52192E+001
  2.81250E-005	  3.44855E+000	  2.40886E+000	  1.74433E+000	  8.46501E+000
  3.12500E-005	  2.07977E+000	  2.09897E+000	  1.42768E+000	  4.76604E+000
  3.43750E-005	  2.54720E-001	  1.06598E+000	  2.66615E-001	  4.22208E+000
  3.75000E-005	  1.16724E+000	  8.59380E-001	  7.94371E-001	  4.43966E+000
  4.06250E-005	  1.05318E+000	  1.37587E+000	  1.42768E+000	  2.15500E+000
  4.37500E-005	  1.85164E+000	  1.06598E+000	  5.83269E-001	  2.48138E+000
  4.68750E-005	  7.10982E-001	  7.56081E-001	  2.66615E-001	  3.24294E+000
  5.00000E-005	  4.82851E-001	  7.04432E-001	  5.83269E-001	  1.44785E+000
  5.62500E-005	  8.82080E-001	  4.46185E-001	  2.66615E-001	  1.82862E+000
  6.25000E-005	  3.68785E-001	  1.01433E+000	  8.99923E-001	  1.66543E+000
  6.87500E-005	  1.05318E+000	  9.62679E-001	  2.13839E-001	  1.23026E+000
  7.50000E-005	  7.68014E-001	  8.07731E-001	  5.83269E-001	  6.86295E-001
  8.12500E-005	  1.16724E+000	  5.49483E-001	  8.47147E-001	  1.28466E+000
  8.75000E-005	  9.39112E-001	  1.01433E+000	  2.13839E-001	  9.58278E-001
  9.37500E-005	  8.25047E-001	  3.94535E-001	  4.24942E-001	  4.68709E-001
  1.00000E-004	  8.82080E-001	  2.65411E-001	  6.09656E-001	  1.03987E+000
  1.12500E-004	  7.10981E-001	  7.04432E-001	  6.88820E-001	  6.31898E-001
  1.25000E-004	  2.54720E-001	  6.52782E-001	  2.40227E-001	  7.13493E-001
  1.37500E-004	  5.11367E-001	  7.81906E-001	  1.05825E+000	  5.77502E-001
  1.50000E-004	  8.53563E-001	  4.46184E-001	  6.36044E-001	  3.87114E-001
  1.62500E-004	  5.96916E-001	  2.39587E-001	  4.51330E-001	  7.95088E-001
  1.75000E-004	  5.96916E-001	  2.91236E-001	  2.93003E-001	  7.40692E-001
  1.87500E-004	  5.11367E-001	  3.94535E-001	  3.72166E-001	  8.76683E-001
  2.00000E-004	  4.11559E-001	  4.07447E-001	  5.96462E-001	  5.50303E-001
  2.25000E-004	  4.40076E-001	  7.68993E-001	  3.45778E-001	  7.67890E-001
  2.50000E-004	  5.11367E-001	  5.75308E-001	  5.70074E-001	  2.51122E-001
  2.75000E-004	  7.82272E-001	  6.65694E-001	  7.54789E-001	  4.95907E-001
  3.00000E-004	  5.82657E-001	  4.07447E-001	  3.06196E-001	  5.36704E-001
  3.25000E-004	  3.11752E-001	  7.43168E-001	  6.75626E-001	  6.59096E-001
  3.50000E-004	  5.25625E-001	  4.59096E-001	  5.04105E-001	  6.72696E-001
  3.75000E-004	  5.68399E-001	  5.10746E-001	  4.38135E-001	  5.36704E-001
  4.00000E-004	  6.11173E-001	  5.04289E-001	  5.43686E-001	  3.46315E-001
  4.50000E-004	  2.97493E-001	  4.33271E-001	  4.31538E-001	  5.57102E-001
  5.00000E-004	  4.40075E-001	  4.00990E-001	  5.43686E-001	  4.95906E-001
  5.50000E-004	  4.47204E-001	  5.36570E-001	  6.49237E-001	  4.00712E-001
  6.00000E-004	  5.75528E-001	  4.39727E-001	  4.38135E-001	  5.09505E-001
  6.50000E-004	  5.39882E-001	  4.65552E-001	  6.03058E-001	  5.36703E-001
  7.00000E-004	  3.11752E-001	  5.10745E-001	  5.10701E-001	  5.02705E-001
  7.50000E-004	  5.39882E-001	  5.04289E-001	  4.90910E-001	  5.97899E-001
  8.00000E-004	  6.07638E-001	  5.33341E-001	  5.63475E-001	  4.24509E-001
  9.00000E-004	  4.04456E-001	  4.30042E-001	  5.43685E-001	  3.97311E-001
  1.00000E-003	  4.86442E-001	  4.59095E-001	  5.93162E-001	  4.31309E-001
  1.10000E-003	  5.43476E-001	  5.84990E-001	  4.71118E-001	  5.77499E-001
  1.20000E-003	  4.82877E-001	  3.75164E-001	  4.84312E-001	  5.09504E-001
  1.30000E-003	  4.57925E-001	  4.75235E-001	  3.95253E-001	  5.87699E-001
  1.40000E-003	  4.93571E-001	  5.43025E-001	  4.71118E-001	  5.87699E-001
  1.50000E-003	  5.11394E-001	  5.23656E-001	  5.99789E-001	  4.38108E-001
  1.60000E-003	  5.36374E-001	  4.92987E-001	  4.77740E-001	  5.50299E-001
  1.80000E-003	  3.99106E-001	  3.84846E-001	  3.58993E-001	  4.33006E-001
  2.00000E-003	  3.58114E-001	  5.30110E-001	  4.13419E-001	  4.51705E-001
  2.20000E-003	  4.70399E-001	  4.41338E-001	  4.39807E-001	  4.78903E-001
  2.40000E-003	  4.47229E-001	  3.88074E-001	  4.62897E-001	  4.72104E-001
  2.60000E-003	  4.25841E-001	  4.83303E-001	  4.59598E-001	  4.73804E-001
  2.80000E-003	  4.34752E-001	  4.10671E-001	  5.51957E-001	  3.97309E-001
  3.00000E-003	  4.49011E-001	  4.18741E-001	  4.62897E-001	  4.29606E-001
  3.20000E-003	  3.88435E-001	  4.25999E-001	  4.77763E-001	  4.23652E-001
  3.60000E-003	  4.79334E-001	  4.78456E-001	  4.46426E-001	  4.34701E-001
  4.00000E-003	  3.85761E-001	  3.80807E-001	  4.18389E-001	  4.33001E-001
  4.40000E-003	  3.97347E-001	  4.29228E-001	  3.79630E-001	  4.51700E-001
  4.80000E-003	  4.11605E-001	  3.92912E-001	  3.74682E-001	  4.62749E-001
  5.20000E-003	  4.16034E-001	  4.17122E-001	  4.23336E-001	  4.10080E-001
  5.60000E-003	  3.95537E-001	  3.88070E-001	  4.01896E-001	  4.70427E-001
  6.00000E-003	  4.29401E-001	  4.42947E-001	  3.81280E-001	  4.30479E-001
  6.40000E-003	  4.49470E-001	  4.06622E-001	  4.30775E-001	  4.12195E-001
  7.20000E-003	  4.18279E-001	  4.10253E-001	  4.18818E-001	  3.82872E-001
  8.00000E-003	  4.07585E-001	  4.44551E-001	  4.24178E-001	  3.88848E-001
  8.80000E-003	  3.85752E-001	  4.23165E-001	  3.96552E-001	  4.05422E-001
  9.60000E-003	  4.15606E-001	  4.27200E-001	  4.12606E-001	  3.96072E-001
  1.04000E-002	  3.82633E-001	  3.94113E-001	  3.69725E-001	  3.93523E-001
  1.12000E-002	  4.03130E-001	  3.83622E-001	  4.10159E-001	  3.68873E-001
  1.20000E-002	  4.10232E-001	  3.85639E-001	  3.71812E-001	  3.82898E-001
  1.28000E-002	  3.85733E-001	  3.60830E-001	  3.74500E-001	  3.72068E-001
  1.44000E-002	  3.81946E-001	  3.80199E-001	  3.86457E-001	  3.64232E-001
  1.60000E-002	  3.63009E-001	  3.69506E-001	  3.55945E-001	  3.44682E-001
  1.76000E-002	  3.27140E-001	  3.36216E-001	  3.74938E-001	  3.63169E-001
  1.92000E-002	  3.63009E-001	  3.44690E-001	  3.65866E-001	  3.62319E-001
  2.08000E-002	  3.78604E-001	  3.55585E-001	  3.18266E-001	  3.49995E-001
  2.24000E-002	  3.44072E-001	  3.34804E-001	  3.21565E-001	  3.14720E-001
  2.40000E-002	  3.52538E-001	  3.15637E-001	  3.27956E-001	  3.20695E-001
  2.56000E-002	  3.19221E-001	  3.31033E-001	  3.23586E-001	  3.13003E-001
  2.88000E-002	  3.17773E-001	  2.89772E-001	  3.21137E-001	  2.87420E-001
  3.20000E-002	  3.02067E-001	  2.91790E-001	  2.76498E-001	  3.02427E-001
  3.52000E-002	  2.86274E-001	  2.69293E-001	  2.77965E-001	  2.67940E-001
  3.84000E-002	  2.62770E-001	  2.53959E-001	  2.53944E-001	  2.60159E-001
  4.16000E-002	  2.56643E-001	  2.55069E-001	  2.52191E-001	  2.35955E-001
  4.48000E-002	  2.55084E-001	  2.25713E-001	  2.41160E-001	  2.16827E-001
  4.80000E-002	  2.20440E-001	  2.19357E-001	  2.09693E-001	  2.17913E-001
  5.12000E-002	  2.12345E-001	  1.97489E-001	  2.00987E-001	  2.26481E-001
  5.76000E-002	  1.84942E-001	  1.84728E-001	  1.83591E-001	  1.95228E-001
  6.40000E-002	  1.60859E-001	  1.65517E-001	  1.72147E-001	  1.70943E-001
  7.04000E-002	  1.72555E-001	  1.60401E-001	  1.53124E-001	  1.58340E-001
  7.68000E-002	  1.51725E-001	  1.32407E-001	  1.34265E-001	  1.46458E-001
  8.32000E-002	  1.23265E-001	  1.10587E-001	  1.15294E-001	  1.31195E-001
  8.96000E-002	  1.13741E-001	  1.36614E-001	  1.15913E-001	  1.21597E-001
  9.60000E-002	  9.82017E-002	  9.87340E-002	  9.42616E-002	  1.05813E-001
  1.02400E-001	  1.01878E-001	  9.75625E-002	  7.86872E-002	  9.56692E-002
  1.15200E-001	  6.77105E-002	  7.85332E-002	  5.00510E-002	  6.85332E-002
  1.28000E-001	  6.38120E-002	  7.36632E-002	  4.96901E-002	  5.30915E-002
  1.40800E-001	  5.47693E-002	  5.00701E-002	  3.71737E-002	  5.07593E-002
  1.53600E-001	  3.74493E-002	  4.56553E-002	  3.44669E-002	  3.38966E-002
  1.66400E-001	  2.71542E-002	  2.73654E-002	  2.06560E-002	  3.28867E-002
  1.79200E-001	  2.94375E-002	  3.98337E-002	  1.12605E-002	  1.85477E-002
  1.92000E-001	  2.85743E-002	  3.39115E-002	  6.74243E-003	  3.12054E-002
  2.04800E-001	  2.06644E-002	  2.56682E-002	  5.63186E-003	  1.97114E-002
  2.30400E-001	  1.40218E-002	  1.83950E-002	  7.70274E-003	  1.14966E-002
  2.56000E-001	 -7.48825E-003	  1.50330E-002	 -3.29344E-003	  1.66981E-002
  2.81600E-001	 -5.14867E-003	  1.16955E-002	 -8.21831E-003	  6.68951E-003
  3.07200E-001	 -1.14937E-002	  4.22660E-003	 -5.16429E-003	  2.95858E-003
  3.32800E-001	 -6.18773E-003	  3.51937E-003	 -5.43210E-003	 -1.92165E-003
  3.58400E-001	 -4.54750E-003	  7.74547E-003	 -5.28882E-003	  6.39994E-004
  3.84000E-001	  5.55263E-004	  1.11774E-002	 -1.03915E-003	  2.55405E-003
  4.09600E-001	 -5.08943E-003	  1.08889E-003	 -6.38580E-003	  1.19674E-003
  4.60800E-001	  2.32155E-003	  1.08666E-002	 -7.88669E-003	 -2.46435E-003
  5.12000E-001	 -1.08408E-003	  3.07228E-003	 -2.71397E-003	 -1.40717E-003
  5.63200E-001	  2.62947E-004	  1.64017E-002	 -2.75842E-003	 -5.89852E-003
  6.14400E-001	 -3.89469E-003	  1.22552E-002	 -3.98781E-003	 -9.68856E-003
  6.65600E-001	 -7.00548E-003	  1.54811E-002	 -9.87097E-003	 -1.12375E-002
  7.16800E-001	 -3.86356E-003	  7.93289E-003	  9.65114E-005	 -7.01766E-003
  7.68000E-001	 -2.19630E-004	  7.67989E-003	  4.21972E-004	 -7.94129E-003
  8.19200E-001	 -5.43620E-003	  7.26834E-003	 -2.75817E-003	 -3.47820E-003
  9.21600E-001	 -1.11298E-002	  1.34891E-003	 -2.32805E-003	  2.73576E-003
  1.02400E+000	  1.37113E-003	  3.37962E-003	  8.40094E-004	  4.58462E-003
  1.12640E+000	  3.84725E-003	  6.37293E-005	  4.65565E-003	  4.82866E-003
  1.22880E+000	 -3.88741E-003	  8.71881E-003	  5.41017E-003	 -1.56181E-003
  1.33120E+000	 -7.63570E-003	  2.97122E-003	  9.50421E-003	 -6.37111E-003
  1.43360E+000	 -8.44719E-003	  2.43792E-003	  4.88242E-003	  1.47395E-003
  1.53600E+000	 -1.05301E-002	 -1.18756E-003	  5.11359E-004	 -4.33286E-003
  1.63840E+000	 -1.23423E-002	 -2.84788E-003	  1.67480E-003	 -4.47230E-003
  1.84320E+000	 -1.99598E-003	 -6.87508E-003	  6.11763E-004	 -2.34621E-003
  2.04800E+000	 -5.52452E-004	 -6.84129E-003	  6.69823E-003	 -5.02319E-003
  2.25280E+000	 -2.06472E-003	 -1.12280E-003	 -5.02174E-004	 -1.94778E-003
  2.45760E+000	 -5.21301E-003	  3.47811E-003	  3.49780E-003	  3.35493E-003
  2.66240E+000	  8.46567E-004	  4.95031E-003	 -4.12853E-003	 -8.96398E-004
  2.86720E+000	 -3.37941E-003	 -1.09367E-003	  4.84800E-003	 -8.25328E-003
  3.07200E+000	 -3.70751E-003	  2.68298E-003	 -8.07214E-003	 -4.60327E-003
  3.27680E+000	  4.78943E-003	  4.24471E-003	 -3.45409E-003	  1.94217E-003
  3.68640E+000	 -2.57360E-003	  2.75365E-004	  1.73446E-003	  6.25711E-003
  4.09600E+000	 -3.70573E-003	 -9.07798E-004	 -4.96510E-003	  1.34738E-003
  4.50560E+000	  1.97310E-003	 -1.99399E-003	 -2.00701E-003	  6.11165E-004
  4.91520E+000	  2.75810E-003	 -3.92197E-004	  3.07040E-003	 -3.06736E-003
  5.32480E+000	  4.55186E-003	 -6.15976E-003	 -4.99840E-003	  4.66577E-003
  5.73440E+000	 -1.60575E-003	 -8.38959E-004	  2.28243E-004	  8.37530E-004
  6.14400E+000	  1.77919E-003	 -1.93705E-003	 -3.27622E-003	 -3.72625E-003
  6.55360E+000	  1.77785E-003	  3.86171E-003	 -1.51512E-003	 -2.59373E-004
  7.37280E+000	 -2.49288E-003	  1.25984E-003	 -3.28230E-003	 -7.45561E-003
  8.19200E+000	  2.58102E-003	  8.10587E-004	  1.05603E-003	 -2.87380E-003
  9.01120E+000	 -2.15451E-003	  4.44557E-006	 -6.76359E-004	  4.09781E-003
  9.83040E+000	 -5.95782E-004	 -4.17024E-003	 -2.03616E-003	  1.95831E-003
  1.06496E+001	 -2.04760E-005	 -1.13718E-003	 -1.01098E-004	 -2.95176E-003
  1.14688E+001	 -2.75856E-004	 -2.95244E-003	 -3.00878E-003	 -3.19640E-003
  1.22880E+001	 -6.46476E-004	 -3.75518E-003	 -2.91213E-003	 -1.11773E-003
  1.31072E+001	 -2.01881E-003	  7.23429E-004	 -2.58374E-003	 -1.27751E-003
  1.47456E+001	  8.13942E-004	  6.30829E-004	  1.61398E-003	  1.16832E-003
  1.63840E+001	 -1.52027E-004	  3.92597E-004	  4.55353E-004	 -3.04330E-003
  1.80224E+001	 -2.03730E-003	 -1.55562E-003	 -2.32296E-003	 -1.55572E-005
  1.96608E+001	 -3.34018E-003	  7.12593E-004	 -5.11079E-004	  1.70948E-003
  2.12992E+001	 -7.63085E-004	  2.46882E-003	  2.36952E-003	 -1.48209E-003
  2.29376E+001	  2.22913E-003	  2.89720E-003	 -6.12698E-004	  3.90933E-003
  2.45760E+001	  2.88616E-003	  1.62821E-003	 -1.61490E-003	 -8.78264E-004
  2.62144E+001	  5.72105E-004	  8.50267E-005	 -3.95432E-003	 -1.79019E-004
  2.94912E+001	 -3.91596E-005	  1.26043E-003	  2.08283E-003	  4.40045E-005
  3.27680E+001	 -6.26357E-004	 -1.56181E-003	  1.22060E-003	  9.55674E-004
  3.60448E+001	  6.89670E-005	 -2.26437E-003	  3.47776E-003	  9.31840E-004
  3.93216E+001	  1.77279E-003	 -2.13425E-004	  1.74869E-004	  1.22898E-003
  4.25984E+001	 -6.76624E-004	 -6.85147E-004	 -2.75173E-003	 -7.01980E-004
  4.58752E+001	  3.32260E-004	 -1.56510E-003	  2.85139E-004	 -3.91032E-004
  4.91520E+001	 -1.99748E-003	  2.43625E-003	 -4.23499E-004	  1.25572E-003
  5.24288E+001	 -6.51214E-004	  1.31917E-003	  2.29641E-004	 -1.41703E-003
  5.89824E+001	  4.82476E-004	 -9.37011E-004	  1.11890E-005	  1.11893E-003
  6.55360E+001	 -1.18919E-003	 -4.14845E-004	 -1.22275E-003	  3.07350E-004
  7.20896E+001	 -5.17523E-004	  1.76997E-003	  5.05527E-004	 -1.14651E-003
  7.86432E+001	  9.96337E-005	 -1.09515E-003	 -1.27587E-003	  5.24331E-004
  8.51968E+001	 -8.06579E-004	 -2.98421E-004	  1.79126E-004	  1.41120E-003
  9.17504E+001	 -8.67815E-004	 -3.05931E-004	  5.40019E-005	  1.93599E-004
  9.83040E+001	  1.56910E-003	 -1.56482E-003	  7.90733E-004	 -5.37078E-004
  1.04858E+002	  2.94272E-004	 -6.14307E-004	  1.28988E-004	 -8.00167E-004
  1.17965E+002	 -1.58386E-004	  3.01810E-004	  7.02826E-004	  2.38323E-004
  1.31072E+002	  7.64874E-004	  8.77927E-004	  8.95149E-004	 -6.26412E-004
  1.44179E+002	 -1.52464E-004	 -6.36537E-004	 -1.93249E-004	  5.29774E-005
  1.57286E+002	  4.95126E-004	 -7.80908E-004	  7.36776E-004	 -8.06065E-004
  1.70394E+002	  4.83828E-004	  9.05161E-004	 -2.78651E-004	  4.81339E-004
  1.83501E+002	 -4.57282E-004	  1.00219E-003	 -1.33145E-003	 -8.08295E-004
  1.96608E+002	  4.12710E-005	 -4.52498E-004	 -5.18812E-004	 -4.78861E-005
  2.09715E+002	 -2.48317E-005	 -1.47024E-004	 -6.72384E-004	 -1.11434E-004
  2.35930E+002	  1.78076E-004	  6.71999E-004	  3.06357E-004	 -3.09474E-004
  2.62144E+002	 -6.67911E-005	  5.21099E-004	 -2.96697E-005	  2.40594E-004
  2.88358E+002	  2.83065E-004	 -8.62555E-004	 -2.44664E-004	 -5.56241E-004
  3.14573E+002	  2.72786E-004	 -5.45644E-004	 -1.11425E-003	  4.66660E-004
  3.40787E+002	 -5.28788E-004	 -3.67635E-005	 -2.26655E-004	  1.17355E-004
  3.67002E+002	 -3.77711E-004	 -3.26135E-004	  1.90058E-004	 -1.17890E-004
  3.93216E+002	 -2.75875E-004	  4.62153E-005	  7.30825E-005	 -2.99886E-004

"Count Rate"
       0.01311	      50.50659	      60.80627	      57.44934	      61.56921
       0.02621	      52.64282	      55.00793	      52.49023	      60.65369
       0.03932	      53.63464	      52.56653	      58.74634	      56.53381
       0.05243	      50.20142	      57.90710	      56.07605	      57.98340
       0.06554	      51.72729	      51.42212	      55.16052	      56.99158
       0.07864	      51.11694	      56.45752	      51.87988	      60.19592
       0.09175	      46.00525	      51.42212	      56.61011	      61.79810
       0.10486	      52.49023	      54.93164	      59.81445	      53.10059
       0.11796	      53.55835	      57.52563	      51.19324	      53.78723
       0.13107	      56.45752	      54.16870	      58.97522	      51.80359
       0.14418	      50.88806	      50.35400	      53.55835	      52.33765
       0.15729	      54.77905	      55.61829	      54.55017	      55.77087
       0.17039	      58.67004	      59.89075	      56.45752	      59.50928
       0.18350	      52.56653	      57.60193	      55.77087	      55.08423
       0.19661	      54.09241	      57.14417	      55.08423	      56.61011
       0.20972	      61.49292	      54.09241	      54.77905	      51.19324
       0.22282	      55.31311	      55.69458	      49.74365	      55.31311
       0.23593	      46.69189	      58.67004	      54.09241	      48.44666
       0.24904	      54.77905	      48.98071	      50.20142	      55.77087
       0.26214	      58.28857	      63.32397	      60.72998	      54.09241
       0.27525	      53.71094	      49.13330	      53.48206	      55.31311
       0.28836	      56.61011	      56.30493	      52.71912	      60.65369
       0.30147	      53.10059	      45.70007	      52.94800	      48.14148
       0.31457	      56.38123	      59.58557	      57.14417	      53.10059
       0.32768	      55.00793	      58.59375	      58.28857	      53.63464
       0.34079	      56.38123	      56.53381	      57.75452	      55.54199
       0.35389	      52.87170	      52.49023	      56.07605	      46.76819
       0.36700	      50.65918	      62.33215	      53.32947	      53.93982
       0.38011	      53.86353	      59.28040	      57.06787	      54.16870
       0.39322	      49.28589	      63.24768	      60.50110	      53.25317
       0.40632	      49.74365	      65.07874	      49.43848	      46.00525
       0.41943	      57.14417	      58.89893	      56.53381	      54.93164
       0.43254	      55.23682	      61.26404	      57.98340	      53.17688
       0.44564	      62.25586	      60.27222	      58.67004	      50.50659
       0.45875	      57.83081	      57.52563	      52.03247	      52.71912
       0.47186	      48.14148	      48.06519	      68.74084	      53.32947
       0.48497	      55.69458	      47.14966	      59.58557	      53.25317
       0.49807	      52.49023	      61.03516	      57.90710	      55.46570
       0.51118	      49.89624	      59.50928	      54.93164	      59.43298
       0.52429	      57.83081	      55.99976	      55.99976	      55.54199
       0.53740	      54.09241	      56.83899	      51.95618	      59.20410
       0.55050	      56.07605	      55.61829	      53.78723	      54.93164
       0.56361	      52.26135	      57.22046	      57.52563	      54.24500
       0.57672	      55.23682	      63.17139	      54.77905	      53.02429
       0.58982	      55.54199	      61.34033	      61.56921	      61.26404
       0.60293	      53.93982	      48.75183	      57.37305	      55.00793
       0.61604	      53.86353	      53.40576	      57.22046	      58.28857
       0.62915	      50.20142	      63.32397	      56.07605	      48.29407
       0.64225	      56.76270	      55.69458	      55.84717	      50.81177
       0.65536	      53.25317	      56.99158	      49.13330	      62.48474
       0.66847	      46.08154	      60.19592	      55.46570	      48.90442
       0.68157	      52.87170	      62.40845	      59.35669	      60.95886
       0.69468	      51.87988	      54.77905	      53.78723	      57.90710
       0.70779	      52.79541	      54.01611	      56.91528	      50.35400
       0.72090	      56.68640	      48.29407	      59.28040	      51.65100
       0.73400	      55.46570	      54.93164	      55.61829	      57.06787
       0.74711	      56.61011	      57.37305	      54.55017	      56.07605
