ALV-7004/USB-FAST
Date :	"11/11/2025"
Time :	"3:58:45 PM"
Samplename : 	""
SampMemo(0) : 	""
SampMemo(1) : 	""
SampMemo(2) : 	""
SampMemo(3) : 	""
SampMemo(4) : 	""
SampMemo(5) : 	""
SampMemo(6) : 	""
SampMemo(7) : 	""
SampMemo(8) : 	""
SampMemo(9) : 	""
Temperature [K] :	     298.16000
Viscosity [cp]  :	       0.89000
Refractive Index:	       1.33200
Wavelength [nm] :	       0.00000
Angle [°]       :	       0.00000
Duration [s]    :	         1
FloatDur [ms]   :	          944
Stop TP [ms]   :	     68141
Runs            :	         1
Mode            :	"A-CH0+1  A-CH2+3 "
MeanCR0 [kHz]   :	      56.98204
MeanCR1 [kHz]   :	      58.05334
MeanCR2 [kHz]   :	      59.32808
MeanCR3 [kHz]   :	      56.54971

"Correlation"
  3.12500E-006	 -1.00000E+000	 -1.00000E+000	 -1.00000E+000	 -1.00000E+000
  6.25000E-006	 -1.00000E+000	 -1.00000E+000	 -1.00000E+000	 -1.00000E+000
  9.37500E-006	 -1.00000E+000	 -1.00000E+000	 -1.00000E+000	 -1.00000E+000
  1.25000E-005	 -1.00000E+000	 -1.00000E+000	 -1.00000E+000	 -1.00000E+000
  1.56250E-005	 -1.00000E+000	 -1.00000E+000	 -1.00000E+000	 -1.00000E+000
  1.87500E-005	 -1.00000E+000	 -1.00000E+000	 -1.00000E+000	 -1.00000E+000
  2.18750E-005	 -8.95568E-001	  3.07966E-001	  4.45035E-001	 -5.75862E-001
  2.50000E-005	  1.25761E+001	  1.12748E+001	  9.69326E+000	  2.25396E+001
  2.81250E-005	  3.38612E+000	  1.71655E+000	  1.69740E+000	  7.05861E+000
  3.12500E-005	  1.40192E+000	  1.41471E+000	  1.02305E+000	  5.46810E+000
  3.43750E-005	  1.40192E+000	  9.11643E-001	  1.11938E+000	  3.55948E+000
  3.75000E-005	  1.81965E+000	  1.61593E+000	  9.26713E-001	  5.15000E+000
  4.06250E-005	  1.29749E+000	  9.11643E-001	  1.79373E+000	  3.13534E+000
  4.37500E-005	  1.29749E+000	  5.09192E-001	  1.21572E+000	  3.34741E+000
  4.68750E-005	  9.84199E-001	  9.11643E-001	  1.11938E+000	  2.92327E+000
  5.00000E-005	  1.03641E+000	  5.09192E-001	  1.16755E+000	  2.12801E+000
  5.62500E-005	  4.09825E-001	  5.09192E-001	  7.34041E-001	  1.65086E+000
  6.25000E-005	  2.53178E-001	  1.16317E+000	  1.16755E+000	  1.38577E+000
  6.87500E-005	  9.31983E-001	  1.06741E-001	  8.78545E-001	  1.54483E+000
  7.50000E-005	  7.75335E-001	  8.61337E-001	  7.34041E-001	  1.49181E+000
  8.12500E-005	  5.14257E-001	  5.09192E-001	  2.52363E-001	  6.43533E-001
  8.75000E-005	  8.27551E-001	  2.57660E-001	  6.37706E-001	  1.06767E+000
  9.37500E-005	  9.65308E-002	  7.10417E-001	  1.15241E-002	  1.06767E+000
  1.00000E-004	  5.92580E-001	  6.09804E-001	  5.65454E-001	  1.12069E+000
  1.12500E-004	  7.23120E-001	  5.84651E-001	  6.61789E-001	  8.82110E-001
  1.25000E-004	  8.27551E-001	  4.84038E-001	  7.58125E-001	  6.96550E-001
  1.37500E-004	  7.75335E-001	  6.60111E-001	  5.65454E-001	  3.51938E-001
  1.50000E-004	  9.31983E-001	  7.35570E-001	  7.34041E-001	  4.04956E-001
  1.62500E-004	  1.08863E+000	  2.82813E-001	  5.65454E-001	  7.23059E-001
  1.75000E-004	  2.53178E-001	  3.58272E-001	  3.48699E-001	  4.57973E-001
  1.87500E-004	  2.53178E-001	  6.34958E-001	  5.41370E-001	  6.96550E-001
  2.00000E-004	  6.57850E-001	  4.96615E-001	  3.84824E-001	  4.71227E-001
  2.25000E-004	  5.79526E-001	  5.84651E-001	  5.17286E-001	  3.91701E-001
  2.50000E-004	  7.36173E-001	  7.73300E-001	  6.37705E-001	  3.25430E-001
  2.75000E-004	  3.70663E-001	  2.95389E-001	  4.08908E-001	  8.95364E-001
  3.00000E-004	  4.75094E-001	  4.71462E-001	  5.65453E-001	  5.24244E-001
  3.25000E-004	  4.35933E-001	  5.21768E-001	  4.81160E-001	  5.64007E-001
  3.50000E-004	  4.22879E-001	  4.84038E-001	  4.81160E-001	  4.18210E-001
  3.75000E-004	  5.01202E-001	  5.46921E-001	  5.29328E-001	  4.71227E-001
  4.00000E-004	  5.66471E-001	  3.96001E-001	  5.47390E-001	  5.97142E-001
  4.50000E-004	  3.90243E-001	  4.65173E-001	  5.47390E-001	  4.57972E-001
  5.00000E-004	  6.51322E-001	  6.34957E-001	  6.25663E-001	  4.11582E-001
  5.50000E-004	  4.81621E-001	  4.58884E-001	  4.63096E-001	  4.97735E-001
  6.00000E-004	  4.94675E-001	  5.28083E-001	  5.47390E-001	  4.24836E-001
  6.50000E-004	  3.18447E-001	  5.78391E-001	  4.51054E-001	  3.98328E-001
  7.00000E-004	  4.94675E-001	  4.02315E-001	  4.69117E-001	  5.90515E-001
  7.50000E-004	  3.44555E-001	  6.03544E-001	  4.14928E-001	  2.06140E-001
  8.00000E-004	  3.67398E-001	  4.93496E-001	  4.69116E-001	  4.11581E-001
  9.00000E-004	  4.00033E-001	  4.90352E-001	  3.84822E-001	  5.40810E-001
  1.00000E-003	  4.06560E-001	  3.80305E-001	  5.56420E-001	  6.03768E-001
  1.10000E-003	  4.26140E-001	  6.22408E-001	  5.17284E-001	  3.85072E-001
  1.20000E-003	  5.69734E-001	  5.56380E-001	  4.11917E-001	  3.91699E-001
  1.30000E-003	  4.65302E-001	  4.43189E-001	  5.29326E-001	  4.21521E-001
  1.40000E-003	  5.40362E-001	  5.18650E-001	  5.86525E-001	  5.60691E-001
  1.50000E-003	  3.54344E-001	  5.75245E-001	  5.23305E-001	  5.04361E-001
  1.60000E-003	  4.27796E-001	  3.89735E-001	  4.67608E-001	  5.12670E-001
  1.80000E-003	  4.60432E-001	  4.63623E-001	  4.72124E-001	  4.34800E-001
  2.00000E-003	  4.37587E-001	  4.32182E-001	  4.51051E-001	  4.13262E-001
  2.20000E-003	  4.01688E-001	  5.10786E-001	  4.08904E-001	  3.93380E-001
  2.40000E-003	  5.27334E-001	  3.58293E-001	  3.77294E-001	  3.78468E-001
  2.60000E-003	  5.20807E-001	  4.22749E-001	  3.98367E-001	  5.19298E-001
  2.80000E-003	  4.01688E-001	  4.74655E-001	  4.64598E-001	  4.49711E-001
  3.00000E-003	  4.21269E-001	  4.29063E-001	  3.84820E-001	  4.34800E-001
  3.20000E-003	  4.97197E-001	  3.82681E-001	  4.45025E-001	  4.90326E-001
  3.60000E-003	  4.31108E-001	  4.81725E-001	  4.72872E-001	  4.22396E-001
  4.00000E-003	  4.10710E-001	  5.14739E-001	  4.35993E-001	  4.11600E-001
  4.40000E-003	  3.93550E-001	  4.42422E-001	  4.66098E-001	  4.15742E-001
  4.80000E-003	  4.33529E-001	  4.47138E-001	  4.08899E-001	  4.62133E-001
  5.20000E-003	  3.89471E-001	  4.74650E-001	  4.26209E-001	  4.10772E-001
  5.60000E-003	  3.72337E-001	  3.81895E-001	  4.51798E-001	  3.61896E-001
  6.00000E-003	  4.37609E-001	  3.45736E-001	  4.36746E-001	  3.90890E-001
  6.40000E-003	  3.82170E-001	  3.78348E-001	  4.18674E-001	  3.87593E-001
  7.20000E-003	  4.28269E-001	  3.80313E-001	  4.16416E-001	  4.12031E-001
  8.00000E-003	  4.27453E-001	  3.64199E-001	  3.90451E-001	  3.59427E-001
  8.80000E-003	  3.85841E-001	  3.87781E-001	  4.01012E-001	  4.22386E-001
  9.60000E-003	  3.88289E-001	  3.55160E-001	  3.56231E-001	  3.88421E-001
  1.04000E-002	  3.75235E-001	  3.66164E-001	  4.07033E-001	  3.81768E-001
  1.12000E-002	  3.74801E-001	  3.61055E-001	  3.80315E-001	  3.55259E-001
  1.20000E-002	  3.64602E-001	  3.25290E-001	  4.24344E-001	  3.70170E-001
  1.28000E-002	  3.71468E-001	  3.59514E-001	  3.96289E-001	  3.55059E-001
  1.44000E-002	  3.49028E-001	  3.23551E-001	  3.74463E-001	  3.40769E-001
  1.60000E-002	  3.21489E-001	  3.73467E-001	  3.60540E-001	  3.27515E-001
  1.76000E-002	  3.35768E-001	  3.48730E-001	  3.37397E-001	  3.32303E-001
  1.92000E-002	  2.95581E-001	  3.22003E-001	  3.47558E-001	  3.04551E-001
  2.08000E-002	  3.25748E-001	  3.47748E-001	  2.93746E-001	  2.87776E-001
  2.24000E-002	  3.23504E-001	  3.56002E-001	  3.06728E-001	  2.91296E-001
  2.40000E-002	  2.56571E-001	  2.88988E-001	  3.33258E-001	  3.20059E-001
  2.56000E-002	  2.77996E-001	  2.70966E-001	  3.24943E-001	  2.88721E-001
  2.88000E-002	  3.02044E-001	  2.78556E-001	  2.93616E-001	  2.80851E-001
  3.20000E-002	  2.63182E-001	  2.70793E-001	  2.73861E-001	  2.66791E-001
  3.52000E-002	  2.40798E-001	  2.40625E-001	  2.70004E-001	  2.44470E-001
  3.84000E-002	  2.50738E-001	  2.38637E-001	  2.42252E-001	  2.17648E-001
  4.16000E-002	  2.19321E-001	  2.07683E-001	  2.27482E-001	  2.21169E-001
  4.48000E-002	  2.36787E-001	  2.25371E-001	  2.24378E-001	  2.07292E-001
  4.80000E-002	  2.26178E-001	  1.89799E-001	  2.32468E-001	  2.13609E-001
  5.12000E-002	  2.04288E-001	  1.93768E-001	  2.00182E-001	  1.76538E-001
  5.76000E-002	  1.81132E-001	  1.86103E-001	  1.91126E-001	  1.74932E-001
  6.40000E-002	  1.68227E-001	  1.63942E-001	  1.68523E-001	  1.41535E-001
  7.04000E-002	  1.58128E-001	  1.59323E-001	  1.51140E-001	  1.32111E-001
  7.68000E-002	  1.49763E-001	  1.40778E-001	  1.35288E-001	  1.31882E-001
  8.32000E-002	  1.43111E-001	  1.27118E-001	  1.40651E-001	  1.32266E-001
  8.96000E-002	  1.26340E-001	  1.19658E-001	  1.25317E-001	  1.15593E-001
  9.60000E-002	  1.25137E-001	  1.10175E-001	  1.21668E-001	  1.00888E-001
  1.02400E-001	  1.06764E-001	  1.01761E-001	  9.95426E-002	  9.61281E-002
  1.15200E-001	  9.07686E-002	  8.81258E-002	  8.17629E-002	  8.27633E-002
  1.28000E-001	  6.91414E-002	  7.36109E-002	  8.84421E-002	  6.76374E-002
  1.40800E-001	  5.52988E-002	  6.68302E-002	  6.26617E-002	  6.47376E-002
  1.53600E-001	  4.87189E-002	  5.46201E-002	  5.21394E-002	  4.74166E-002
  1.66400E-001	  4.98096E-002	  4.94854E-002	  4.75296E-002	  3.97788E-002
  1.79200E-001	  4.14576E-002	  4.67147E-002	  3.31257E-002	  4.55329E-002
  1.92000E-001	  3.79118E-002	  2.95291E-002	  3.52139E-002	  3.53062E-002
  2.04800E-001	  3.14410E-002	  2.76320E-002	  2.81748E-002	  3.14495E-002
  2.30400E-001	  2.44073E-002	  2.35652E-002	  1.88484E-002	  2.58368E-002
  2.56000E-001	  2.52427E-002	  2.66678E-002	  2.08436E-002	  1.52520E-002
  2.81600E-001	  1.13160E-002	  2.23734E-002	  1.55348E-002	  8.33802E-003
  3.07200E-001	  1.53527E-002	  1.34290E-002	  1.14134E-002	  4.05240E-003
  3.32800E-001	  1.20563E-002	  2.13537E-002	  6.12771E-003	  7.34106E-003
  3.58400E-001	  1.33893E-002	  8.50210E-003	  8.59813E-003	  1.13608E-002
  3.84000E-001	  2.19844E-002	  1.18626E-002	  8.46699E-004	  2.08438E-003
  4.09600E-001	  8.03918E-003	  4.62796E-003	 -8.55394E-004	  6.66301E-003
  4.60800E-001	 -3.20776E-003	 -9.64239E-004	  4.93478E-003	  1.05576E-002
  5.12000E-001	 -4.93739E-003	 -1.08139E-002	  2.48915E-003	  6.07756E-003
  5.63200E-001	 -3.73731E-003	 -1.22104E-002	  5.06675E-003	 -3.31723E-003
  6.14400E-001	 -3.10666E-004	 -2.43957E-003	  7.65025E-003	 -6.81924E-003
  6.65600E-001	 -5.60156E-003	  2.83353E-003	 -3.96122E-003	 -1.86901E-003
  7.16800E-001	 -6.83869E-003	  2.27429E-003	  8.52890E-004	 -9.66107E-003
  7.68000E-001	 -1.49902E-003	 -2.86977E-003	  1.27096E-003	 -2.76619E-003
  8.19200E-001	  6.35877E-004	  3.13901E-003	  6.03419E-003	 -9.47548E-004
  9.21600E-001	  5.29504E-004	  2.61117E-003	  7.45595E-003	 -5.85540E-003
  1.02400E+000	 -3.82333E-003	  6.76893E-004	  2.60756E-003	 -4.54527E-003
  1.12640E+000	 -7.57062E-003	  8.55031E-003	 -3.88328E-003	 -2.25944E-003
  1.22880E+000	 -6.54477E-003	  8.49180E-003	  1.72776E-003	  4.22344E-003
  1.33120E+000	 -8.12301E-003	  3.52212E-003	 -2.77212E-003	  4.41894E-003
  1.43360E+000	 -3.44442E-003	  4.17410E-003	 -8.62927E-003	  1.75982E-003
  1.53600E+000	 -8.23029E-004	  3.26083E-003	 -7.73083E-003	  7.01648E-003
  1.63840E+000	  1.87577E-003	  1.40560E-003	 -8.20780E-003	  3.74276E-003
  1.84320E+000	 -1.42399E-003	 -3.57681E-003	 -9.10429E-004	  4.57804E-003
  2.04800E+000	 -1.44620E-002	  7.43834E-003	  2.89737E-003	 -3.08496E-003
  2.25280E+000	 -9.40365E-003	  9.07823E-003	  1.93679E-004	  3.28688E-003
  2.45760E+000	 -1.60336E-003	  5.81834E-003	 -7.52572E-003	  3.90556E-003
  2.66240E+000	  5.31555E-003	 -3.60093E-003	  4.60004E-003	 -2.27344E-003
  2.86720E+000	 -5.75510E-003	 -1.55136E-003	 -1.31757E-003	  3.56519E-003
  3.07200E+000	 -2.99184E-003	  1.88485E-003	 -1.20690E-003	  6.88241E-003
  3.27680E+000	  4.73445E-003	  1.34390E-003	 -3.70515E-003	 -3.90090E-004
  3.68640E+000	  3.79407E-003	  1.10841E-003	 -3.46632E-003	  5.73061E-003
  4.09600E+000	  5.83961E-003	  1.71440E-003	 -3.11279E-003	 -3.31044E-003
  4.50560E+000	 -6.38902E-003	 -2.33638E-003	  4.84423E-003	 -6.80469E-003
  4.91520E+000	 -3.44545E-003	 -5.27282E-003	  5.37832E-004	  1.23881E-003
  5.32480E+000	  4.25444E-003	 -2.44446E-004	 -1.86975E-003	 -2.05624E-004
  5.73440E+000	  5.03840E-003	 -3.95633E-003	 -5.78039E-003	  1.15220E-003
  6.14400E+000	 -1.17860E-003	 -5.69222E-003	 -1.54964E-003	  6.02887E-003
  6.55360E+000	 -1.87991E-003	 -6.84968E-003	  6.28893E-004	 -1.60246E-003
  7.37280E+000	  5.33829E-004	 -1.37594E-003	 -4.55998E-003	 -2.12525E-003
  8.19200E+000	 -6.59076E-003	  1.31730E-003	 -4.29719E-003	 -3.75750E-003
  9.01120E+000	 -1.40227E-003	  9.14294E-006	  2.18398E-003	 -3.32545E-003
  9.83040E+000	 -7.60018E-004	  6.45886E-003	  1.10169E-003	 -1.36327E-003
  1.06496E+001	 -4.26720E-003	  2.51278E-003	 -7.71831E-004	 -2.32002E-003
  1.14688E+001	  5.50034E-003	  1.73372E-003	 -2.13373E-004	 -5.42489E-003
  1.22880E+001	 -3.03248E-003	  7.10816E-003	 -4.20261E-003	 -1.89784E-003
  1.31072E+001	 -6.74696E-004	  1.04591E-003	 -1.96012E-003	 -8.06552E-004
  1.47456E+001	  2.79662E-003	 -3.90849E-003	 -8.62948E-005	 -2.67584E-003
  1.63840E+001	 -1.59443E-003	  6.16777E-004	  7.42351E-004	  2.61586E-003
  1.80224E+001	 -5.38172E-004	 -1.05514E-003	 -1.70762E-003	  1.00215E-005
  1.96608E+001	  8.67525E-004	  1.94570E-003	  1.13104E-003	  8.06216E-004
  2.12992E+001	 -7.78142E-004	  3.36953E-003	 -3.78595E-003	  2.92201E-003
  2.29376E+001	 -1.68942E-003	  2.26669E-005	 -2.42935E-003	 -3.79415E-003
  2.45760E+001	 -3.49580E-003	  2.06480E-003	  1.05124E-003	 -3.94650E-003
  2.62144E+001	  1.47765E-003	 -1.30106E-003	  3.25009E-004	 -4.69444E-004
  2.94912E+001	 -2.79685E-004	 -2.84361E-003	 -2.22532E-004	 -2.65549E-004
  3.27680E+001	 -3.41164E-004	 -1.50914E-004	 -7.00929E-004	  2.12954E-003
  3.60448E+001	  1.22058E-003	 -1.96019E-003	 -3.71662E-004	  5.02151E-004
  3.93216E+001	 -1.83102E-003	 -5.36003E-004	  8.58632E-004	  3.13068E-004
  4.25984E+001	  2.91903E-003	  2.33339E-003	  4.04323E-004	 -9.80574E-004
  4.58752E+001	  2.33337E-003	 -1.80998E-003	  1.04905E-004	 -2.84643E-003
  4.91520E+001	  2.44604E-003	 -5.84486E-004	 -1.27480E-003	  2.12392E-003
  5.24288E+001	 -2.91742E-004	 -1.20373E-004	  1.34717E-003	 -5.82050E-004
  5.89824E+001	 -6.44639E-004	  1.41971E-003	 -2.45178E-003	 -5.37714E-004
  6.55360E+001	  2.19989E-004	  1.24863E-003	 -1.62370E-003	 -8.65024E-004
  7.20896E+001	 -1.50626E-004	 -1.71032E-003	 -7.53784E-004	  2.18306E-003
  7.86432E+001	  7.95419E-004	 -4.07623E-004	 -8.46461E-004	 -1.09588E-003
  8.51968E+001	  1.02930E-003	  9.72920E-004	 -4.70506E-004	 -1.75217E-003
  9.17504E+001	  7.90774E-004	 -9.02817E-004	  1.69042E-003	  5.18853E-004
  9.83040E+001	 -1.17802E-003	 -1.83632E-003	 -1.76211E-004	 -1.47227E-003
  1.04858E+002	 -6.24767E-005	 -4.56721E-004	  1.40479E-003	  5.69293E-004
  1.17965E+002	  9.61399E-004	  8.47287E-004	  7.44211E-004	  6.25856E-004
  1.31072E+002	  9.82563E-004	  1.08333E-004	 -4.44550E-004	 -1.67395E-003
  1.44179E+002	 -1.33850E-004	 -1.81710E-004	  6.24930E-004	  1.80092E-003
  1.57286E+002	 -6.23432E-004	 -9.22958E-004	 -5.57808E-004	  2.80791E-004
  1.70394E+002	  3.10944E-004	  1.05565E-004	 -2.94399E-004	 -1.72366E-003
  1.83501E+002	  6.13506E-004	 -5.08357E-005	 -6.56368E-004	  6.42353E-004
  1.96608E+002	 -1.10558E-004	 -2.36531E-003	  1.17025E-004	  1.55833E-004
  2.09715E+002	 -3.47969E-004	 -1.64132E-003	 -3.27971E-004	  3.62730E-004
  2.35930E+002	 -9.54112E-004	  3.75073E-004	  1.10695E-003	  6.88633E-004
  2.62144E+002	  1.05681E-004	  1.18691E-003	 -1.47437E-005	  1.50501E-004
  2.88358E+002	 -9.70381E-004	  6.10789E-004	 -3.04244E-004	  2.00755E-004
  3.14573E+002	 -3.73133E-004	 -1.31673E-003	 -6.95416E-004	 -6.76320E-004
  3.40787E+002	 -3.11459E-004	 -1.12114E-003	  4.98524E-004	  1.79733E-004
  3.67002E+002	 -6.18252E-004	  1.17328E-003	 -1.52581E-004	  3.32171E-004
  3.93216E+002	  1.20538E-004	 -7.32993E-005	  1.92829E-004	  5.25579E-004

"Count Rate"
       0.01311	      54.09241	      62.94250	      56.68640	      54.39758
       0.02621	      65.15503	      56.91528	      59.66187	      48.90442
       0.03932	      65.07874	      55.99976	      67.67273	      63.62915
       0.05243	      48.67554	      61.87439	      48.44666	      57.67822
       0.06554	      52.71912	      63.09509	      60.42480	      51.26953
       0.07864	      59.35669	      57.52563	      60.57739	      53.25317
       0.09175	      58.21228	      57.06787	      56.76270	      54.77905
       0.10486	      56.99158	      58.44116	      59.28040	      56.45752
       0.11796	      52.64282	      60.88257	      57.52563	      57.90710
       0.13107	      53.32947	      62.25586	      58.89893	      51.87988
       0.14418	      55.84717	      56.68640	      51.87988	      57.60193
       0.15729	      62.63733	      58.82263	      64.23950	      58.59375
       0.17039	      57.75452	      48.59924	      56.99158	      51.95618
       0.18350	      57.44934	      61.11145	      53.71094	      61.34033
       0.19661	      61.72180	      51.34583	      59.73816	      61.79810
       0.20972	      57.83081	      51.11694	      56.83899	      53.63464
       0.22282	      60.88257	      65.38391	      54.70276	      54.24500
       0.23593	      52.71912	      57.83081	      53.55835	      59.66187
       0.24904	      53.10059	      53.17688	      57.52563	      51.11694
       0.26214	      58.59375	      48.37036	      65.61279	      55.23682
       0.27525	      57.37305	      58.97522	      60.88257	      53.17688
       0.28836	      57.29675	      60.34851	      51.49841	      57.98340
       0.30147	      59.81445	      56.45752	      66.60461	      55.46570
       0.31457	      61.26404	      55.38940	      52.03247	      62.48474
       0.32768	      56.30493	      51.65100	      58.97522	      54.70276
       0.34079	      57.60193	      54.47388	      55.54199	      62.48474
       0.35389	      51.42212	      53.63464	      61.87439	      54.47388
       0.36700	      59.43298	      57.44934	      59.28040	      58.82263
       0.38011	      55.46570	      51.95618	      69.80896	      60.27222
       0.39322	      54.09241	      60.50110	      48.37036	      55.84717
       0.40632	      55.23682	      57.52563	      59.73816	      46.31042
       0.41943	      56.15234	      55.23682	      51.19324	      56.07605
       0.43254	      50.73547	      47.30225	      53.40576	      54.93164
       0.44564	      52.56653	      54.55017	      52.41394	      55.38940
       0.45875	      58.97522	      60.88257	      62.17957	      57.60193
       0.47186	      50.58289	      52.87170	      60.42480	      54.47388
       0.48497	      56.07605	      61.03516	      60.27222	      59.50928
       0.49807	      56.45752	      64.92615	      67.13867	      55.77087
       0.51118	      55.69458	      61.18774	      56.22864	      55.38940
       0.52429	      48.29407	      64.08691	      58.13599	      49.66736
       0.53740	      57.29675	      59.28040	      59.73816	      68.51196
       0.55050	      53.55835	      57.06787	      59.81445	      54.62646
       0.56361	      51.34583	      58.21228	      50.43030	      51.80359
       0.57672	      58.21228	      54.01611	      53.25317	      66.68091
       0.58982	      51.65100	      61.26404	      66.60461	      57.67822
       0.60293	      50.73547	      59.35669	      54.16870	      59.50928
       0.61604	      60.27222	      49.74365	      63.93433	      46.99707
       0.62915	      52.10876	      65.00244	      61.34033	      54.39758
       0.64225	      51.04065	      59.05151	      59.73816	      56.38123
       0.65536	      46.23413	      59.50928	      55.23682	      48.21777
       0.66847	      57.67822	      53.10059	      56.53381	      51.80359
       0.68157	      59.58557	      52.33765	      54.85535	      58.13599
       0.69468	      52.79541	      49.05701	      63.55286	      60.11963
       0.70779	      55.23682	      59.43298	      57.83081	      50.12512
       0.72090	      60.95886	      59.89075	      56.22864	      59.35669
       0.73400	      52.41394	      46.61560	      67.06238	      45.70007
       0.74711	      59.66187	      55.46570	      60.42480	      56.22864
