ALV-7004/USB-FAST
Date :	"11/11/2025"
Time :	"3:59:16 PM"
Samplename : 	""
SampMemo(0) : 	""
SampMemo(1) : 	""
SampMemo(2) : 	""
SampMemo(3) : 	""
SampMemo(4) : 	""
SampMemo(5) : 	""
SampMemo(6) : 	""
SampMemo(7) : 	""
SampMemo(8) : 	""
SampMemo(9) : 	""
Temperature [K] :	     298.16000
Viscosity [cp]  :	       0.89000
Refractive Index:	       1.33200
Wavelength [nm] :	       0.00000
Angle [°]       :	       0.00000
Duration [s]    :	         1
FloatDur [ms]   :	          944
Stop TP [ms]   :	     68285
Runs            :	         1
Mode            :	"A-CH0+1  A-CH2+3 "
MeanCR0 [kHz]   :	      56.08664
MeanCR1 [kHz]   :	      58.75375
MeanCR2 [kHz]   :	      58.54077
MeanCR3 [kHz]   :	      55.88532

"Correlation"
  3.12500E-006	 -1.00000E+000	 -1.00000E+000	 -1.00000E+000	 -1.00000E+000
  6.25000E-006	 -1.00000E+000	 -1.00000E+000	 -1.00000E+000	 -1.00000E+000
  9.37500E-006	 -1.00000E+000	 -1.00000E+000	 -1.00000E+000	 -1.00000E+000
  1.25000E-005	 -1.00000E+000	 -1.00000E+000	 -1.00000E+000	 -1.00000E+000
  1.56250E-005	 -1.00000E+000	 -1.00000E+000	 -1.00000E+000	 -1.00000E+000
  1.87500E-005	 -1.00000E+000	 -1.00000E+000	 -1.00000E+000	 -1.00000E+000
  2.18750E-005	 -8.92208E-001	 -1.77355E-002	  7.80997E-001	 -7.82859E-001
  2.50000E-005	  1.31208E+001	  1.28499E+001	  1.24564E+001	  2.50569E+001
  2.81250E-005	  3.52729E+000	  2.14325E+000	  2.56199E+000	  8.66278E+000
  3.12500E-005	  1.26364E+000	  3.75170E-001	  6.82053E-001	  3.77711E+000
  3.43750E-005	  1.26364E+000	  1.94679E+000	  1.86938E+000	  3.99425E+000
  3.75000E-005	  1.15585E+000	  9.64529E-001	  1.07783E+000	  3.77711E+000
  4.06250E-005	  1.37144E+000	  1.16098E+000	  1.27572E+000	  3.34282E+000
  4.37500E-005	  8.32473E-001	  5.71623E-001	  7.80997E-001	  1.82283E+000
  4.68750E-005	  1.04806E+000	  5.71623E-001	  1.17677E+000	  2.58283E+000
  5.00000E-005	  1.15585E+000	  9.64529E-001	  6.82053E-001	  2.52854E+000
  5.62500E-005	  9.40265E-001	  3.26057E-001	  9.29413E-001	  1.60569E+000
  6.25000E-005	  1.15585E+000	  6.20736E-001	  5.83108E-001	  1.33427E+000
  6.87500E-005	  5.62991E-001	  6.69850E-001	  1.17677E+000	  1.17141E+000
  7.50000E-005	  5.09095E-001	  6.69850E-001	  7.80997E-001	  1.87712E+000
  8.12500E-005	  5.62991E-001	  1.30832E+000	  4.34692E-001	  7.37129E-001
  8.75000E-005	  1.04806E+000	  5.71623E-001	  9.78886E-001	  1.00856E+000
  9.37500E-005	  8.32473E-001	  1.78717E-001	  1.87331E-001	  1.00856E+000
  1.00000E-004	  9.40265E-001	  6.94406E-001	  2.36803E-001	  8.99985E-001
  1.12500E-004	  8.86369E-001	  6.94406E-001	  4.84164E-001	  2.21419E-001
  1.25000E-004	  5.62991E-001	  9.89085E-001	  1.87331E-001	  7.64271E-001
  1.37500E-004	  4.82147E-001	  5.71623E-001	  5.83108E-001	  2.21419E-001
  1.50000E-004	  5.36043E-001	  2.03274E-001	  4.09956E-001	  9.54270E-001
  1.62500E-004	  5.62991E-001	  5.22510E-001	  9.54149E-001	  1.27998E+000
  1.75000E-004	  2.12666E-001	  4.48840E-001	  6.82052E-001	  4.38560E-001
  1.87500E-004	  6.97732E-001	  6.20736E-001	  4.34692E-001	  7.37129E-001
  2.00000E-004	  6.84257E-001	  7.55797E-001	  4.96532E-001	  3.57132E-001
  2.25000E-004	  5.22569E-001	  6.82127E-001	  6.07844E-001	  6.55701E-001
  2.50000E-004	  3.74354E-001	  4.73396E-001	  4.96532E-001	  5.06416E-001
  2.75000E-004	  5.62991E-001	  3.26057E-001	  7.43892E-001	  6.69272E-001
  3.00000E-004	  6.30361E-001	  3.99726E-001	  3.72851E-001	  5.06416E-001
  3.25000E-004	  7.65102E-001	  5.71623E-001	  6.32580E-001	  5.47130E-001
  3.50000E-004	  5.49517E-001	  2.89222E-001	  5.08900E-001	  4.38560E-001
  3.75000E-004	  6.97731E-001	  4.12005E-001	  4.71796E-001	  5.87844E-001
  4.00000E-004	  5.96675E-001	  4.30422E-001	  4.84163E-001	  3.91059E-001
  4.50000E-004	  5.76464E-001	  3.32195E-001	  5.33635E-001	  5.13201E-001
  5.00000E-004	  6.90994E-001	  5.59344E-001	  5.52187E-001	  4.92844E-001
  5.50000E-004	  5.62990E-001	  5.28648E-001	  4.28507E-001	  4.65702E-001
  6.00000E-004	  4.88883E-001	  3.50613E-001	  5.27451E-001	  4.58916E-001
  6.50000E-004	  3.47405E-001	  5.59344E-001	  6.01659E-001	  2.96060E-001
  7.00000E-004	  5.29305E-001	  5.34787E-001	  5.95475E-001	  6.28557E-001
  7.50000E-004	  4.75409E-001	  5.83900E-001	  5.39819E-001	  4.11416E-001
  8.00000E-004	  5.22567E-001	  5.71649E-001	  4.56334E-001	  4.21594E-001
  9.00000E-004	  5.22567E-001	  4.54977E-001	  5.11990E-001	  4.65700E-001
  1.00000E-003	  5.76463E-001	  4.33490E-001	  4.13046E-001	  4.52129E-001
  1.10000E-003	  5.22567E-001	  6.45290E-001	  4.87254E-001	  4.99629E-001
  1.20000E-003	  5.05724E-001	  4.18142E-001	  4.71794E-001	  3.63916E-001
  1.30000E-003	  4.58565E-001	  4.54977E-001	  4.71794E-001	  6.01413E-001
  1.40000E-003	  4.38354E-001	  5.43994E-001	  3.75942E-001	  4.55522E-001
  1.50000E-003	  4.65302E-001	  4.42699E-001	  3.82126E-001	  4.89450E-001
  1.60000E-003	  4.63615E-001	  4.55001E-001	  4.16135E-001	  4.55519E-001
  1.80000E-003	  4.51826E-001	  4.64209E-001	  4.84159E-001	  4.50430E-001
  2.00000E-003	  3.92877E-001	  4.47327E-001	  4.91889E-001	  3.85967E-001
  2.20000E-003	  4.45089E-001	  4.88766E-001	  4.22319E-001	  4.06323E-001
  2.40000E-003	  4.73721E-001	  4.28909E-001	  3.89853E-001	  4.89448E-001
  2.60000E-003	  4.60247E-001	  5.11761E-001	  4.48601E-001	  4.40252E-001
  2.80000E-003	  5.32670E-001	  4.31953E-001	  4.14589E-001	  4.75876E-001
  3.00000E-003	  4.21509E-001	  4.36557E-001	  4.73337E-001	  3.84270E-001
  3.20000E-003	  4.41715E-001	  3.80607E-001	  3.30328E-001	  4.31765E-001
  3.60000E-003	  4.34136E-001	  4.76536E-001	  3.85984E-001	  4.58059E-001
  4.00000E-003	  4.29925E-001	  4.26653E-001	  3.71297E-001	  4.80960E-001
  4.40000E-003	  4.14767E-001	  4.88048E-001	  4.19995E-001	  4.22435E-001
  4.80000E-003	  3.82767E-001	  4.38932E-001	  4.71013E-001	  4.06319E-001
  5.20000E-003	  4.10557E-001	  3.89817E-001	  4.59418E-001	  4.18194E-001
  5.60000E-003	  4.51821E-001	  3.93654E-001	  4.23087E-001	  3.80873E-001
  6.00000E-003	  3.86977E-001	  4.25860E-001	  3.41150E-001	  3.87658E-001
  6.40000E-003	  4.24496E-001	  4.08302E-001	  4.00275E-001	  4.38541E-001
  7.20000E-003	  4.51866E-001	  3.87964E-001	  4.20372E-001	  4.02916E-001
  8.00000E-003	  4.39654E-001	  4.04081E-001	  3.60852E-001	  3.90220E-001
  8.80000E-003	  3.65124E-001	  4.18611E-001	  3.81336E-001	  3.70287E-001
  9.60000E-003	  4.33759E-001	  4.28972E-001	  3.94091E-001	  3.86827E-001
  1.04000E-002	  4.00495E-001	  4.00960E-001	  3.79790E-001	  3.84706E-001
  1.12000E-002	  4.13969E-001	  3.85995E-001	  4.22305E-001	  3.56715E-001
  1.20000E-002	  3.93336E-001	  3.38798E-001	  3.67036E-001	  3.61805E-001
  1.28000E-002	  4.03950E-001	  3.63076E-001	  3.42693E-001	  3.77504E-001
  1.44000E-002	  3.64551E-001	  3.62333E-001	  3.87913E-001	  3.67325E-001
  1.60000E-002	  3.63920E-001	  3.58855E-001	  3.49843E-001	  3.20886E-001
  1.76000E-002	  3.41602E-001	  3.63652E-001	  3.64723E-001	  3.32761E-001
  1.92000E-002	  3.57999E-001	  3.63268E-001	  3.21822E-001	  3.39546E-001
  2.08000E-002	  3.53788E-001	  3.32760E-001	  3.11000E-001	  3.28944E-001
  2.24000E-002	  3.66631E-001	  3.15060E-001	  3.34576E-001	  3.05855E-001
  2.40000E-002	  3.16733E-001	  3.45208E-001	  2.85298E-001	  3.00977E-001
  2.56000E-002	  3.23293E-001	  2.95883E-001	  3.22414E-001	  2.98178E-001
  2.88000E-002	  3.14765E-001	  2.87919E-001	  2.87629E-001	  2.75062E-001
  3.20000E-002	  2.93919E-001	  2.73432E-001	  2.69537E-001	  2.78080E-001
  3.52000E-002	  2.74734E-001	  2.41963E-001	  2.76494E-001	  2.73920E-001
  3.84000E-002	  2.37547E-001	  2.42111E-001	  2.56976E-001	  2.38928E-001
  4.16000E-002	  2.53420E-001	  2.56479E-001	  2.53497E-001	  2.17426E-001
  4.48000E-002	  2.27499E-001	  2.21270E-001	  2.23351E-001	  2.24742E-001
  4.80000E-002	  2.24972E-001	  2.19883E-001	  2.19389E-001	  2.17956E-001
  5.12000E-002	  2.06915E-001	  2.02052E-001	  2.18419E-001	  2.07348E-001
  5.76000E-002	  1.99259E-001	  1.91594E-001	  2.06604E-001	  1.86859E-001
  6.40000E-002	  1.80645E-001	  1.64347E-001	  1.86092E-001	  1.59311E-001
  7.04000E-002	  1.56353E-001	  1.63915E-001	  1.62728E-001	  1.34316E-001
  7.68000E-002	  1.47698E-001	  1.39374E-001	  1.53645E-001	  1.47656E-001
  8.32000E-002	  1.29346E-001	  1.17547E-001	  1.40213E-001	  1.08633E-001
  8.96000E-002	  1.15774E-001	  1.10935E-001	  1.18905E-001	  1.03576E-001
  9.60000E-002	  1.06204E-001	  1.03308E-001	  1.03106E-001	  9.86449E-002
  1.02400E-001	  8.77713E-002	  8.79572E-002	  9.69907E-002	  8.58760E-002
  1.15200E-001	  7.36854E-002	  6.64144E-002	  9.53476E-002	  7.85854E-002
  1.28000E-001	  6.45370E-002	  4.79184E-002	  8.52232E-002	  5.54941E-002
  1.40800E-001	  3.87472E-002	  5.34310E-002	  6.40754E-002	  4.58174E-002
  1.53600E-001	  3.19086E-002	  4.07267E-002	  5.55939E-002	  2.60736E-002
  1.66400E-001	  2.16932E-002	  3.22477E-002	  3.99546E-002	  3.16213E-002
  1.79200E-001	  2.51825E-002	  2.25797E-002	  3.29953E-002	  2.68635E-002
  1.92000E-001	  1.38761E-002	  1.60121E-002	  3.64533E-002	  1.07267E-002
  2.04800E-001	  1.26759E-002	  1.66118E-002	  3.15557E-002	  1.21903E-002
  2.30400E-001	  1.24185E-002	  1.11340E-002	  1.50124E-002	  7.90768E-003
  2.56000E-001	  5.89724E-003	  1.23344E-002	  1.52836E-002	  8.81666E-003
  2.81600E-001	  4.18123E-003	  6.31086E-003	  2.42260E-003	 -7.93917E-004
  3.07200E-001	 -6.69759E-004	  5.60203E-003	  1.52800E-003	 -1.15064E-002
  3.32800E-001	 -8.22160E-003	  7.62967E-003	  2.20503E-003	 -6.80402E-003
  3.58400E-001	 -2.01094E-003	  4.40199E-003	  4.59295E-003	  1.87492E-003
  3.84000E-001	 -5.10864E-003	  4.11405E-003	 -4.91042E-004	  3.81988E-003
  4.09600E-001	 -6.52010E-003	  8.36494E-003	 -2.46475E-003	  6.97812E-004
  4.60800E-001	  5.61024E-003	  8.27532E-003	  4.57784E-004	  3.90533E-003
  5.12000E-001	  1.82504E-003	  6.30645E-003	  1.64375E-003	 -3.67242E-003
  5.63200E-001	  4.77402E-003	  1.15332E-002	 -5.56970E-003	 -8.88260E-004
  6.14400E-001	  6.74347E-003	  7.57728E-003	 -4.15353E-003	 -4.33052E-003
  6.65600E-001	  1.47771E-003	  6.20267E-003	 -3.42692E-003	 -2.39477E-004
  7.16800E-001	 -5.20882E-003	  2.42216E-003	 -3.66877E-003	 -8.35290E-004
  7.68000E-001	 -1.34943E-002	  5.20621E-003	  8.08776E-004	 -2.00416E-003
  8.19200E-001	 -8.99450E-003	  4.35406E-003	 -4.23088E-003	 -4.69843E-004
  9.21600E-001	 -5.48305E-003	  1.76842E-004	 -6.16417E-003	  1.36462E-003
  1.02400E+000	  1.09341E-003	  1.86995E-003	 -3.55245E-003	  1.03222E-002
  1.12640E+000	  3.50332E-003	  2.56999E-003	 -2.44851E-003	  4.00400E-003
  1.22880E+000	 -1.62134E-003	  8.05214E-003	  2.24613E-004	 -2.94447E-003
  1.33120E+000	 -1.06059E-002	  3.37574E-003	  3.18708E-003	 -9.63832E-003
  1.43360E+000	 -4.32791E-003	  5.76063E-003	  7.27125E-003	  2.87190E-004
  1.53600E+000	  9.14695E-003	  7.44373E-003	 -6.03929E-005	  9.62410E-004
  1.63840E+000	  7.27646E-003	 -4.08025E-005	 -1.11032E-005	 -7.84287E-004
  1.84320E+000	  2.57772E-003	  4.77319E-003	 -5.62201E-003	 -1.03957E-002
  2.04800E+000	 -1.46420E-004	  4.32855E-003	 -9.68008E-004	 -7.31909E-003
  2.25280E+000	 -2.46251E-003	 -1.32036E-003	  7.65197E-003	  5.65484E-003
  2.45760E+000	 -1.81129E-003	 -5.18317E-003	  4.26914E-003	  5.00008E-003
  2.66240E+000	  1.66397E-003	  4.01995E-003	  1.60841E-003	  2.31057E-003
  2.86720E+000	 -9.53704E-005	  4.82051E-004	  3.41961E-003	  3.61825E-004
  3.07200E+000	 -5.64163E-003	  1.07048E-004	  4.82225E-003	 -2.22341E-003
  3.27680E+000	 -2.37449E-003	 -1.15581E-003	  5.14159E-003	  4.55454E-003
  3.68640E+000	 -2.79861E-003	  7.88164E-003	  6.55813E-003	  6.07188E-003
  4.09600E+000	 -1.86945E-003	  2.30894E-003	  1.63758E-003	  3.04611E-003
  4.50560E+000	 -2.17466E-003	  6.45419E-003	  3.77905E-003	  2.67099E-003
  4.91520E+000	 -5.06081E-003	  4.63476E-003	 -2.60650E-003	  2.14111E-003
  5.32480E+000	 -5.24089E-003	  3.17483E-003	  3.74931E-003	  1.95906E-003
  5.73440E+000	  8.28074E-004	 -1.63124E-003	 -7.97917E-003	 -2.29905E-003
  6.14400E+000	  7.39867E-003	 -2.02999E-003	  4.22954E-003	  2.91577E-003
  6.55360E+000	 -1.50795E-004	 -2.21987E-003	  2.35741E-003	  6.66535E-003
  7.37280E+000	 -4.30608E-003	  4.06733E-003	 -4.03697E-004	  4.11533E-004
  8.19200E+000	  2.67214E-003	  8.86064E-004	  2.10923E-003	  4.36979E-003
  9.01120E+000	 -2.55738E-003	  1.88202E-004	  3.48614E-003	  2.48426E-003
  9.83040E+000	  6.37353E-003	 -1.19529E-003	 -2.32373E-003	 -1.12359E-003
  1.06496E+001	  2.86507E-003	 -1.55594E-003	  1.39208E-003	  2.36772E-003
  1.14688E+001	 -2.34853E-003	  5.81507E-004	  5.99487E-003	  3.35338E-003
  1.22880E+001	 -1.97640E-003	 -1.02007E-003	  2.22695E-003	 -4.37968E-003
  1.31072E+001	 -1.83760E-003	 -8.40124E-004	  3.30610E-003	  4.34786E-004
  1.47456E+001	 -8.55645E-004	 -2.24397E-003	 -4.52189E-003	 -6.10542E-004
  1.63840E+001	 -1.80330E-003	 -2.04069E-003	 -2.01218E-003	 -1.65633E-003
  1.80224E+001	  1.50559E-003	 -4.72375E-003	  1.40303E-003	 -4.22427E-004
  1.96608E+001	  6.72699E-004	 -3.44926E-003	  4.13653E-004	  2.22364E-003
  2.12992E+001	 -6.47555E-004	 -1.82391E-003	  4.30741E-003	 -9.27429E-004
  2.29376E+001	 -1.27934E-003	  4.39307E-004	  8.22109E-005	 -1.11435E-003
  2.45760E+001	  2.29915E-003	 -1.08671E-003	  3.68248E-003	  2.97767E-003
  2.62144E+001	  1.85360E-005	 -2.65133E-003	 -4.55952E-004	 -6.14881E-004
  2.94912E+001	  1.40226E-003	  1.83008E-003	 -7.73582E-004	 -1.89546E-003
  3.27680E+001	  3.92834E-004	  1.84392E-003	 -1.43790E-003	  6.97644E-004
  3.60448E+001	  6.19522E-004	  3.45876E-003	 -9.41378E-004	  2.55334E-004
  3.93216E+001	  5.98869E-004	  7.11783E-004	 -7.85254E-004	  1.43546E-003
  4.25984E+001	 -4.81738E-004	  2.57826E-003	 -6.79458E-004	  7.50500E-004
  4.58752E+001	 -2.55897E-004	  1.13260E-006	 -2.52021E-003	  3.43992E-004
  4.91520E+001	 -9.48109E-004	 -3.41367E-003	 -1.50520E-003	  6.96601E-006
  5.24288E+001	 -6.69307E-004	 -1.75509E-003	 -2.03126E-003	 -1.16590E-003
  5.89824E+001	  1.30295E-003	 -8.10745E-004	  1.19672E-004	  1.19193E-004
  6.55360E+001	  8.56079E-004	  2.41269E-003	 -6.68217E-004	  2.22999E-005
  7.20896E+001	  1.56464E-004	  5.15335E-004	 -1.24486E-003	 -1.77295E-003
  7.86432E+001	 -9.72059E-004	 -2.18081E-003	  6.19726E-004	  6.77759E-004
  8.51968E+001	  5.04951E-004	 -1.15393E-003	 -4.36878E-004	  1.19291E-003
  9.17504E+001	  2.73296E-004	 -3.06804E-003	 -2.28291E-005	  3.82805E-004
  9.83040E+001	 -2.63814E-004	  1.15277E-003	 -1.85913E-003	  8.07757E-004
  1.04858E+002	 -4.41369E-005	  1.44820E-003	 -1.98746E-003	  7.07940E-005
  1.17965E+002	 -5.93396E-004	 -4.00340E-004	 -1.93291E-003	  1.08465E-003
  1.31072E+002	  1.37596E-004	 -1.92822E-003	  5.94494E-004	  3.76513E-004
  1.44179E+002	  1.71360E-005	 -8.48207E-005	 -8.76756E-004	  1.43506E-004
  1.57286E+002	  1.46197E-004	  1.32887E-004	 -7.56782E-004	 -9.02440E-005
  1.70394E+002	 -9.64794E-004	 -5.86084E-004	  3.85877E-006	 -2.82783E-004
  1.83501E+002	 -1.86427E-003	  2.28073E-003	  8.91838E-004	  1.06066E-003
  1.96608E+002	 -5.71524E-004	 -4.95417E-004	  5.12396E-004	 -1.31701E-003
  2.09715E+002	  7.23008E-004	  3.20135E-004	  1.38102E-003	 -8.63104E-004
  2.35930E+002	 -5.10300E-004	 -4.83230E-004	  2.78948E-004	 -5.44952E-004
  2.62144E+002	  1.59352E-004	 -9.45630E-004	  1.92391E-003	 -1.52451E-003
  2.88358E+002	  1.17281E-004	  8.04076E-004	 -1.44067E-004	 -1.47572E-003
  3.14573E+002	 -3.56130E-004	 -1.47895E-003	 -2.37794E-003	  5.48572E-004
  3.40787E+002	 -5.07206E-004	 -4.96263E-004	 -9.98694E-004	 -1.28224E-004
  3.67002E+002	  1.60513E-003	  3.31119E-004	 -1.18925E-003	 -1.72316E-003
  3.93216E+002	 -1.10966E-003	  1.18803E-003	  2.37418E-003	  1.86921E-004

"Count Rate"
       0.01311	      56.45752	      61.34033	      55.23682	      56.99158
       0.02621	      59.58557	      55.31311	      60.57739	      61.72180
       0.03932	      46.84448	      54.32129	      66.68091	      50.20142
       0.05243	      51.87988	      68.74084	      55.69458	      59.96704
       0.06554	      54.39758	      52.71912	      49.43848	      58.13599
       0.07864	      49.81995	      53.71094	      51.65100	      51.19324
       0.09175	      59.66187	      58.82263	      58.82263	      60.80627
       0.10486	      52.03247	      50.35400	      64.01062	      45.70007
       0.11796	      49.81995	      59.81445	      64.84985	      49.81995
       0.13107	      59.73816	      67.67273	      67.29126	      46.38672
       0.14418	      51.80359	      54.39758	      49.28589	      52.56653
       0.15729	      49.97253	      66.29944	      52.41394	      54.55017
       0.17039	      56.30493	      62.71362	      55.08423	      47.30225
       0.18350	      52.64282	      60.88257	      54.16870	      59.50928
       0.19661	      53.10059	      59.73816	      56.22864	      51.72729
       0.20972	      54.70276	      49.66736	      48.59924	      51.95618
       0.22282	      52.79541	      57.37305	      60.11963	      52.33765
       0.23593	      58.67004	      59.43298	      62.25586	      54.77905
       0.24904	      52.03247	      50.50659	      58.82263	      50.04883
       0.26214	      56.38123	      57.37305	      67.82532	      54.62646
       0.27525	      54.09241	      54.39758	      54.32129	      65.91797
       0.28836	      54.16870	      57.83081	      62.10327	      51.04065
       0.30147	      56.30493	      52.49023	      63.78174	      53.32947
       0.31457	      53.48206	      56.15234	      58.67004	      52.71912
       0.32768	      61.64551	      64.46838	      58.59375	      59.50928
       0.34079	      54.55017	      58.13599	      56.22864	      51.95618
       0.35389	      55.77087	      64.31580	      57.44934	      43.86902
       0.36700	      57.60193	      61.26404	      54.62646	      57.22046
       0.38011	      60.50110	      58.89893	      52.87170	      54.55017
       0.39322	      62.71362	      65.00244	      53.32947	      49.05701
       0.40632	      49.13330	      50.12512	      53.86353	      62.63733
       0.41943	      48.14148	      50.12512	      53.78723	      57.90710
       0.43254	      61.49292	      59.89075	      56.38123	      64.46838
       0.44564	      57.90710	      58.44116	      59.81445	      57.37305
       0.45875	      62.33215	      56.68640	      51.19324	      55.46570
       0.47186	      54.77905	      53.25317	      60.50110	      55.46570
       0.48497	      58.21228	      54.85535	      57.06787	      59.73816
       0.49807	      55.46570	      50.04883	      64.01062	      56.61011
       0.51118	      53.40576	      60.72998	      62.17957	      54.47388
       0.52429	      53.48206	      54.09241	      68.74084	      56.76270
       0.53740	      51.80359	      55.00793	      52.49023	      57.29675
       0.55050	      51.04065	      62.78992	      49.89624	      58.74634
       0.56361	      51.34583	      54.24500	      51.72729	      57.22046
       0.57672	      53.32947	      61.95068	      57.67822	      57.60193
       0.58982	      57.06787	      56.15234	      57.37305	      57.75452
       0.60293	      57.83081	      54.32129	      59.89075	      55.54199
       0.61604	      50.50659	      63.32397	      51.87988	      56.68640
       0.62915	      48.98071	      51.80359	      52.03247	      54.77905
       0.64225	      57.60193	      54.85535	      57.06787	      58.51746
       0.65536	      53.48206	      58.74634	      61.64551	      52.79541
       0.66847	      54.85535	      58.13599	      54.85535	      58.05969
       0.68157	      60.42480	      60.34851	      53.17688	      55.99976
       0.69468	      52.10876	      70.11414	      60.11963	      49.51477
       0.70779	      58.82263	      42.87720	      61.03516	      39.74915
       0.72090	      53.78723	      52.41394	      55.99976	      58.13599
       0.73400	      60.11963	      76.67542	      65.61279	      62.10327
       0.74711	      62.25586	      57.44934	      58.59375	      62.40845
