ALV-7004/USB-FAST
Date :	"11/11/2025"
Time :	"3:59:41 PM"
Samplename : 	""
SampMemo(0) : 	""
SampMemo(1) : 	""
SampMemo(2) : 	""
SampMemo(3) : 	""
SampMemo(4) : 	""
SampMemo(5) : 	""
SampMemo(6) : 	""
SampMemo(7) : 	""
SampMemo(8) : 	""
SampMemo(9) : 	""
Temperature [K] :	     298.16000
Viscosity [cp]  :	       0.89000
Refractive Index:	       1.33200
Wavelength [nm] :	       0.00000
Angle [°]       :	       0.00000
Duration [s]    :	         1
FloatDur [ms]   :	          944
Stop TP [ms]   :	     68396
Runs            :	         1
Mode            :	"A-CH0+1  A-CH2+3 "
MeanCR0 [kHz]   :	      58.09148
MeanCR1 [kHz]   :	      59.61524
MeanCR2 [kHz]   :	      59.25179
MeanCR3 [kHz]   :	      56.24877

"Correlation"
  3.12500E-006	 -1.00000E+000	 -1.00000E+000	 -1.00000E+000	 -1.00000E+000
  6.25000E-006	 -1.00000E+000	 -1.00000E+000	 -1.00000E+000	 -1.00000E+000
  9.37500E-006	 -1.00000E+000	 -1.00000E+000	 -1.00000E+000	 -1.00000E+000
  1.25000E-005	 -1.00000E+000	 -1.00000E+000	 -1.00000E+000	 -1.00000E+000
  1.56250E-005	 -1.00000E+000	 -1.00000E+000	 -1.00000E+000	 -1.00000E+000
  1.87500E-005	 -1.00000E+000	 -1.00000E+000	 -1.00000E+000	 -1.00000E+000
  2.18750E-005	 -8.99519E-001	 -4.59021E-002	  1.70435E+000	 -6.78484E-001
  2.50000E-005	  1.20625E+001	  1.26436E+001	  1.09764E+001	  2.50428E+001
  2.81250E-005	  3.11971E+000	  2.43475E+000	  2.76677E+000	  6.93073E+000
  3.12500E-005	  1.61250E+000	  5.26557E-001	  1.51118E+000	  5.21598E+000
  3.43750E-005	  1.31106E+000	  9.08196E-001	  6.41926E-001	  4.57295E+000
  3.75000E-005	  3.06249E-001	  7.17376E-001	  6.41926E-001	  4.14426E+000
  4.06250E-005	  7.08172E-001	  9.08196E-001	  1.12485E+000	  3.50123E+000
  4.37500E-005	  9.09133E-001	  1.28983E+000	  8.35094E-001	  2.00082E+000
  4.68750E-005	  1.31106E+000	  7.17376E-001	  7.38510E-001	  3.17971E+000
  5.00000E-005	  1.16033E+000	  8.12786E-001	  6.90218E-001	  2.16157E+000
  5.62500E-005	  4.56970E-001	  6.21966E-001	  1.07655E+000	  1.41137E+000
  6.25000E-005	  4.06730E-001	  6.21966E-001	  2.55590E-001	  1.14344E+000
  6.87500E-005	  7.58412E-001	  3.35737E-001	  7.86802E-001	  1.46496E+000
  7.50000E-005	  7.58412E-001	  1.24213E+000	  4.00466E-001	  1.62571E+000
  8.12500E-005	  8.08652E-001	  4.78852E-001	  7.38510E-001	  7.14752E-001
  8.75000E-005	  5.07210E-001	  6.21966E-001	  6.41926E-001	  1.14344E+000
  9.37500E-005	  7.58412E-001	  5.26556E-001	  5.45342E-001	  3.39650E-001
  1.00000E-004	  6.07691E-001	  5.98114E-001	  3.52174E-001	  7.41545E-001
  1.12500E-004	  3.81609E-001	  1.00361E+000	  7.14364E-001	  7.95131E-001
  1.25000E-004	  7.83532E-001	  5.74261E-001	  4.97050E-001	  1.03627E+000
  1.37500E-004	  6.32811E-001	  4.78851E-001	  2.79736E-001	  8.75510E-001
  1.50000E-004	  4.82090E-001	  5.98114E-001	  3.76320E-001	  4.73615E-001
  1.62500E-004	  6.32811E-001	  6.45819E-001	  9.31677E-001	  5.27201E-001
  1.75000E-004	  5.07210E-001	  7.17376E-001	  8.65685E-002	  6.34373E-001
  1.87500E-004	  4.06729E-001	  6.69671E-001	  4.24612E-001	  8.48717E-001
  2.00000E-004	  5.32330E-001	  5.38482E-001	  6.05706E-001	  5.40597E-001
  2.25000E-004	  6.57931E-001	  5.14630E-001	  3.76320E-001	  6.07580E-001
  2.50000E-004	  3.43929E-001	  4.90777E-001	  4.48758E-001	  8.35320E-001
  2.75000E-004	  3.43929E-001	  5.50408E-001	  5.57414E-001	  4.33425E-001
  3.00000E-004	  5.32330E-001	  4.31146E-001	  7.62655E-001	  5.80787E-001
  3.25000E-004	  5.07210E-001	  5.74261E-001	  6.41925E-001	  5.00408E-001
  3.50000E-004	  4.31849E-001	  3.47663E-001	  5.57414E-001	  7.41545E-001
  3.75000E-004	  5.19770E-001	  6.81597E-001	  4.60831E-001	  6.74562E-001
  4.00000E-004	  4.88369E-001	  3.83441E-001	  3.09918E-001	  4.80312E-001
  4.50000E-004	  4.88369E-001	  5.38482E-001	  5.03085E-001	  5.33898E-001
  5.00000E-004	  5.82570E-001	  4.19219E-001	  6.53998E-001	  5.60691E-001
  5.50000E-004	  5.13489E-001	  3.59588E-001	  6.84180E-001	  4.93709E-001
  6.00000E-004	  6.89330E-001	  5.38482E-001	  6.23815E-001	  5.07105E-001
  6.50000E-004	  4.44409E-001	  2.64179E-001	  5.39304E-001	  6.00881E-001
  7.00000E-004	  6.51650E-001	  5.68297E-001	  7.08326E-001	  5.47295E-001
  7.50000E-004	  4.88369E-001	  5.08666E-001	  5.09122E-001	  5.47295E-001
  8.00000E-004	  4.97788E-001	  5.11646E-001	  4.60829E-001	  6.20974E-001
  9.00000E-004	  5.29188E-001	  4.57978E-001	  4.51774E-001	  5.53992E-001
  1.00000E-003	  4.56968E-001	  5.20591E-001	  4.09519E-001	  6.47767E-001
  1.10000E-003	  4.22428E-001	  4.96739E-001	  5.39303E-001	  3.46346E-001
  1.20000E-003	  4.50688E-001	  4.16237E-001	  3.82355E-001	  4.97057E-001
  1.30000E-003	  4.72668E-001	  5.20591E-001	  4.87993E-001	  5.50643E-001
  1.40000E-003	  3.94167E-001	  4.90775E-001	  5.81558E-001	  5.00406E-001
  1.50000E-003	  4.85228E-001	  4.96739E-001	  4.84975E-001	  4.06631E-001
  1.60000E-003	  5.26045E-001	  5.11644E-001	  5.00063E-001	  5.10451E-001
  1.80000E-003	  5.00925E-001	  4.49031E-001	  4.23098E-001	  5.33895E-001
  2.00000E-003	  4.64815E-001	  4.43068E-001	  5.16664E-001	  5.48966E-001
  2.20000E-003	  4.94645E-001	  4.43068E-001	  4.00462E-001	  5.59013E-001
  2.40000E-003	  4.89935E-001	  4.28160E-001	  4.65354E-001	  4.66912E-001
  2.60000E-003	  3.80035E-001	  4.28160E-001	  3.98952E-001	  4.28397E-001
  2.80000E-003	  4.72665E-001	  4.50522E-001	  4.56299E-001	  4.92031E-001
  3.00000E-003	  4.94645E-001	  4.93754E-001	  4.97045E-001	  3.56391E-001
  3.20000E-003	  5.19003E-001	  4.89330E-001	  4.47994E-001	  3.93227E-001
  3.60000E-003	  4.29511E-001	  4.29697E-001	  4.48748E-001	  4.11647E-001
  4.00000E-003	  4.39717E-001	  3.64101E-001	  4.54785E-001	  4.35955E-001
  4.40000E-003	  4.77397E-001	  4.24479E-001	  3.83857E-001	  4.81169E-001
  4.80000E-003	  4.10671E-001	  4.22989E-001	  4.57049E-001	  4.41816E-001
  5.20000E-003	  3.86336E-001	  3.83482E-001	  3.91402E-001	  4.47677E-001
  5.60000E-003	  4.38147E-001	  3.87209E-001	  3.90648E-001	  4.92891E-001
  6.00000E-003	  4.31866E-001	  3.94663E-001	  4.45730E-001	  4.48515E-001
  6.40000E-003	  3.91087E-001	  4.10805E-001	  4.41193E-001	  4.40550E-001
  7.20000E-003	  4.00482E-001	  4.33169E-001	  3.68756E-001	  4.03291E-001
  8.00000E-003	  3.81249E-001	  3.88068E-001	  4.04597E-001	  4.50598E-001
  8.80000E-003	  3.63978E-001	  4.04469E-001	  3.91015E-001	  3.87801E-001
  9.60000E-003	  3.74576E-001	  3.42174E-001	  4.17802E-001	  4.22549E-001
  1.04000E-002	  3.90669E-001	  3.93982E-001	  4.04597E-001	  3.83615E-001
  1.12000E-002	  3.42415E-001	  4.05164E-001	  3.67624E-001	  4.17525E-001
  1.20000E-002	  3.76171E-001	  3.76464E-001	  3.36688E-001	  3.95782E-001
  1.28000E-002	  3.86801E-001	  3.68465E-001	  3.44215E-001	  4.11253E-001
  1.44000E-002	  3.43819E-001	  3.43862E-001	  3.70247E-001	  3.91786E-001
  1.60000E-002	  3.62268E-001	  3.67136E-001	  3.98165E-001	  3.62062E-001
  1.76000E-002	  3.50100E-001	  3.32258E-001	  3.46667E-001	  3.65830E-001
  1.92000E-002	  3.37318E-001	  3.62241E-001	  3.37424E-001	  3.62899E-001
  2.08000E-002	  3.24954E-001	  3.42858E-001	  3.35161E-001	  3.49763E-001
  2.24000E-002	  3.27898E-001	  3.18582E-001	  3.54779E-001	  3.65488E-001
  2.40000E-002	  2.98066E-001	  3.21937E-001	  2.76684E-001	  2.95152E-001
  2.56000E-002	  3.06244E-001	  3.16218E-001	  3.14375E-001	  2.95560E-001
  2.88000E-002	  3.02024E-001	  3.04195E-001	  3.03434E-001	  3.28764E-001
  3.20000E-002	  2.96332E-001	  2.97274E-001	  2.80139E-001	  3.17774E-001
  3.52000E-002	  2.64558E-001	  2.89423E-001	  2.73065E-001	  2.91398E-001
  3.84000E-002	  2.76237E-001	  2.65052E-001	  2.75329E-001	  2.81873E-001
  4.16000E-002	  2.61319E-001	  2.46018E-001	  2.69387E-001	  2.62638E-001
  4.48000E-002	  2.53739E-001	  2.33859E-001	  2.51090E-001	  2.77292E-001
  4.80000E-002	  2.25551E-001	  2.29062E-001	  2.41869E-001	  2.89144E-001
  5.12000E-002	  2.24601E-001	  2.15619E-001	  2.35455E-001	  2.48301E-001
  5.76000E-002	  2.14349E-001	  2.05763E-001	  2.16424E-001	  2.29355E-001
  6.40000E-002	  1.96780E-001	  1.77148E-001	  2.01072E-001	  1.97924E-001
  7.04000E-002	  1.67308E-001	  1.83444E-001	  1.82349E-001	  1.89595E-001
  7.68000E-002	  1.54177E-001	  1.62467E-001	  1.67751E-001	  1.83891E-001
  8.32000E-002	  1.58958E-001	  1.33272E-001	  1.49688E-001	  1.66746E-001
  8.96000E-002	  1.28678E-001	  1.33625E-001	  1.48179E-001	  1.66275E-001
  9.60000E-002	  1.22878E-001	  1.20097E-001	  1.29032E-001	  1.34421E-001
  1.02400E-001	  1.15160E-001	  1.14212E-001	  1.26096E-001	  1.41723E-001
  1.15200E-001	  9.66324E-002	  1.04121E-001	  1.09777E-001	  1.17908E-001
  1.28000E-001	  9.02167E-002	  9.41314E-002	  8.54647E-002	  9.59039E-002
  1.40800E-001	  7.89349E-002	  8.73479E-002	  8.14129E-002	  7.97046E-002
  1.53600E-001	  6.71580E-002	  6.87456E-002	  8.16487E-002	  7.35284E-002
  1.66400E-001	  6.66231E-002	  6.72114E-002	  5.95346E-002	  6.34467E-002
  1.79200E-001	  4.09000E-002	  5.81669E-002	  4.51205E-002	  5.71134E-002
  1.92000E-001	  3.38688E-002	  4.14160E-002	  4.40966E-002	  5.53275E-002
  2.04800E-001	  3.37410E-002	  3.61224E-002	  4.03459E-002	  5.93901E-002
  2.30400E-001	  4.05255E-002	  3.63470E-002	  3.31720E-002	  3.94572E-002
  2.56000E-001	  2.34335E-002	  2.25201E-002	  3.11785E-002	  2.97527E-002
  2.81600E-001	  2.61102E-002	  2.37133E-002	  2.19474E-002	  2.46946E-002
  3.07200E-001	  2.67190E-002	  2.20962E-002	  2.44718E-002	  2.73519E-002
  3.32800E-001	  2.23416E-002	  1.53785E-002	  2.62765E-002	  1.72819E-002
  3.58400E-001	  1.26406E-002	  6.12560E-003	  1.74070E-002	  1.54891E-002
  3.84000E-001	  9.44796E-003	  3.94991E-003	  1.37093E-002	  9.80229E-003
  4.09600E-001	  1.26712E-002	  2.69577E-003	  1.45126E-002	  5.83712E-003
  4.60800E-001	  1.02631E-002	  5.47759E-003	  1.51131E-002	  1.78179E-003
  5.12000E-001	  9.42149E-003	  7.58807E-003	  1.74880E-002	  5.41819E-003
  5.63200E-001	  3.10673E-003	  1.99711E-003	  1.62269E-002	  2.88065E-003
  6.14400E-001	  2.53615E-003	  4.28323E-003	  1.15426E-002	  3.66752E-003
  6.65600E-001	  7.78767E-003	  1.03853E-002	  3.96139E-003	  2.29306E-003
  7.16800E-001	  6.00059E-003	  5.94406E-003	  9.90750E-003	 -1.98006E-003
  7.68000E-001	  2.69696E-003	  7.63567E-003	  1.08745E-002	 -1.12301E-002
  8.19200E-001	  5.27237E-003	  3.58701E-003	  6.01161E-003	 -7.29228E-003
  9.21600E-001	 -5.98821E-004	  3.66217E-003	  3.05304E-003	  3.05292E-003
  1.02400E+000	 -4.50934E-003	  2.90561E-003	  6.17054E-003	  6.94903E-003
  1.12640E+000	  1.47953E-003	  4.62341E-003	  9.92465E-003	  1.20763E-002
  1.22880E+000	  8.05828E-004	  1.16329E-002	  7.28604E-003	  3.22150E-003
  1.33120E+000	 -2.04631E-003	 -1.45327E-003	  5.34075E-003	  6.02124E-003
  1.43360E+000	  2.06951E-003	 -8.11878E-003	  3.34561E-003	 -3.59354E-003
  1.53600E+000	  2.77470E-003	 -1.00324E-002	  3.71400E-003	 -4.97991E-003
  1.63840E+000	  1.73374E-003	 -2.38994E-003	  7.49631E-003	 -1.70711E-003
  1.84320E+000	  4.30784E-003	  1.59691E-004	  7.24095E-003	 -3.08010E-004
  2.04800E+000	  4.64630E-003	 -4.80112E-003	  1.39877E-003	 -1.03590E-003
  2.25280E+000	 -3.34496E-003	  1.31964E-003	 -6.77951E-003	 -6.63276E-004
  2.45760E+000	 -4.19263E-003	  1.54569E-003	 -1.53465E-003	 -1.34343E-002
  2.66240E+000	  6.19998E-003	  3.12049E-003	 -9.29616E-003	 -7.63563E-003
  2.86720E+000	 -4.90646E-003	  8.38914E-003	  2.99471E-003	 -3.44024E-003
  3.07200E+000	 -2.93499E-004	 -1.25170E-003	 -6.85362E-003	 -7.68770E-003
  3.27680E+000	  5.58648E-003	 -1.10595E-003	 -5.08359E-003	 -3.10295E-003
  3.68640E+000	  3.04422E-004	 -1.06517E-003	 -9.09368E-003	  4.44088E-003
  4.09600E+000	  2.65790E-003	  5.61348E-003	 -5.14169E-003	  1.14785E-003
  4.50560E+000	  1.02792E-003	 -9.41560E-004	 -2.69435E-004	  4.65682E-004
  4.91520E+000	  4.25853E-003	  3.69185E-003	  1.46412E-003	  3.53052E-003
  5.32480E+000	  3.51238E-003	 -3.87343E-003	 -2.18866E-003	  2.13523E-003
  5.73440E+000	 -5.06191E-004	  3.77674E-003	 -6.20673E-004	 -7.77270E-003
  6.14400E+000	  2.89450E-003	 -2.53043E-003	  6.82054E-003	 -3.28483E-003
  6.55360E+000	  2.78117E-003	 -4.44131E-003	  8.18602E-003	 -1.92578E-003
  7.37280E+000	 -1.15365E-004	 -3.15116E-003	  2.23819E-003	 -2.49864E-003
  8.19200E+000	  1.14555E-003	 -6.57409E-004	 -3.35942E-004	 -6.03403E-003
  9.01120E+000	  1.73401E-005	  1.42657E-003	  3.09309E-003	  2.49412E-003
  9.83040E+000	 -4.14232E-003	  2.53568E-003	  1.30645E-003	 -2.63221E-003
  1.06496E+001	  3.62756E-003	 -2.70574E-003	  4.78806E-003	 -1.70445E-003
  1.14688E+001	 -4.33778E-003	 -7.94228E-004	 -1.63264E-003	 -2.37587E-003
  1.22880E+001	  3.05343E-003	 -3.35443E-003	 -6.86139E-003	  2.08235E-003
  1.31072E+001	 -9.69973E-004	 -2.76216E-003	 -2.80043E-003	  3.00181E-003
  1.47456E+001	 -2.08772E-003	  3.19264E-003	  3.55200E-003	  4.49110E-004
  1.63840E+001	 -1.28966E-003	  1.48723E-003	  7.02705E-004	 -3.00334E-003
  1.80224E+001	 -1.53008E-003	  5.75954E-004	 -1.93428E-003	  1.43290E-003
  1.96608E+001	 -2.95103E-004	 -7.28512E-005	 -2.47306E-003	  2.01732E-003
  2.12992E+001	  1.12525E-003	  6.66406E-004	 -1.11037E-003	  2.39941E-003
  2.29376E+001	 -1.48322E-004	 -1.39857E-003	  9.45337E-004	 -1.17383E-003
  2.45760E+001	 -2.67917E-003	  1.46334E-004	  1.72422E-003	  4.08020E-004
  2.62144E+001	  1.34768E-003	  6.33822E-004	  1.43136E-004	 -1.32856E-003
  2.94912E+001	  1.22323E-003	  3.60703E-003	 -5.62930E-005	 -2.77505E-004
  3.27680E+001	  1.44939E-003	  4.72589E-005	 -6.55508E-004	 -4.24623E-004
  3.60448E+001	  1.18636E-005	  4.11156E-003	 -2.10029E-003	 -4.02357E-004
  3.93216E+001	  6.29017E-005	  2.12883E-004	 -1.57138E-003	  1.72038E-003
  4.25984E+001	 -2.57827E-004	  9.69631E-004	  2.04229E-004	 -1.39360E-003
  4.58752E+001	 -5.86014E-004	  1.13466E-003	  1.19938E-003	 -9.01366E-004
  4.91520E+001	  2.19998E-003	 -1.95983E-003	  1.54666E-003	  1.16995E-004
  5.24288E+001	  1.77060E-003	  1.10058E-003	 -9.80021E-004	  1.68235E-004
  5.89824E+001	  1.22117E-003	  6.35237E-004	  9.18812E-004	 -4.10968E-004
  6.55360E+001	  1.03463E-003	  2.01610E-003	 -5.32650E-004	 -2.63932E-004
  7.20896E+001	 -5.68583E-004	  4.17908E-005	  7.97186E-004	 -1.23408E-003
  7.86432E+001	 -1.97128E-003	 -2.03100E-004	 -3.12140E-003	  1.12424E-003
  8.51968E+001	  2.64914E-003	 -2.14531E-004	 -1.78273E-003	 -7.00835E-005
  9.17504E+001	  1.08102E-003	  2.37982E-004	 -4.10734E-004	  4.93075E-004
  9.83040E+001	  9.80597E-005	  8.95174E-004	 -2.28484E-003	 -6.10924E-004
  1.04858E+002	  2.24393E-003	  1.55752E-003	  2.24349E-004	  2.04817E-004
  1.17965E+002	 -8.99056E-004	 -8.00267E-004	  2.80040E-004	 -1.71064E-004
  1.31072E+002	 -2.24760E-004	 -1.23506E-005	 -8.67059E-004	 -4.95533E-004
  1.44179E+002	 -1.35971E-004	 -2.54252E-005	 -7.98207E-004	 -7.60454E-004
  1.57286E+002	 -1.27682E-003	 -5.94795E-004	 -3.28199E-005	 -1.67335E-003
  1.70394E+002	  3.77110E-004	  9.05993E-004	  1.89350E-003	  2.99653E-004
  1.83501E+002	  8.30330E-004	 -4.22510E-004	  1.49248E-003	 -4.15764E-005
  1.96608E+002	  1.01012E-003	 -1.31953E-003	 -1.12348E-004	 -8.65796E-004
  2.09715E+002	 -4.80038E-004	 -1.60908E-003	 -1.62604E-004	 -5.17428E-004
  2.35930E+002	 -7.57280E-004	 -1.69458E-003	  8.39939E-004	  3.79849E-004
  2.62144E+002	 -1.37869E-003	 -8.72649E-004	  1.71556E-004	  7.51682E-004
  2.88358E+002	  1.15068E-003	 -5.62476E-004	 -8.70127E-004	  7.64740E-004
  3.14573E+002	  1.02968E-004	  6.21493E-004	 -9.79396E-004	  3.12949E-004
  3.40787E+002	 -3.91787E-004	  2.89195E-004	  4.93677E-004	 -5.73721E-005
  3.67002E+002	  1.03308E-003	  1.44864E-004	  4.98254E-004	  6.02711E-004
  3.93216E+002	  1.41389E-003	  9.58699E-004	 -1.22693E-003	  2.68993E-004

"Count Rate"
       0.01311	      60.72998	      56.22864	      59.96704	      56.61011
       0.02621	      52.79541	      56.07605	      51.95618	      51.87988
       0.03932	      58.28857	      57.44934	      55.61829	      55.00793
       0.05243	      49.36218	      55.00793	      58.05969	      60.04333
       0.06554	      56.76270	      56.07605	      58.67004	      62.86621
       0.07864	      45.16602	      61.87439	      51.95618	      54.62646
       0.09175	      56.30493	      54.85535	      55.77087	      55.23682
       0.10486	      53.93982	      54.77905	      60.72998	      48.98071
       0.11796	      51.87988	      52.49023	      61.95068	      53.02429
       0.13107	      54.62646	      59.28040	      59.12781	      64.46838
       0.14418	      56.45752	      55.92346	      57.67822	      54.93164
       0.15729	      61.56921	      60.88257	      55.46570	      59.12781
       0.17039	      57.29675	      62.71362	      57.06787	      65.53650
       0.18350	      59.35669	      53.10059	      63.40027	      51.57471
       0.19661	      57.44934	      58.28857	      64.84985	      55.69458
       0.20972	      50.73547	      50.96436	      56.15234	      50.73547
       0.22282	      57.67822	      63.93433	      55.38940	      56.76270
       0.23593	      51.80359	      63.32397	      55.46570	      55.84717
       0.24904	      55.69458	      59.58557	      59.35669	      59.35669
       0.26214	      55.61829	      61.95068	      58.21228	      59.12781
       0.27525	      65.07874	      52.94800	      67.52014	      51.19324
       0.28836	      65.00244	      53.63464	      49.28589	      51.26953
       0.30147	      48.52295	      59.96704	      59.12781	      54.32129
       0.31457	      55.92346	      55.46570	      65.91797	      46.31042
       0.32768	      55.31311	      52.79541	      55.38940	      55.77087
       0.34079	      56.61011	      63.78174	      60.72998	      51.95618
       0.35389	      54.70276	      61.11145	      62.17957	      57.06787
       0.36700	      59.50928	      55.38940	      62.40845	      53.55835
       0.38011	      61.26404	      54.01611	      65.61279	      55.77087
       0.39322	      63.09509	      58.36487	      49.66736	      52.41394
       0.40632	      44.70825	      55.31311	      50.04883	      60.11963
       0.41943	      59.50928	      57.44934	      59.50928	      54.70276
       0.43254	      48.21777	      48.37036	      65.38391	      53.40576
       0.44564	      55.61829	      57.60193	      58.44116	      61.03516
       0.45875	      63.09509	      57.90710	      67.67273	      50.73547
       0.47186	      55.84717	      58.21228	      62.63733	      62.63733
       0.48497	      56.53381	      58.74634	      61.18774	      60.88257
       0.49807	      53.02429	      62.33215	      58.13599	      55.54199
       0.51118	      55.77087	      65.30762	      53.02429	      52.26135
       0.52429	      53.93982	      61.49292	      54.01611	      57.75452
       0.53740	      55.84717	      57.22046	      51.26953	      54.62646
       0.55050	      57.83081	      67.36755	      59.89075	      49.81995
       0.56361	      67.44385	      60.27222	      59.12781	      47.45483
       0.57672	      55.31311	      62.86621	      50.96436	      58.67004
       0.58982	      50.73547	      62.40845	      56.45752	      50.43030
       0.60293	      61.11145	      51.65100	      69.80896	      50.65918
       0.61604	      63.17139	      64.46838	      63.24768	      55.08423
       0.62915	      57.06787	      68.96973	      72.25037	      62.17957
       0.64225	      53.17688	      62.25586	      50.58289	      50.04883
       0.65536	      66.52832	      66.29944	      62.25586	      56.99158
       0.66847	      55.46570	      58.21228	      58.44116	      52.10876
       0.68157	      71.18225	      73.85254	      53.78723	      50.50659
       0.69468	      56.76270	      62.25586	      56.76270	      61.26404
       0.70779	      66.75720	      53.71094	      56.38123	      51.19324
       0.72090	      58.59375	      58.59375	      59.89075	      54.77905
       0.73400	      60.72998	      62.48474	      55.92346	      52.26135
       0.74711	      61.49292	      53.63464	      50.73547	      58.51746
