ALV-7004/USB-FAST
Date :	"11/11/2025"
Time :	"3:57:02 PM"
Samplename : 	""
SampMemo(0) : 	""
SampMemo(1) : 	""
SampMemo(2) : 	""
SampMemo(3) : 	""
SampMemo(4) : 	""
SampMemo(5) : 	""
SampMemo(6) : 	""
SampMemo(7) : 	""
SampMemo(8) : 	""
SampMemo(9) : 	""
Temperature [K] :	     298.16000
Viscosity [cp]  :	       0.89000
Refractive Index:	       1.33200
Wavelength [nm] :	       0.00000
Angle [°]       :	       0.00000
Duration [s]    :	         1
FloatDur [ms]   :	          944
Stop TP [ms]   :	     67739
Runs            :	         1
Mode            :	"A-CH0+1  A-CH2+3 "
MeanCR0 [kHz]   :	      46.66646
MeanCR1 [kHz]   :	      47.75047
MeanCR2 [kHz]   :	      47.84478
MeanCR3 [kHz]   :	      46.96634

"Correlation"
  3.12500E-006	 -1.00000E+000	 -1.00000E+000	 -1.00000E+000	 -1.00000E+000
  6.25000E-006	 -1.00000E+000	 -1.00000E+000	 -1.00000E+000	 -1.00000E+000
  9.37500E-006	 -1.00000E+000	 -1.00000E+000	 -1.00000E+000	 -1.00000E+000
  1.25000E-005	 -1.00000E+000	 -1.00000E+000	 -1.00000E+000	 -1.00000E+000
  1.56250E-005	 -1.00000E+000	 -1.00000E+000	 -1.00000E+000	 -1.00000E+000
  1.87500E-005	 -1.00000E+000	 -1.00000E+000	 -1.00000E+000	 -1.00000E+000
  2.18750E-005	 -1.00000E+000	  1.23071E+000	  7.77541E-001	 -8.46279E-001
  2.50000E-005	  1.56603E+001	  1.58047E+001	  1.23316E+001	  3.25112E+001
  2.81250E-005	  3.82680E+000	  1.97428E+000	  2.40695E+000	  1.23738E+001
  3.12500E-005	  1.95836E+000	  3.46142E+000	  1.37005E+000	  4.68769E+000
  3.43750E-005	  1.49125E+000	  1.37943E+000	  1.22193E+000	  3.15048E+000
  3.75000E-005	  8.99229E-002	  1.82557E+000	  1.51818E+000	  4.07280E+000
  4.06250E-005	  4.01330E-001	  6.35855E-001	  6.29413E-001	  4.38025E+000
  4.37500E-005	  2.45626E-001	  4.87141E-001	  9.25669E-001	  3.45792E+000
  4.68750E-005	  1.02414E+000	  2.12300E+000	  4.81284E-001	  1.92070E+000
  5.00000E-005	  8.68439E-001	  1.15635E+000	  1.07380E+000	  2.53559E+000
  5.62500E-005	  9.46291E-001	  1.00764E+000	  7.77541E-001	  2.22815E+000
  6.25000E-005	  1.10199E+000	  4.12784E-001	  9.99734E-001	  2.30501E+000
  6.87500E-005	  4.01329E-001	  9.33283E-001	  4.81284E-001	  9.21516E-001
  7.50000E-005	  4.79181E-001	  1.08200E+000	  1.07380E+000	  1.22896E+000
  8.12500E-005	  8.68439E-001	  1.37943E+000	  4.07220E-001	  1.45954E+000
  8.75000E-005	  6.34884E-001	  6.35855E-001	  1.07380E+000	  6.90934E-001
  9.37500E-005	  7.90588E-001	  4.87141E-001	  4.81284E-001	  6.90934E-001
  1.00000E-004	  1.02414E+000	  6.73033E-001	  2.59091E-001	  7.29364E-001
  1.12500E-004	  5.95958E-001	  4.12784E-001	  3.33156E-001	  1.22896E+000
  1.25000E-004	  5.95958E-001	  2.64070E-001	  4.44252E-001	  8.06225E-001
  1.37500E-004	  1.02414E+000	  7.47391E-001	  3.70188E-001	  7.29364E-001
  1.50000E-004	  7.12736E-001	  1.15356E-001	  3.33156E-001	  7.29364E-001
  1.62500E-004	  8.29513E-001	  4.12784E-001	  8.51605E-001	  6.52504E-001
  1.75000E-004	  5.18107E-001	  3.01248E-001	  7.03477E-001	  3.83492E-001
  1.87500E-004	  5.95958E-001	  5.98676E-001	  8.88637E-001	  2.29770E-001
  2.00000E-004	  4.20792E-001	  5.80087E-001	  6.66444E-001	  6.71719E-001
  2.25000E-004	  4.59718E-001	  4.68551E-001	  5.18316E-001	  7.67794E-001
  2.50000E-004	  8.48976E-001	  4.31373E-001	  5.92380E-001	  4.79567E-001
  2.75000E-004	  5.37569E-001	  5.98676E-001	  5.92380E-001	  7.48579E-001
  3.00000E-004	  6.93273E-001	  4.12784E-001	  6.84960E-001	  7.10149E-001
  3.25000E-004	  4.79181E-001	  5.24319E-001	  5.73864E-001	  5.56428E-001
  3.50000E-004	  1.87237E-001	  7.65979E-001	  5.55348E-001	  8.25440E-001
  3.75000E-004	  3.62403E-001	  4.49962E-001	  4.44252E-001	  4.98782E-001
  4.00000E-004	  4.59717E-001	  6.07970E-001	  4.25735E-001	  5.66035E-001
  4.50000E-004	  7.22466E-001	  7.10211E-001	  4.62767E-001	  4.98782E-001
  5.00000E-004	  4.98643E-001	  4.77845E-001	  4.81283E-001	  3.16238E-001
  5.50000E-004	  6.64077E-001	  4.68551E-001	  6.84959E-001	  7.19756E-001
  6.00000E-004	  7.12735E-001	  4.22078E-001	  4.99799E-001	  4.12313E-001
  6.50000E-004	  5.47300E-001	  4.12783E-001	  6.01637E-001	  4.89174E-001
  7.00000E-004	  7.80855E-001	  2.82658E-001	  7.96056E-001	  4.31529E-001
  7.50000E-004	  2.84551E-001	  6.63738E-001	  5.64605E-001	  6.23680E-001
  8.00000E-004	  4.49984E-001	  6.03321E-001	  4.58137E-001	  4.89173E-001
  9.00000E-004	  3.86730E-001	  5.28964E-001	  4.81282E-001	  5.85248E-001
  1.00000E-003	  5.61896E-001	  4.49960E-001	  3.51670E-001	  3.97901E-001
  1.10000E-003	  3.72133E-001	  3.15188E-001	  5.09056E-001	  3.83490E-001
  1.20000E-003	  2.99147E-001	  3.84898E-001	  4.02589E-001	  3.35452E-001
  1.30000E-003	  4.64582E-001	  4.26724E-001	  3.37783E-001	  3.64274E-001
  1.40000E-003	  5.22970E-001	  4.73197E-001	  5.22943E-001	  4.74761E-001
  1.50000E-003	  4.30522E-001	  5.42906E-001	  4.11847E-001	  3.97901E-001
  1.60000E-003	  4.76743E-001	  4.19750E-001	  5.36827E-001	  4.98778E-001
  1.80000E-003	  4.71878E-001	  3.94190E-001	  4.76650E-001	  4.41132E-001
  2.00000E-003	  3.47802E-001	  4.52281E-001	  3.03063E-001	  4.00300E-001
  2.20000E-003	  5.22968E-001	  4.82489E-001	  4.04901E-001	  3.25842E-001
  2.40000E-003	  4.30519E-001	  3.33775E-001	  5.13682E-001	  4.62749E-001
  2.60000E-003	  4.54848E-001	  4.38339E-001	  4.62763E-001	  3.76282E-001
  2.80000E-003	  4.15922E-001	  4.40663E-001	  4.74336E-001	  3.64272E-001
  3.00000E-003	  4.06191E-001	  4.68547E-001	  3.67869E-001	  4.36329E-001
  3.20000E-003	  4.42678E-001	  4.76675E-001	  4.13028E-001	  4.26716E-001
  3.60000E-003	  4.14701E-001	  4.66218E-001	  3.34334E-001	  4.63945E-001
  4.00000E-003	  3.59962E-001	  4.15098E-001	  4.10714E-001	  4.00296E-001
  4.40000E-003	  4.36596E-001	  3.43065E-001	  3.93354E-001	  3.37847E-001
  4.80000E-003	  3.74559E-001	  3.50036E-001	  3.41277E-001	  3.99095E-001
  5.20000E-003	  3.79424E-001	  3.89538E-001	  2.88043E-001	  4.50735E-001
  5.60000E-003	  3.96454E-001	  3.58169E-001	  3.95669E-001	  4.20712E-001
  6.00000E-003	  3.33200E-001	  3.70949E-001	  3.55164E-001	  4.11104E-001
  6.40000E-003	  3.76982E-001	  3.45380E-001	  3.56921E-001	  3.44443E-001
  7.20000E-003	  3.56911E-001	  3.25629E-001	  3.46506E-001	  3.64258E-001
  8.00000E-003	  3.79415E-001	  3.41894E-001	  3.10022E-001	  3.12018E-001
  8.80000E-003	  3.41737E-001	  3.44799E-001	  3.39532E-001	  2.53172E-001
  9.60000E-003	  3.14975E-001	  3.09364E-001	  3.05393E-001	  3.27630E-001
  1.04000E-002	  3.12542E-001	  2.97165E-001	  2.92663E-001	  3.13819E-001
  1.12000E-002	  2.49287E-001	  2.89032E-001	  2.90927E-001	  2.36959E-001
  1.20000E-002	  2.13402E-001	  2.60595E-001	  2.71254E-001	  2.74789E-001
  1.28000E-002	  2.44129E-001	  2.66996E-001	  2.44069E-001	  2.76602E-001
  1.44000E-002	  2.52035E-001	  2.71353E-001	  2.75026E-001	  2.58588E-001
  1.60000E-002	  2.07939E-001	  2.24298E-001	  2.63164E-001	  2.10850E-001
  1.76000E-002	  1.85435E-001	  2.04283E-001	  2.46962E-001	  2.09949E-001
  1.92000E-002	  1.76919E-001	  2.13869E-001	  2.13112E-001	  1.86531E-001
  2.08000E-002	  1.65667E-001	  1.97312E-001	  1.88783E-001	  1.89233E-001
  2.24000E-002	  1.92125E-001	  1.95569E-001	  1.83864E-001	  1.80827E-001
  2.40000E-002	  1.69012E-001	  1.85403E-001	  1.41046E-001	  1.37292E-001
  2.56000E-002	  1.32362E-001	  1.58238E-001	  1.51047E-001	  1.48246E-001
  2.88000E-002	  1.36949E-001	  1.45893E-001	  1.46418E-001	  1.39989E-001
  3.20000E-002	  1.22529E-001	  1.19170E-001	  1.40946E-001	  1.22876E-001
  3.52000E-002	  1.07475E-001	  1.06511E-001	  9.48235E-002	  1.03961E-001
  3.84000E-002	  1.39990E-001	  8.54522E-002	  1.14643E-001	  9.50796E-002
  4.16000E-002	  9.10273E-002	  7.82146E-002	  7.81871E-002	  9.28279E-002
  4.48000E-002	  7.18678E-002	  7.51647E-002	  7.60409E-002	  6.76088E-002
  4.80000E-002	  5.34925E-002	  5.90437E-002	  8.51310E-002	  7.25625E-002
  5.12000E-002	  6.75456E-002	  7.23458E-002	  7.46559E-002	  5.55150E-002
  5.76000E-002	  4.34422E-002	  6.79161E-002	  3.35706E-002	  4.59828E-002
  6.40000E-002	  5.79650E-002	  5.01974E-002	  5.02072E-002	  3.71262E-002
  7.04000E-002	  2.64101E-002	  3.45120E-002	  3.67303E-002	  4.00534E-002
  7.68000E-002	  2.64861E-002	  2.76133E-002	  4.03699E-002	  3.76516E-002
  8.32000E-002	  1.43204E-002	  3.69084E-002	  2.88689E-002	  3.33967E-002
  8.96000E-002	  1.01155E-002	  3.61592E-002	  2.41672E-002	  2.09891E-002
  9.60000E-002	  6.69391E-003	  9.87217E-003	  2.46962E-002	  5.15094E-002
  1.02400E-001	  7.88566E-003	  1.25683E-002	  2.97714E-002	  1.81728E-002
  1.15200E-001	 -3.50093E-004	  9.79977E-003	  2.99161E-002	 -2.91954E-003
  1.28000E-001	 -1.45862E-002	  2.07292E-003	  5.75513E-003	  1.14872E-003
  1.40800E-001	 -3.65805E-003	  7.73825E-003	  1.57016E-002	  6.91352E-003
  1.53600E-001	  1.20072E-002	  2.76293E-003	  1.28942E-002	  1.13650E-002
  1.66400E-001	 -8.39351E-005	  3.62048E-003	  7.57744E-003	  5.77276E-003
  1.79200E-001	  3.37611E-003	  7.36113E-003	  1.06294E-002	  6.07302E-003
  1.92000E-001	  3.37611E-003	 -1.29983E-002	 -1.05275E-003	  3.08105E-004
  2.04800E-001	  7.91951E-004	  2.90408E-004	 -7.55318E-003	  4.67105E-003
  2.30400E-001	 -5.97812E-003	  5.83063E-005	 -1.33046E-002	  3.57152E-003
  2.56000E-001	 -1.70224E-003	 -1.45740E-003	 -7.13720E-003	  4.89675E-004
  2.81600E-001	  5.07152E-004	  2.57685E-003	 -5.15562E-003	 -7.04417E-003
  3.07200E-001	 -4.50918E-003	 -5.55359E-003	  3.63391E-003	  1.52233E-003
  3.32800E-001	  2.32107E-003	 -4.88554E-003	  5.90719E-003	 -4.06749E-003
  3.58400E-001	  8.34124E-004	 -2.08475E-003	  7.82437E-003	 -9.88281E-003
  3.84000E-001	 -1.40235E-003	  4.10829E-003	  3.89957E-003	 -7.09741E-003
  4.09600E-001	 -1.15078E-003	 -5.47601E-003	  2.80463E-003	 -1.25140E-003
  4.60800E-001	 -7.89314E-004	  2.97929E-003	  6.57681E-003	 -6.12023E-003
  5.12000E-001	 -2.22569E-003	  1.63020E-002	  8.12149E-004	 -2.21464E-003
  5.63200E-001	 -5.52413E-003	  2.56317E-003	  4.84067E-003	  4.32131E-003
  6.14400E-001	 -3.62309E-003	 -6.16170E-004	  8.41641E-004	 -1.33222E-003
  6.65600E-001	  1.27830E-002	  7.00096E-003	 -1.93548E-003	  5.78888E-003
  7.16800E-001	 -3.32235E-003	  2.91183E-003	  8.06886E-003	  1.60604E-003
  7.68000E-001	  5.29644E-004	  6.36254E-004	  2.78989E-003	  4.04126E-003
  8.19200E-001	  3.23578E-003	 -1.28958E-003	 -4.81625E-003	  5.69823E-003
  9.21600E-001	 -5.70743E-003	 -1.06469E-002	  4.65488E-003	  2.86544E-004
  1.02400E+000	 -5.22430E-003	 -5.24219E-003	  2.73417E-003	 -3.81271E-004
  1.12640E+000	 -1.17106E-003	  5.33324E-003	  2.14880E-003	  4.67546E-003
  1.22880E+000	  6.81273E-003	  1.52867E-003	 -1.81076E-003	 -4.11159E-003
  1.33120E+000	 -4.53951E-003	  3.40619E-003	 -4.31088E-003	  1.36974E-003
  1.43360E+000	 -3.77556E-003	  5.30223E-004	 -6.14287E-003	 -2.72777E-003
  1.53600E+000	 -7.09401E-003	 -9.88940E-003	 -5.88085E-003	 -1.52241E-003
  1.63840E+000	 -1.03745E-003	 -6.05093E-004	 -1.79031E-003	 -3.22137E-003
  1.84320E+000	 -4.18321E-003	 -5.09562E-003	  6.18584E-003	  2.07639E-003
  2.04800E+000	  6.47434E-004	  2.96280E-003	  1.69938E-003	 -3.65094E-003
  2.25280E+000	  4.17400E-003	 -4.95285E-003	  1.07689E-003	 -1.53466E-003
  2.45760E+000	 -2.75936E-003	  7.16642E-004	  2.57966E-003	 -3.15891E-003
  2.66240E+000	  3.06335E-003	 -1.78608E-003	  3.96244E-003	 -1.87726E-003
  2.86720E+000	  9.70172E-004	 -2.87187E-003	 -1.23914E-003	  3.22896E-003
  3.07200E+000	  2.88379E-003	 -1.20770E-003	 -1.21517E-003	 -2.60578E-003
  3.27680E+000	  2.96861E-003	  3.13738E-003	 -3.96519E-003	 -5.60918E-004
  3.68640E+000	 -2.86230E-003	  9.87010E-004	  4.04822E-003	 -8.94017E-004
  4.09600E+000	  9.00042E-004	  1.94673E-003	  2.93508E-003	 -1.36332E-003
  4.50560E+000	  7.08098E-004	  3.41267E-003	 -3.08427E-003	 -2.47049E-003
  4.91520E+000	  4.00566E-003	  1.42356E-003	  1.15896E-003	 -8.01150E-004
  5.32480E+000	 -2.04794E-003	 -1.15978E-003	 -1.63761E-003	  3.15109E-004
  5.73440E+000	 -1.72775E-003	 -3.17969E-003	 -3.34240E-003	  1.34120E-003
  6.14400E+000	  1.62488E-003	  3.01421E-004	  2.35986E-003	  1.71776E-003
  6.55360E+000	  1.19555E-003	 -2.12313E-003	  5.33959E-004	  2.42243E-003
  7.37280E+000	  3.22896E-003	 -8.75732E-004	  2.07466E-003	 -3.47909E-004
  8.19200E+000	 -4.33221E-004	  7.03972E-004	 -4.72315E-004	  2.16490E-003
  9.01120E+000	  8.36982E-004	  8.56948E-004	  1.02513E-003	  4.61872E-004
  9.83040E+000	  1.30968E-004	 -2.14926E-004	  1.35439E-003	 -7.01445E-004
  1.06496E+001	  1.50046E-003	  1.64760E-003	 -1.13369E-003	 -4.37298E-004
  1.14688E+001	 -3.44905E-003	  4.90021E-004	  7.61278E-004	  5.60559E-004
  1.22880E+001	  4.98867E-004	  1.56400E-003	  1.03442E-004	  7.29691E-004
  1.31072E+001	  1.76160E-003	  6.83023E-004	  1.43193E-004	 -1.13295E-003
  1.47456E+001	 -9.13902E-004	 -8.87979E-004	 -1.75653E-004	  4.37640E-004
  1.63840E+001	  3.17370E-004	 -1.07499E-003	 -9.58655E-004	 -8.11277E-004
  1.80224E+001	  6.95113E-004	 -6.16351E-004	  5.40709E-004	  1.41853E-003
  1.96608E+001	  4.45507E-004	 -4.41616E-004	  2.81864E-003	 -5.56249E-004
  2.12992E+001	  1.19785E-003	  4.52192E-004	 -2.58119E-004	 -5.93076E-004
  2.29376E+001	 -2.07004E-004	  3.52024E-004	 -9.55982E-004	 -2.81584E-004
  2.45760E+001	  1.87826E-004	 -9.25326E-004	  1.56289E-003	 -2.18101E-004
  2.62144E+001	  5.86443E-004	 -6.35455E-004	 -2.07277E-004	  1.35409E-003
  2.94912E+001	 -5.79133E-004	 -1.57736E-004	 -3.00918E-004	 -4.83883E-004
  3.27680E+001	 -4.59363E-004	  9.54547E-004	  6.81442E-004	 -7.97575E-004
  3.60448E+001	 -9.98600E-004	 -4.53107E-005	 -7.86284E-004	  1.15608E-004
  3.93216E+001	  1.08881E-003	  8.90247E-005	 -1.42737E-003	  1.74150E-005
  4.25984E+001	 -1.40805E-004	  1.05492E-003	 -8.21350E-004	 -8.72933E-004
  4.58752E+001	  5.77087E-004	  3.73625E-004	  3.73853E-004	  1.29135E-003
  4.91520E+001	  1.13993E-003	 -2.96247E-004	 -1.02634E-003	 -3.65980E-004
  5.24288E+001	  1.27512E-004	 -4.47795E-004	  1.00455E-004	 -1.37301E-003
  5.89824E+001	 -1.82245E-004	 -7.92759E-004	 -6.21254E-004	 -1.22630E-003
  6.55360E+001	  3.98351E-004	 -2.95111E-004	 -3.55258E-004	 -1.27288E-003
  7.20896E+001	  6.86006E-004	 -1.10682E-004	  2.38653E-004	  1.56289E-004
  7.86432E+001	  3.36047E-004	  8.99418E-004	 -6.05066E-004	  8.40659E-004
  8.51968E+001	  8.57863E-004	  7.13890E-004	  2.37094E-005	 -3.08938E-005
  9.17504E+001	 -2.45243E-004	 -1.25204E-004	  6.62267E-005	  6.63307E-004
  9.83040E+001	  7.79656E-005	 -5.04154E-004	  6.83990E-004	 -3.07899E-004
  1.04858E+002	 -3.28394E-004	 -1.77393E-004	 -2.96716E-004	  2.45695E-004
  1.17965E+002	 -5.81806E-005	  1.08026E-004	 -3.35965E-004	  8.04096E-004
  1.31072E+002	 -8.03587E-004	  6.10627E-004	 -1.82734E-004	 -3.49490E-004
  1.44179E+002	 -2.70939E-004	  1.02331E-004	  1.90434E-004	 -1.93390E-004
  1.57286E+002	 -5.32450E-004	 -5.18758E-004	 -3.54835E-005	 -6.20184E-004
  1.70394E+002	 -6.66822E-004	 -8.20565E-004	  1.61540E-004	 -1.21594E-003
  1.83501E+002	  2.80585E-004	 -8.69704E-004	 -5.62197E-004	 -4.36053E-004
  1.96608E+002	 -2.87575E-004	 -6.03804E-004	 -7.05670E-005	 -3.92155E-004
  2.09715E+002	 -7.14530E-004	  7.42971E-004	 -6.04096E-004	  9.06194E-004
  2.35930E+002	 -2.19284E-004	  8.16909E-004	 -9.21998E-004	  5.35965E-004
  2.62144E+002	 -1.23825E-004	 -1.96183E-004	  6.03398E-004	 -1.23857E-003
  2.88358E+002	 -2.12467E-004	 -2.98222E-004	  4.63303E-004	 -8.12941E-005
  3.14573E+002	  1.67004E-004	  2.65402E-004	  1.66961E-004	  6.87836E-004
  3.40787E+002	  6.57553E-005	  8.52426E-004	 -1.58413E-004	  2.15089E-004
  3.67002E+002	  3.24605E-004	  8.18745E-005	  1.14183E-003	  2.13207E-004
  3.93216E+002	  1.59427E-004	 -5.55412E-004	 -1.29937E-005	 -3.47284E-004

"Count Rate"
       0.01311	      47.37854	      44.32678	      47.76001	      48.90442
       0.02621	      50.04883	      44.63196	      41.35132	      44.47937
       0.03932	      47.45483	      51.26953	      52.10876	      45.85266
       0.05243	      41.80908	      48.90442	      41.73279	      44.25049
       0.06554	      45.24231	      45.01343	      52.79541	      47.53113
       0.07864	      47.37854	      50.96436	      46.31042	      45.47119
       0.09175	      43.41125	      46.08154	      49.05701	      46.46301
       0.10486	      49.89624	      47.30225	      45.47119	      44.40308
       0.11796	      48.06519	      48.82813	      46.15784	      47.14966
       0.13107	      39.21509	      49.28589	      51.04065	      43.94531
       0.14418	      48.21777	      45.92896	      48.21777	      46.76819
       0.15729	      45.01343	      46.61560	      45.62378	      47.30225
       0.17039	      44.40308	      46.61560	      45.16602	      46.46301
       0.18350	      46.00525	      49.59106	      49.59106	      47.14966
       0.19661	      42.80090	      47.22595	      45.77637	      46.99707
       0.20972	      42.95349	      47.30225	      47.68372	      46.38672
       0.22282	      44.63196	      46.76819	      46.00525	      47.76001
       0.23593	      42.03796	      44.09790	      49.13330	      44.47937
       0.24904	      41.19873	      43.02979	      45.39490	      46.08154
       0.26214	      47.07336	      47.45483	      52.79541	      45.77637
       0.27525	      44.32678	      45.31860	      46.76819	      44.17419
       0.28836	      47.60742	      40.51208	      48.21777	      46.53931
       0.30147	      48.82813	      50.58289	      45.54749	      48.59924
       0.31457	      45.24231	      44.17419	      42.80090	      41.73279
       0.32768	      45.39490	      49.59106	      47.14966	      42.03796
       0.34079	      40.58838	      46.61560	      46.61560	      46.99707
       0.35389	      45.01343	      46.08154	      52.56653	      47.53113
       0.36700	      47.98889	      43.86902	      49.89624	      48.14148
       0.38011	      48.14148	      43.18237	      42.34314	      46.84448
       0.39322	      47.83630	      45.47119	      46.76819	      45.01343
       0.40632	      48.59924	      47.53113	      47.60742	      43.56384
       0.41943	      43.94531	      46.69189	      47.83630	      46.84448
       0.43254	      47.91260	      48.52295	      49.20959	      42.11426
       0.44564	      47.22595	      47.14966	      46.38672	      49.20959
       0.45875	      51.04065	      48.59924	      47.91260	      43.02979
       0.47186	      45.39490	      51.19324	      49.20959	      45.31860
       0.48497	      51.42212	      48.06519	      45.08972	      48.44666
       0.49807	      48.98071	      44.17419	      42.95349	      49.13330
       0.51118	      46.76819	      48.29407	      44.02161	      46.38672
       0.52429	      47.98889	      42.95349	      42.57202	      51.34583
       0.53740	      43.33496	      48.52295	      44.02161	      45.47119
       0.55050	      48.90442	      52.10876	      44.32678	      43.86902
       0.56361	      41.35132	      46.46301	      47.37854	      48.14148
       0.57672	      50.20142	      48.90442	      47.30225	      43.71643
       0.58982	      44.47937	      40.58838	      45.47119	      49.89624
       0.60293	      41.73279	      48.59924	      48.82813	      50.96436
       0.61604	      44.86084	      44.17419	      48.06519	      46.92078
       0.62915	      44.09790	      47.14966	      52.71912	      47.76001
       0.64225	      43.10608	      45.85266	      45.62378	      46.46301
       0.65536	      45.85266	      46.53931	      47.98889	      45.16602
       0.66847	      47.45483	      47.14966	      45.77637	      41.96167
       0.68157	      44.55566	      50.73547	      45.01343	      46.23413
       0.69468	      43.86902	      47.53113	      45.08972	      42.11426
       0.70779	      43.56384	      45.08972	      46.38672	      46.84448
       0.72090	      44.63196	      45.39490	      58.28857	      49.28589
       0.73400	      50.81177	      47.60742	      51.72729	      48.29407
       0.74711	      48.67554	      45.31860	      45.16602	      42.95349
