ALV-7004/USB-FAST
Date :	"11/11/2025"
Time :	"3:58:37 PM"
Samplename : 	""
SampMemo(0) : 	""
SampMemo(1) : 	""
SampMemo(2) : 	""
SampMemo(3) : 	""
SampMemo(4) : 	""
SampMemo(5) : 	""
SampMemo(6) : 	""
SampMemo(7) : 	""
SampMemo(8) : 	""
SampMemo(9) : 	""
Temperature [K] :	     298.16000
Viscosity [cp]  :	       0.89000
Refractive Index:	       1.33200
Wavelength [nm] :	       0.00000
Angle [°]       :	       0.00000
Duration [s]    :	         1
FloatDur [ms]   :	          944
Stop TP [ms]   :	     68109
Runs            :	         1
Mode            :	"A-CH0+1  A-CH2+3 "
MeanCR0 [kHz]   :	      54.55335
MeanCR1 [kHz]   :	      57.57756
MeanCR2 [kHz]   :	      58.39984
MeanCR3 [kHz]   :	      55.06727

"Correlation"
  3.12500E-006	 -1.00000E+000	 -1.00000E+000	 -1.00000E+000	 -1.00000E+000
  6.25000E-006	 -1.00000E+000	 -1.00000E+000	 -1.00000E+000	 -1.00000E+000
  9.37500E-006	 -1.00000E+000	 -1.00000E+000	 -1.00000E+000	 -1.00000E+000
  1.25000E-005	 -1.00000E+000	 -1.00000E+000	 -1.00000E+000	 -1.00000E+000
  1.56250E-005	 -1.00000E+000	 -1.00000E+000	 -1.00000E+000	 -1.00000E+000
  1.87500E-005	 -1.00000E+000	 -1.00000E+000	 -1.00000E+000	 -1.00000E+000
  2.18750E-005	 -1.00000E+000	  9.43366E-001	  9.88448E-001	 -4.40899E-001
  2.50000E-005	  1.38118E+001	  1.54675E+001	  1.07318E+001	  2.12522E+001
  2.81250E-005	  2.64598E+000	  1.96619E+000	  1.78383E+000	  8.61654E+000
  3.12500E-005	  5.95118E-001	  8.41084E-001	  1.68440E+000	  4.92647E+000
  3.43750E-005	  1.16480E+000	 -7.94581E-002	  9.88448E-001	  2.91371E+000
  3.75000E-005	  1.73449E+000	  1.45478E+000	  8.89026E-001	  4.47919E+000
  4.06250E-005	  1.16480E+000	  1.25021E+000	  6.90181E-001	  2.35461E+000
  4.37500E-005	  2.54328E-002	  6.36519E-001	  9.36465E-002	  2.91371E+000
  4.68750E-005	  2.53307E-001	  1.45478E+000	  1.93069E-001	  3.24917E+000
  5.00000E-005	  8.79960E-001	  1.35250E+000	  8.39314E-001	  2.07506E+000
  5.62500E-005	  9.93897E-001	  1.14793E+000	  1.03816E+000	  1.90733E+000
  6.25000E-005	  7.09055E-001	  9.94507E-001	  1.53527E+000	  1.23640E+000
  6.87500E-005	  7.66023E-001	  7.89943E-001	  4.41625E-001	  1.85142E+000
  7.50000E-005	  7.09055E-001	  8.41084E-001	  8.89026E-001	  7.33213E-001
  8.12500E-005	  9.93897E-001	  5.34236E-001	  3.91914E-001	  1.06867E+000
  8.75000E-005	  7.09055E-001	  9.94507E-001	  7.89603E-001	  5.65483E-001
  9.37500E-005	  8.22991E-001	  1.25107E-001	  6.90181E-001	  9.00944E-001
  1.00000E-004	  5.38149E-001	  3.04101E-001	  5.90758E-001	  5.65483E-001
  1.12500E-004	  4.52696E-001	  3.29671E-001	  4.41625E-001	  4.53663E-001
  1.25000E-004	  3.95728E-001	  6.10948E-001	  5.90758E-001	  7.33213E-001
  1.37500E-004	  3.38759E-001	  4.83095E-001	  7.15036E-001	  6.49348E-001
  1.50000E-004	  3.38759E-001	  4.06383E-001	  3.91913E-001	  1.04072E+000
  1.62500E-004	  3.95728E-001	  5.59807E-001	  4.16769E-001	  5.09573E-001
  1.75000E-004	  7.66023E-001	  5.85378E-001	  6.90181E-001	  1.04072E+000
  1.87500E-004	  6.80570E-001	  9.94507E-001	  2.67635E-001	  6.21393E-001
  2.00000E-004	  6.80570E-001	  9.56151E-001	  4.91336E-001	  7.19235E-001
  2.25000E-004	  7.66022E-001	  5.21451E-001	  4.78908E-001	  5.51505E-001
  2.50000E-004	  3.10275E-001	  4.83095E-001	  7.15036E-001	  6.35370E-001
  2.75000E-004	  1.96338E-001	  5.72592E-001	  7.77175E-001	  6.63325E-001
  3.00000E-004	  6.09359E-001	  3.55242E-001	  3.67058E-001	  3.69797E-001
  3.25000E-004	  7.37538E-001	  5.47021E-001	  3.79485E-001	  8.03101E-001
  3.50000E-004	  4.95422E-001	  5.47021E-001	  3.67058E-001	  6.63325E-001
  3.75000E-004	  3.95727E-001	  2.65745E-001	  6.90180E-001	  7.19235E-001
  4.00000E-004	  4.09969E-001	  4.63916E-001	  6.28041E-001	  5.09572E-001
  4.50000E-004	  4.66937E-001	  5.72591E-001	  6.28041E-001	  4.11729E-001
  5.00000E-004	  5.16785E-001	  3.74419E-001	  4.97549E-001	  3.97752E-001
  5.50000E-004	  5.16785E-001	  4.89487E-001	  3.85699E-001	  4.81617E-001
  6.00000E-004	  6.59206E-001	  6.10947E-001	  6.40468E-001	  5.16561E-001
  6.50000E-004	  4.52695E-001	  4.70309E-001	  5.16191E-001	  5.30538E-001
  7.00000E-004	  4.81180E-001	  5.27843E-001	  3.60843E-001	  5.65482E-001
  7.50000E-004	  4.31332E-001	  3.93597E-001	  5.16191E-001	  5.79459E-001
  8.00000E-004	  3.13834E-001	  4.63915E-001	  4.16767E-001	  5.16559E-001
  9.00000E-004	  4.27770E-001	  3.61633E-001	  5.56580E-001	  4.15222E-001
  1.00000E-003	  5.23905E-001	  3.96792E-001	  5.53473E-001	  4.36189E-001
  1.10000E-003	  3.45878E-001	  3.96792E-001	  5.09975E-001	  4.46672E-001
  1.20000E-003	  4.27770E-001	  5.37430E-001	  3.42200E-001	  4.74627E-001
  1.30000E-003	  3.17394E-001	  5.08663E-001	  2.92489E-001	  4.25706E-001
  1.40000E-003	  4.66936E-001	  4.12774E-001	  4.72692E-001	  4.15222E-001
  1.50000E-003	  5.06102E-001	  4.67111E-001	  5.13082E-001	  5.37526E-001
  1.60000E-003	  4.88297E-001	  4.87885E-001	  4.18318E-001	  6.09189E-001
  1.80000E-003	  4.20647E-001	  5.07063E-001	  4.22978E-001	  4.13500E-001
  2.00000E-003	  4.13526E-001	  3.99986E-001	  4.41620E-001	  4.20489E-001
  2.20000E-003	  4.09965E-001	  5.00670E-001	  4.40067E-001	  5.88222E-001
  2.40000E-003	  4.34889E-001	  4.17566E-001	  4.77350E-001	  5.04355E-001
  2.60000E-003	  5.02539E-001	  4.57520E-001	  5.20847E-001	  4.86912E-001
  2.80000E-003	  5.41705E-001	  4.62314E-001	  4.97545E-001	  3.96055E-001
  3.00000E-003	  4.27768E-001	  3.82406E-001	  4.05890E-001	  4.13527E-001
  3.20000E-003	  4.42895E-001	  3.94388E-001	  4.24527E-001	  4.15297E-001
  3.60000E-003	  4.26873E-001	  4.41533E-001	  5.02200E-001	  4.61600E-001
  4.00000E-003	  4.94523E-001	  4.75095E-001	  3.97341E-001	  3.82072E-001
  4.40000E-003	  3.99279E-001	  4.16762E-001	  5.15405E-001	  4.65940E-001
  4.80000E-003	  3.58333E-001	  4.30346E-001	  4.83559E-001	  4.16143E-001
  5.20000E-003	  3.88598E-001	  4.77492E-001	  4.51713E-001	  4.79918E-001
  5.60000E-003	  3.61004E-001	  4.42332E-001	  4.40838E-001	  3.78578E-001
  6.00000E-003	  3.66344E-001	  4.79889E-001	  4.26081E-001	  4.09154E-001
  6.40000E-003	  3.88143E-001	  4.17551E-001	  4.06264E-001	  4.25334E-001
  7.20000E-003	  3.94374E-001	  4.13556E-001	  3.63156E-001	  4.09199E-001
  8.00000E-003	  3.69005E-001	  4.33133E-001	  4.14808E-001	  3.80369E-001
  8.80000E-003	  4.21968E-001	  3.58420E-001	  3.65486E-001	  3.92163E-001
  9.60000E-003	  4.07726E-001	  3.74402E-001	  3.76749E-001	  3.68137E-001
  1.04000E-002	  3.46307E-001	  3.62416E-001	  4.03934E-001	  3.83400E-001
  1.12000E-002	  4.23303E-001	  3.65612E-001	  4.24517E-001	  3.71169E-001
  1.20000E-002	  3.67670E-001	  4.13956E-001	  4.04711E-001	  4.07861E-001
  1.28000E-002	  3.22479E-001	  3.90564E-001	  3.66658E-001	  3.74095E-001
  1.44000E-002	  3.52520E-001	  3.73184E-001	  3.90930E-001	  3.33032E-001
  1.60000E-002	  3.44064E-001	  3.40423E-001	  3.93649E-001	  3.62300E-001
  1.76000E-002	  3.43645E-001	  3.47415E-001	  3.95202E-001	  3.66450E-001
  1.92000E-002	  2.97136E-001	  3.40623E-001	  3.65881E-001	  3.71911E-001
  2.08000E-002	  3.54994E-001	  3.15652E-001	  3.55395E-001	  3.52690E-001
  2.24000E-002	  3.23172E-001	  3.30484E-001	  3.47239E-001	  3.31721E-001
  2.40000E-002	  2.64003E-001	  2.97146E-001	  3.25879E-001	  3.05049E-001
  2.56000E-002	  3.06695E-001	  2.92811E-001	  3.27129E-001	  3.15321E-001
  2.88000E-002	  2.96570E-001	  2.98604E-001	  3.19095E-001	  3.16060E-001
  3.20000E-002	  2.73315E-001	  3.00402E-001	  3.12104E-001	  2.79994E-001
  3.52000E-002	  2.71424E-001	  2.80371E-001	  2.78122E-001	  2.67325E-001
  3.84000E-002	  2.60322E-001	  2.71680E-001	  2.97443E-001	  2.82834E-001
  4.16000E-002	  2.49529E-001	  2.64887E-001	  2.68413E-001	  2.69837E-001
  4.48000E-002	  2.30725E-001	  2.51747E-001	  2.70160E-001	  2.52691E-001
  4.80000E-002	  2.25273E-001	  2.48850E-001	  2.47247E-001	  2.35762E-001
  5.12000E-002	  1.99463E-001	  2.31882E-001	  2.34188E-001	  2.26148E-001
  5.76000E-002	  2.15486E-001	  2.18089E-001	  2.24236E-001	  2.12332E-001
  6.40000E-002	  1.99908E-001	  2.04778E-001	  2.00320E-001	  1.99726E-001
  7.04000E-002	  1.75763E-001	  1.78958E-001	  2.05417E-001	  1.81127E-001
  7.68000E-002	  1.55457E-001	  1.78908E-001	  1.85027E-001	  1.62593E-001
  8.32000E-002	  1.51173E-001	  1.64971E-001	  1.70948E-001	  1.70739E-001
  8.96000E-002	  1.45832E-001	  1.52233E-001	  1.41256E-001	  1.47040E-001
  9.60000E-002	  1.17014E-001	  1.24829E-001	  1.41929E-001	  1.29949E-001
  1.02400E-001	  1.17746E-001	  1.06937E-001	  1.29905E-001	  1.20810E-001
  1.15200E-001	  9.67854E-002	  1.05768E-001	  1.18682E-001	  1.03439E-001
  1.28000E-001	  7.89553E-002	  9.62242E-002	  9.95467E-002	  9.24634E-002
  1.40800E-001	  6.38790E-002	  8.92490E-002	  8.03092E-002	  8.57403E-002
  1.53600E-001	  5.59163E-002	  7.91257E-002	  7.57791E-002	  7.25459E-002
  1.66400E-001	  5.88092E-002	  6.38302E-002	  6.82960E-002	  6.52351E-002
  1.79200E-001	  4.75714E-002	  6.53596E-002	  5.55295E-002	  5.10987E-002
  1.92000E-001	  4.28147E-002	  4.61798E-002	  4.94871E-002	  4.26492E-002
  2.04800E-001	  3.76547E-002	  4.12062E-002	  4.48401E-002	  3.71748E-002
  2.30400E-001	  2.85839E-002	  2.72664E-002	  3.60659E-002	  3.31946E-002
  2.56000E-001	  2.43552E-002	  2.65845E-002	  2.29277E-002	  3.01824E-002
  2.81600E-001	  1.24783E-002	  2.10866E-002	  2.31170E-002	  2.87202E-002
  3.07200E-001	  6.98971E-003	  2.26236E-002	  1.30193E-002	  1.87847E-002
  3.32800E-001	  1.58714E-003	  1.34335E-002	  8.44716E-003	  2.04488E-002
  3.58400E-001	  7.47656E-003	  1.05908E-002	  4.87655E-003	  1.94657E-002
  3.84000E-001	  2.25758E-003	  5.39312E-003	  9.19420E-003	  1.65103E-002
  4.09600E-001	 -3.04163E-003	  1.51218E-003	  5.32836E-003	  1.29560E-002
  4.60800E-001	  3.44729E-003	  2.32963E-003	 -7.18131E-003	  9.72381E-003
  5.12000E-001	  4.39181E-003	  4.28339E-003	 -8.30465E-003	  3.51149E-003
  5.63200E-001	  2.62504E-003	  3.53199E-003	 -1.06735E-002	 -5.98768E-003
  6.14400E-001	 -3.85913E-003	 -6.59145E-004	 -1.23195E-002	  1.66083E-003
  6.65600E-001	 -8.95297E-003	  6.90277E-003	 -5.31501E-003	  1.16712E-002
  7.16800E-001	  7.21303E-003	  8.42891E-003	 -6.90660E-003	  8.33961E-003
  7.68000E-001	  3.29446E-003	  2.66930E-003	 -8.94750E-003	 -1.86719E-004
  8.19200E-001	  7.11728E-003	  1.69822E-003	 -7.88582E-003	  4.10912E-004
  9.21600E-001	  7.83054E-003	 -8.15474E-004	 -5.71348E-003	  4.36036E-003
  1.02400E+000	  5.46460E-003	 -8.68325E-004	 -6.42315E-003	  7.46947E-003
  1.12640E+000	  7.76975E-003	  1.52446E-003	  3.90928E-005	  4.58576E-003
  1.22880E+000	  3.04388E-003	 -3.86471E-003	  2.05539E-003	  6.37633E-003
  1.33120E+000	 -1.09030E-003	  8.18513E-004	  5.42413E-003	  8.96434E-003
  1.43360E+000	  7.03076E-003	 -3.03672E-003	  4.77047E-003	  7.15044E-003
  1.53600E+000	 -4.29500E-003	 -2.79228E-003	  1.48082E-003	  4.12925E-003
  1.63840E+000	  5.95031E-003	 -7.63864E-003	  2.12813E-003	  6.68059E-003
  1.84320E+000	  3.98978E-003	 -1.23183E-005	 -9.80776E-003	 -2.52478E-003
  2.04800E+000	 -9.84979E-007	  9.19358E-003	  4.30986E-003	 -9.44402E-003
  2.25280E+000	 -9.23414E-004	  6.31858E-003	  9.09683E-003	 -1.36499E-003
  2.45760E+000	 -5.34013E-003	  1.48746E-003	  4.73166E-003	  3.22610E-003
  2.66240E+000	 -8.06674E-003	 -2.50307E-003	  1.05475E-002	 -2.45712E-003
  2.86720E+000	 -7.96377E-003	  3.46361E-003	  3.20428E-003	  5.10447E-003
  3.07200E+000	 -3.37158E-003	  9.17112E-003	  7.40334E-003	  1.24311E-003
  3.27680E+000	  2.94917E-003	 -4.43328E-004	 -2.25732E-003	  1.39556E-004
  3.68640E+000	 -1.97719E-003	 -3.04420E-003	  3.56905E-003	  5.17919E-003
  4.09600E+000	 -4.47312E-003	 -2.58855E-003	  2.15065E-003	  5.57089E-003
  4.50560E+000	 -4.73555E-003	  2.67044E-003	 -1.22984E-003	 -7.85293E-003
  4.91520E+000	  1.28272E-003	  6.55432E-003	  4.20913E-003	 -1.22922E-002
  5.32480E+000	  1.00573E-003	 -8.22644E-004	 -3.16791E-003	 -6.68265E-003
  5.73440E+000	  1.59939E-003	  5.01206E-004	 -1.73559E-003	 -2.88063E-003
  6.14400E+000	  2.43553E-003	 -2.51078E-003	  4.37205E-003	 -3.49334E-003
  6.55360E+000	  4.32581E-005	 -1.45126E-004	  5.96933E-004	 -1.50750E-003
  7.37280E+000	  3.71580E-003	 -2.51652E-003	 -1.30329E-003	 -4.20715E-003
  8.19200E+000	 -8.06342E-004	 -2.50263E-003	  1.16326E-003	  9.96972E-004
  9.01120E+000	  3.29941E-004	  1.46480E-003	  4.17395E-003	 -5.27255E-003
  9.83040E+000	 -3.17104E-003	  3.70160E-003	  1.50836E-003	 -3.26026E-003
  1.06496E+001	  5.05607E-003	  1.16189E-003	  9.06279E-004	  6.82816E-003
  1.14688E+001	  3.13286E-004	  2.44431E-003	  1.92255E-003	  3.39397E-003
  1.22880E+001	  1.83115E-003	  4.53095E-003	  1.30038E-003	 -2.38161E-003
  1.31072E+001	 -1.86571E-003	  6.84755E-004	 -1.42616E-004	 -2.21546E-003
  1.47456E+001	 -2.13782E-003	  1.26133E-003	 -1.69572E-003	  1.76387E-004
  1.63840E+001	 -1.93456E-003	 -2.41843E-003	  5.20715E-004	 -1.42380E-003
  1.80224E+001	 -1.63736E-003	  3.11200E-003	  4.57152E-004	 -3.77734E-003
  1.96608E+001	 -1.41956E-003	 -3.40293E-004	  1.88069E-003	 -1.15994E-003
  2.12992E+001	  2.33310E-003	  2.29458E-003	 -1.00048E-003	  2.18994E-003
  2.29376E+001	  4.10113E-003	  8.39780E-004	 -4.71427E-003	  3.13346E-003
  2.45760E+001	  1.11397E-003	 -1.51737E-003	 -9.99167E-004	  2.88994E-003
  2.62144E+001	  7.42528E-004	 -1.24325E-003	 -7.36781E-004	 -1.17176E-003
  2.94912E+001	  4.21145E-003	  1.25532E-003	 -2.73272E-003	 -3.47681E-003
  3.27680E+001	  2.11510E-003	 -1.94526E-003	 -9.83812E-004	  6.97578E-004
  3.60448E+001	  7.92615E-005	 -1.30776E-003	 -8.12676E-004	  8.58012E-004
  3.93216E+001	 -1.75693E-003	  2.47785E-004	 -8.98516E-004	  2.13326E-003
  4.25984E+001	 -1.17455E-003	 -5.15441E-004	  3.25101E-004	 -6.29863E-004
  4.58752E+001	 -3.33259E-004	  1.33175E-004	 -4.42769E-004	 -2.05656E-004
  4.91520E+001	 -1.07306E-003	  4.26080E-004	 -4.38134E-004	  2.46144E-003
  5.24288E+001	 -1.21903E-004	 -3.83540E-004	 -3.62176E-004	 -1.59721E-003
  5.89824E+001	  5.14010E-004	  3.15411E-004	  2.06656E-004	 -1.29561E-003
  6.55360E+001	  9.57905E-004	 -8.44675E-005	  4.14899E-004	  4.30315E-004
  7.20896E+001	  1.41958E-003	  1.77850E-003	 -1.02087E-003	  2.39373E-003
  7.86432E+001	 -6.23667E-004	 -1.01913E-004	  1.17708E-004	 -1.65661E-003
  8.51968E+001	 -8.65719E-004	 -1.01817E-003	  7.17653E-005	 -1.06544E-003
  9.17504E+001	 -1.33802E-003	 -1.73807E-003	  3.76397E-004	  1.05539E-003
  9.83040E+001	  1.96338E-004	 -6.07417E-004	  8.68819E-004	  3.60525E-003
  1.04858E+002	  6.81159E-004	  9.49713E-005	  2.86147E-004	  9.49302E-005
  1.17965E+002	 -2.32540E-003	 -1.34118E-003	  1.45990E-004	 -9.71654E-004
  1.31072E+002	  2.20237E-003	  8.74446E-005	 -1.79157E-003	 -6.81300E-004
  1.44179E+002	 -1.56504E-003	  2.12709E-005	  1.53701E-003	  1.97304E-003
  1.57286E+002	  2.33528E-003	 -4.46919E-004	  2.45279E-004	 -7.25533E-004
  1.70394E+002	 -4.22772E-004	 -6.42079E-004	  9.31088E-004	  6.51116E-004
  1.83501E+002	  1.03054E-003	 -2.08560E-003	  1.37065E-003	  4.69055E-004
  1.96608E+002	 -3.90960E-004	 -6.25593E-006	 -1.05815E-003	 -1.18709E-003
  2.09715E+002	 -5.53548E-005	  7.26510E-004	 -1.57136E-003	  2.78117E-004
  2.35930E+002	  7.77001E-004	 -9.35150E-004	 -1.04465E-003	  2.20446E-003
  2.62144E+002	 -7.79330E-004	 -4.56986E-005	  9.97159E-004	 -4.52452E-004
  2.88358E+002	 -2.73872E-004	  1.94318E-003	  1.19740E-003	 -3.55467E-004
  3.14573E+002	 -5.40025E-004	 -1.10535E-004	 -4.55312E-006	  8.76852E-004
  3.40787E+002	 -4.12953E-004	  2.34815E-004	  3.75627E-004	 -5.75891E-004
  3.67002E+002	  1.54265E-004	  3.66387E-004	 -9.18263E-004	 -2.86555E-004
  3.93216E+002	 -3.46892E-004	 -3.98729E-004	  5.36900E-006	  4.42250E-004

"Count Rate"
       0.01311	      46.15784	      55.84717	      54.32129	      49.20959
       0.02621	      51.57471	      64.46838	      49.28589	      48.29407
       0.03932	      49.36218	      59.05151	      56.30493	      53.93982
       0.05243	      57.83081	      58.59375	      60.50110	      47.37854
       0.06554	      53.63464	      62.86621	      59.12781	      49.81995
       0.07864	      54.32129	      57.37305	      60.95886	      56.38123
       0.09175	      58.67004	      58.82263	      55.84717	      55.84717
       0.10486	      57.06787	      55.92346	      50.96436	      61.26404
       0.11796	      60.19592	      53.86353	      53.93982	      45.31860
       0.13107	      67.74902	      55.84717	      64.23950	      52.03247
       0.14418	      54.24500	      55.38940	      65.91797	      58.36487
       0.15729	      64.92615	      62.17957	      50.65918	      49.74365
       0.17039	      48.59924	      47.45483	      55.61829	      51.72729
       0.18350	      56.30493	      52.26135	      59.12781	      58.44116
       0.19661	      54.62646	      53.55835	      60.04333	      50.73547
       0.20972	      54.47388	      65.30762	      56.68640	      56.30493
       0.22282	      52.64282	      55.08423	      48.75183	      45.39490
       0.23593	      53.86353	      47.45483	      61.49292	      57.29675
       0.24904	      52.94800	      55.46570	      53.78723	      55.08423
       0.26214	      61.64551	      48.21777	      58.44116	      52.56653
       0.27525	      52.71912	      50.12512	      56.91528	      51.19324
       0.28836	      51.87988	      63.85803	      60.34851	      51.34583
       0.30147	      54.32129	      61.03516	      51.49841	      52.87170
       0.31457	      48.82813	      62.94250	      69.19861	      49.05701
       0.32768	      55.54199	      56.07605	      65.61279	      64.01062
       0.34079	      56.53381	      50.81177	      62.71362	      46.76819
       0.35389	      51.49841	      66.60461	      63.09509	      60.88257
       0.36700	      56.83899	      59.73816	      42.41943	      55.00793
       0.38011	      51.26953	      57.37305	      58.74634	      51.80359
       0.39322	      61.56921	      60.88257	      60.34851	      57.90710
       0.40632	      49.36218	      60.80627	      64.84985	      55.92346
       0.41943	      57.67822	      64.16321	      63.24768	      63.85803
       0.43254	      57.37305	      56.53381	      58.74634	      54.47388
       0.44564	      46.38672	      60.88257	      54.55017	      49.13330
       0.45875	      56.38123	      55.61829	      63.24768	      56.91528
       0.47186	      48.21777	      51.72729	      56.83899	      53.71094
       0.48497	      49.05701	      53.32947	      55.08423	      52.87170
       0.49807	      57.60193	      56.07605	      66.37573	      57.90710
       0.51118	      43.18237	      51.95618	      58.89893	      53.25317
       0.52429	      58.51746	      59.50928	      48.90442	      53.63464
       0.53740	      43.64014	      47.37854	      52.56653	      52.94800
       0.55050	      63.62915	      56.76270	      49.66736	      47.45483
       0.56361	      53.32947	      56.15234	      55.46570	      67.97791
       0.57672	      58.67004	      68.58826	      67.29126	      52.87170
       0.58982	      48.14148	      65.99426	      59.89075	      55.69458
       0.60293	      54.16870	      48.44666	      56.22864	      65.00244
       0.61604	      57.98340	      52.71912	      60.88257	      53.78723
       0.62915	      56.53381	      58.13599	      54.01611	      53.40576
       0.64225	      51.42212	      56.45752	      55.54199	      57.44934
       0.65536	      49.36218	      56.07605	      50.04883	      58.74634
       0.66847	      45.31860	      54.85535	      58.89893	      46.92078
       0.68157	      54.77905	      54.39758	      63.85803	      53.40576
       0.69468	      48.29407	      64.39209	      49.13330	      59.81445
       0.70779	      56.30493	      61.79810	      57.98340	      56.83899
       0.72090	      58.36487	      57.22046	      59.89075	      58.13599
       0.73400	      52.56653	      54.77905	      65.91797	      58.05969
       0.74711	      51.11694	      59.50928	      57.44934	      56.68640
