ALV-7004/USB-FAST
Date :	"11/11/2025"
Time :	"3:54:26 PM"
Samplename : 	""
SampMemo(0) : 	""
SampMemo(1) : 	""
SampMemo(2) : 	""
SampMemo(3) : 	""
SampMemo(4) : 	""
SampMemo(5) : 	""
SampMemo(6) : 	""
SampMemo(7) : 	""
SampMemo(8) : 	""
SampMemo(9) : 	""
Temperature [K] :	     298.16000
Viscosity [cp]  :	       0.89000
Refractive Index:	       1.33200
Wavelength [nm] :	       0.00000
Angle [°]       :	       0.00000
Duration [s]    :	         1
FloatDur [ms]   :	          944
Stop TP [ms]   :	     60528
Runs            :	         1
Mode            :	"A-CH0+1  A-CH2+3 "
MeanCR0 [kHz]   :	      55.59391
MeanCR1 [kHz]   :	      55.08423
MeanCR2 [kHz]   :	      55.03866
MeanCR3 [kHz]   :	      52.49129

"Correlation"
  3.12500E-006	 -1.00000E+000	 -1.00000E+000	 -1.00000E+000	 -1.00000E+000
  6.25000E-006	 -1.00000E+000	 -1.00000E+000	 -1.00000E+000	 -1.00000E+000
  9.37500E-006	 -1.00000E+000	 -1.00000E+000	 -1.00000E+000	 -1.00000E+000
  1.25000E-005	 -1.00000E+000	 -1.00000E+000	 -1.00000E+000	 -1.00000E+000
  1.56250E-005	 -1.00000E+000	 -1.00000E+000	 -1.00000E+000	 -1.00000E+000
  1.87500E-005	 -1.00000E+000	 -1.00000E+000	 -1.00000E+000	 -1.00000E+000
  2.18750E-005	 -8.90288E-001	  8.99774E-001	  5.67111E-001	 -8.76935E-001
  2.50000E-005	  1.12877E+001	  1.34159E+001	  1.01937E+001	  3.00123E+001
  2.81250E-005	  3.82732E+000	  7.88022E-001	  1.79841E+000	  8.59904E+000
  3.12500E-005	  1.85250E+000	  5.64520E-001	  1.46260E+000	  5.76855E+000
  3.43750E-005	  8.65099E-001	  1.12328E+000	  1.35067E+000	  2.44581E+000
  3.75000E-005	  6.45676E-001	  4.52768E-001	  1.12679E+000	  3.67645E+000
  4.06250E-005	  1.08452E+000	  1.34678E+000	  7.90984E-001	  2.69194E+000
  4.37500E-005	  2.06829E-001	  4.52768E-001	  1.35067E+000	  3.67645E+000
  4.68750E-005	  5.35964E-001	  5.64520E-001	  1.46260E+000	  3.55339E+000
  5.00000E-005	  8.10243E-001	  7.32147E-001	  1.23873E+000	  2.38427E+000
  5.62500E-005	  5.90820E-001	  6.20395E-001	  4.55175E-001	  1.89202E+000
  6.25000E-005	  1.08452E+000	  8.43898E-001	  7.35016E-001	  1.64589E+000
  6.87500E-005	  4.81108E-001	  6.20395E-001	  5.11143E-001	  1.03057E+000
  7.50000E-005	  3.16541E-001	  5.08644E-001	  7.90984E-001	  9.69033E-001
  8.12500E-005	  3.71396E-001	  4.52768E-001	  2.31302E-001	  1.52282E+000
  8.75000E-005	  5.90820E-001	  1.17514E-001	  9.02921E-001	  5.38307E-001
  9.37500E-005	  6.45676E-001	  1.12328E+000	  2.87270E-001	  5.99839E-001
  1.00000E-004	  6.18248E-001	  7.32147E-001	  7.07031E-001	  8.15202E-001
  1.12500E-004	  7.55387E-001	  5.08644E-001	  3.15254E-001	  5.69073E-001
  1.25000E-004	  2.34257E-001	  4.80706E-001	  3.99206E-001	  7.22903E-001
  1.37500E-004	  2.61685E-001	  3.13079E-001	  3.15254E-001	  1.99879E-001
  1.50000E-004	  5.08536E-001	  7.60084E-001	  3.15254E-001	  5.07541E-001
  1.62500E-004	  4.81108E-001	  6.20395E-001	  2.03317E-001	  6.61371E-001
  1.75000E-004	  5.90820E-001	  5.36582E-001	  3.99206E-001	  4.15242E-001
  1.87500E-004	  6.73103E-001	  5.64519E-001	  8.46952E-001	  5.69073E-001
  2.00000E-004	  4.81108E-001	  4.24830E-001	  3.71222E-001	  4.30625E-001
  2.25000E-004	  7.55387E-001	  4.24830E-001	  4.27190E-001	  8.30585E-001
  2.50000E-004	  5.35964E-001	  6.90239E-001	  3.57230E-001	  4.61391E-001
  2.75000E-004	  6.31961E-001	  8.71835E-001	  5.11142E-001	  5.99839E-001
  3.00000E-004	  3.98824E-001	  6.48333E-001	  3.71222E-001	  6.76754E-001
  3.25000E-004	  4.67394E-001	  1.87358E-001	  3.15254E-001	  2.92177E-001
  3.50000E-004	  3.57682E-001	  4.66737E-001	  4.13198E-001	  3.99859E-001
  3.75000E-004	  4.39966E-001	  5.92457E-001	  4.83158E-001	  5.84455E-001
  4.00000E-004	  7.27958E-001	  3.61969E-001	  5.81102E-001	  5.38306E-001
  4.50000E-004	  5.35963E-001	  4.80705E-001	  5.46122E-001	  7.15211E-001
  5.00000E-004	  6.18247E-001	  4.10860E-001	  5.67110E-001	  4.30624E-001
  5.50000E-004	  5.83962E-001	  5.99441E-001	  4.97150E-001	  2.46028E-001
  6.00000E-004	  5.22249E-001	  3.48000E-001	  4.20193E-001	  3.76784E-001
  6.50000E-004	  5.08535E-001	  4.87689E-001	  4.27189E-001	  3.84475E-001
  7.00000E-004	  4.53679E-001	  4.87689E-001	  4.34185E-001	  4.84465E-001
  7.50000E-004	  5.77105E-001	  4.31814E-001	  6.37070E-001	  3.38326E-001
  8.00000E-004	  6.21674E-001	  4.24828E-001	  5.25132E-001	  5.22921E-001
  9.00000E-004	  5.32533E-001	  5.54040E-001	  3.81714E-001	  4.38315E-001
  1.00000E-003	  4.70820E-001	  3.93398E-001	  4.90152E-001	  5.38304E-001
  1.10000E-003	  5.08534E-001	  5.64517E-001	  5.95093E-001	  5.26767E-001
  1.20000E-003	  4.84534E-001	  5.12134E-001	  3.50232E-001	  5.38304E-001
  1.30000E-003	  4.33107E-001	  4.38797E-001	  4.34184E-001	  4.03703E-001
  1.40000E-003	  4.36535E-001	  3.82921E-001	  4.93650E-001	  4.99847E-001
  1.50000E-003	  4.02251E-001	  5.71502E-001	  5.21634E-001	  5.11384E-001
  1.60000E-003	  4.39962E-001	  5.06893E-001	  4.95397E-001	  6.32523E-001
  1.80000E-003	  5.49673E-001	  4.14349E-001	  4.02700E-001	  4.94076E-001
  2.00000E-003	  4.84532E-001	  4.89432E-001	  4.62166E-001	  4.61387E-001
  2.20000E-003	  4.46818E-001	  4.66732E-001	  4.07947E-001	  5.44070E-001
  2.40000E-003	  4.79389E-001	  5.15623E-001	  3.93955E-001	  5.19073E-001
  2.60000E-003	  4.39962E-001	  4.31810E-001	  5.37373E-001	  3.86394E-001
  2.80000E-003	  4.46818E-001	  4.98162E-001	  5.16385E-001	  4.80615E-001
  3.00000E-003	  5.46244E-001	  4.61494E-001	  4.39429E-001	  5.17150E-001
  3.20000E-003	  4.74241E-001	  4.41409E-001	  4.77902E-001	  5.39258E-001
  3.60000E-003	  4.45127E-001	  5.48794E-001	  4.88396E-001	  4.34462E-001
  4.00000E-003	  4.71698E-001	  4.56251E-001	  5.02388E-001	  5.59448E-001
  4.40000E-003	  4.87984E-001	  5.12999E-001	  4.50792E-001	  4.70035E-001
  4.80000E-003	  4.56270E-001	  5.00776E-001	  5.16380E-001	  5.23875E-001
  5.20000E-003	  4.75984E-001	  3.89026E-001	  4.58663E-001	  4.36384E-001
  5.60000E-003	  4.59698E-001	  4.10852E-001	  4.37675E-001	  5.45988E-001
  6.00000E-003	  4.75984E-001	  4.53632E-001	  4.51667E-001	  5.40219E-001
  6.40000E-003	  4.80259E-001	  4.62789E-001	  4.46847E-001	  4.79699E-001
  7.20000E-003	  4.00546E-001	  4.66717E-001	  4.92758E-001	  4.76814E-001
  8.00000E-003	  4.77259E-001	  4.53185E-001	  4.98442E-001	  4.97486E-001
  8.80000E-003	  5.17544E-001	  4.71519E-001	  4.80953E-001	  4.60469E-001
  9.60000E-003	  4.53688E-001	  4.65408E-001	  4.73957E-001	  4.84987E-001
  1.04000E-002	  4.32689E-001	  4.51876E-001	  4.98005E-001	  4.95563E-001
  1.12000E-002	  4.38260E-001	  5.21283E-001	  4.66523E-001	  4.91236E-001
  1.20000E-002	  4.63545E-001	  4.54931E-001	  4.85762E-001	  4.64345E-001
  1.28000E-002	  4.40653E-001	  4.92889E-001	  4.92577E-001	  4.65645E-001
  1.44000E-002	  4.81610E-001	  4.72590E-001	  4.44506E-001	  4.90886E-001
  1.60000E-002	  4.69423E-001	  4.45526E-001	  4.60466E-001	  4.71144E-001
  1.76000E-002	  4.56994E-001	  4.31776E-001	  4.48879E-001	  5.02394E-001
  1.92000E-002	  4.31278E-001	  4.66916E-001	  4.80609E-001	  4.87701E-001
  2.08000E-002	  4.64280E-001	  4.53384E-001	  4.68584E-001	  4.79768E-001
  2.24000E-002	  4.38136E-001	  4.54038E-001	  4.59183E-001	  4.68230E-001
  2.40000E-002	  4.46922E-001	  4.40070E-001	  4.26606E-001	  4.54529E-001
  2.56000E-002	  4.50073E-001	  4.55991E-001	  4.46437E-001	  4.74589E-001
  2.88000E-002	  4.45573E-001	  4.61803E-001	  4.54717E-001	  4.59473E-001
  3.20000E-002	  4.42358E-001	  4.49581E-001	  4.65321E-001	  4.48655E-001
  3.52000E-002	  4.36465E-001	  4.51436E-001	  4.41052E-001	  4.75550E-001
  3.84000E-002	  4.42009E-001	  4.54601E-001	  4.54061E-001	  4.68549E-001
  4.16000E-002	  4.34937E-001	  4.43906E-001	  4.38101E-001	  4.51332E-001
  4.48000E-002	  4.19642E-001	  4.48817E-001	  4.53215E-001	  4.61759E-001
  4.80000E-002	  4.25214E-001	  4.33648E-001	  4.27852E-001	  4.39644E-001
  5.12000E-002	  4.17907E-001	  4.39928E-001	  4.30591E-001	  4.50888E-001
  5.76000E-002	  4.29748E-001	  4.34798E-001	  4.20341E-001	  4.39801E-001
  6.40000E-002	  4.38268E-001	  4.17365E-001	  4.15312E-001	  4.58251E-001
  7.04000E-002	  4.23265E-001	  4.14800E-001	  4.19221E-001	  4.38178E-001
  7.68000E-002	  3.98670E-001	  4.07216E-001	  4.19767E-001	  4.30783E-001
  8.32000E-002	  3.90526E-001	  3.99631E-001	  4.04188E-001	  4.37274E-001
  8.96000E-002	  3.91169E-001	  4.09780E-001	  3.96071E-001	  4.19516E-001
  9.60000E-002	  3.73513E-001	  3.87027E-001	  3.83963E-001	  4.07138E-001
  1.02400E-001	  3.74641E-001	  3.77700E-001	  3.78473E-001	  4.00296E-001
  1.15200E-001	  3.63494E-001	  3.56579E-001	  3.68140E-001	  3.82533E-001
  1.28000E-001	  3.35195E-001	  3.51039E-001	  3.46983E-001	  3.56149E-001
  1.40800E-001	  3.36268E-001	  3.28391E-001	  3.35499E-001	  3.50982E-001
  1.53600E-001	  3.09230E-001	  3.24384E-001	  3.19040E-001	  3.34694E-001
  1.66400E-001	  3.03840E-001	  3.05995E-001	  3.14967E-001	  3.12452E-001
  1.79200E-001	  2.92797E-001	  2.90440E-001	  2.93040E-001	  3.09894E-001
  1.92000E-001	  2.80872E-001	  2.82142E-001	  2.91512E-001	  2.92321E-001
  2.04800E-001	  2.67818E-001	  2.73010E-001	  2.70438E-001	  2.74588E-001
  2.30400E-001	  2.49728E-001	  2.40172E-001	  2.38895E-001	  2.39747E-001
  2.56000E-001	  2.25883E-001	  2.20018E-001	  2.31475E-001	  2.11311E-001
  2.81600E-001	  2.03721E-001	  2.03388E-001	  2.06932E-001	  1.94944E-001
  3.07200E-001	  1.82790E-001	  1.79856E-001	  1.88855E-001	  1.71536E-001
  3.32800E-001	  1.69307E-001	  1.65820E-001	  1.81091E-001	  1.52843E-001
  3.58400E-001	  1.61314E-001	  1.54554E-001	  1.59043E-001	  1.38319E-001
  3.84000E-001	  1.53701E-001	  1.36516E-001	  1.46541E-001	  1.19311E-001
  4.09600E-001	  1.35825E-001	  1.21584E-001	  1.45684E-001	  1.05257E-001
  4.60800E-001	  1.25251E-001	  1.00170E-001	  1.30063E-001	  8.29803E-002
  5.12000E-001	  1.05867E-001	  8.89246E-002	  1.09967E-001	  6.33461E-002
  5.63200E-001	  9.52589E-002	  6.97079E-002	  9.97639E-002	  5.08272E-002
  6.14400E-001	  8.12285E-002	  5.59836E-002	  8.96300E-002	  4.14862E-002
  6.65600E-001	  8.07056E-002	  5.27286E-002	  7.60497E-002	  3.97129E-002
  7.16800E-001	  7.21305E-002	  4.72504E-002	  7.48797E-002	  2.78146E-002
  7.68000E-001	  6.39848E-002	  4.27941E-002	  6.82348E-002	  2.17643E-002
  8.19200E-001	  6.21249E-002	  4.02499E-002	  6.45755E-002	  1.99059E-002
  9.21600E-001	  5.84629E-002	  3.30963E-002	  5.90069E-002	  1.38080E-002
  1.02400E+000	  5.09861E-002	  3.20428E-002	  5.85230E-002	  1.87069E-002
  1.12640E+000	  4.64672E-002	  2.43518E-002	  4.91126E-002	  2.13138E-002
  1.22880E+000	  3.43775E-002	  2.44858E-002	  4.58419E-002	  2.29005E-002
  1.33120E+000	  2.80899E-002	  1.52966E-002	  3.91504E-002	  2.63672E-002
  1.43360E+000	  3.08373E-002	  1.14445E-002	  3.64553E-002	  2.98998E-002
  1.53600E+000	  3.01028E-002	  1.08886E-002	  3.71373E-002	  3.09379E-002
  1.63840E+000	  3.31039E-002	  8.38165E-003	  3.57740E-002	  2.22327E-002
  1.84320E+000	  1.86568E-002	 -3.47630E-003	  3.45039E-002	  7.55499E-003
  2.04800E+000	  1.85484E-002	 -1.00498E-002	  2.64572E-002	 -4.38257E-003
  2.25280E+000	  2.03480E-002	 -5.75448E-003	  1.72106E-002	 -3.47170E-003
  2.45760E+000	  9.78122E-003	 -1.72128E-003	  3.07552E-003	 -1.01124E-004
  2.66240E+000	 -3.87639E-005	 -1.28998E-003	  2.79079E-003	  5.97798E-003
  2.86720E+000	  1.52683E-004	  3.77940E-003	  3.23676E-003	  1.84494E-002
  3.07200E+000	  5.05635E-003	  1.33267E-002	  5.93846E-003	  1.13288E-002
  3.27680E+000	  3.18636E-003	  6.54243E-003	  5.17593E-003	  3.95481E-003
  3.68640E+000	 -2.12637E-003	  3.27965E-003	  6.97442E-003	 -8.38239E-003
  4.09600E+000	 -7.34153E-003	  1.11515E-002	  5.68710E-003	 -1.03377E-002
  4.50560E+000	 -1.03610E-002	  3.54031E-003	  1.12413E-002	 -1.53106E-002
  4.91520E+000	 -4.87501E-004	 -3.81700E-003	  2.39055E-002	 -1.91773E-003
  5.32480E+000	  6.89428E-003	  1.84547E-003	  2.19181E-002	 -7.27957E-003
  5.73440E+000	  8.95631E-003	  1.13789E-002	  2.35788E-002	 -1.09482E-002
  6.14400E+000	  8.84894E-003	  5.38595E-003	  2.89630E-002	  6.03308E-003
  6.55360E+000	  3.69056E-003	 -2.09544E-003	  4.41552E-002	  7.62976E-003
  7.37280E+000	  1.78080E-003	  7.97175E-003	  2.71990E-002	  1.78028E-002
  8.19200E+000	 -1.46709E-002	  1.39505E-002	  1.44534E-003	 -5.45245E-003
  9.01120E+000	 -9.16566E-003	  1.43289E-002	 -3.13818E-003	  1.04105E-002
  9.83040E+000	 -1.36193E-002	 -4.84667E-003	 -4.51440E-003	  6.32327E-003
  1.06496E+001	 -6.23998E-003	 -9.65677E-003	  3.94238E-003	  9.27769E-003
  1.14688E+001	 -5.06545E-003	 -4.01629E-003	  1.11377E-002	 -7.10405E-003
  1.22880E+001	 -1.47767E-002	  1.06922E-003	  1.45776E-002	  3.37088E-004
  1.31072E+001	 -8.87958E-003	  1.24107E-002	  1.30683E-002	 -2.01882E-003
  1.47456E+001	  2.83415E-003	  1.06119E-002	  9.46032E-004	 -1.16344E-003
  1.63840E+001	 -1.13435E-002	  6.43402E-003	 -1.34986E-003	 -8.77362E-003
  1.80224E+001	 -9.04133E-003	 -3.14705E-003	 -1.26866E-005	 -1.15581E-002
  1.96608E+001	 -7.76712E-003	 -1.13001E-002	  4.77574E-004	 -1.70264E-003
  2.12992E+001	  6.95198E-003	  7.11627E-003	 -5.12319E-003	 -5.40615E-003
  2.29376E+001	  1.26157E-002	 -9.17347E-004	  1.26456E-002	 -3.15275E-003
  2.45760E+001	 -3.44507E-003	  6.79401E-003	  7.84902E-003	 -5.31762E-003
  2.62144E+001	 -1.29580E-002	 -8.55813E-004	  2.90889E-003	  2.96259E-003
  2.94912E+001	 -1.83322E-002	  4.64955E-003	  6.53501E-005	  5.20386E-003
  3.27680E+001	 -4.86029E-003	 -1.11537E-003	  5.88974E-003	  9.38025E-003
  3.60448E+001	  7.15981E-003	 -4.05915E-003	  3.66239E-003	 -1.00201E-002
  3.93216E+001	  1.19710E-002	 -1.94683E-003	 -7.92162E-004	  4.75972E-004
  4.25984E+001	 -2.16936E-003	  2.94311E-003	 -6.47372E-003	  7.90411E-003
  4.58752E+001	  2.59140E-003	  3.53673E-003	  3.12587E-003	 -3.26031E-003
  4.91520E+001	  8.67988E-004	  5.01533E-004	 -4.12539E-003	 -3.37813E-003
  5.24288E+001	  3.61840E-003	  1.20287E-003	  2.28949E-003	 -4.93675E-003
  5.89824E+001	  7.24806E-003	 -2.67374E-003	 -4.28414E-003	  1.71310E-003
  6.55360E+001	  9.33350E-003	  1.09217E-002	  4.63279E-003	 -8.48383E-003
  7.20896E+001	 -2.34154E-003	  3.74621E-003	  1.34049E-003	  2.48689E-003
  7.86432E+001	 -5.31859E-003	 -1.74361E-003	 -6.49972E-003	 -7.38522E-003
  8.51968E+001	  5.01512E-003	  2.07455E-003	  1.85341E-003	  1.34537E-003
  9.17504E+001	 -6.82342E-003	 -2.88865E-003	  4.99735E-003	 -3.10067E-003
  9.83040E+001	 -2.02762E-003	 -1.09658E-002	  1.36865E-002	  4.36430E-003
  1.04858E+002	  4.42919E-003	 -3.28952E-003	  8.80701E-003	  1.12559E-003
  1.17965E+002	  1.95132E-003	  2.42000E-003	  7.11491E-003	 -3.43582E-003
  1.31072E+002	  2.52005E-003	  3.98957E-003	  4.00543E-003	 -3.33541E-003
  1.44179E+002	 -4.77705E-003	 -2.51265E-003	 -6.67367E-004	 -4.73168E-003
  1.57286E+002	 -2.77262E-004	 -9.87808E-004	 -1.31861E-003	 -5.35316E-003
  1.70394E+002	 -2.91397E-003	 -5.16202E-003	 -5.84592E-003	 -3.80665E-003
  1.83501E+002	  1.61986E-003	 -3.77995E-003	  2.43597E-003	  1.42843E-003
  1.96608E+002	 -5.03697E-003	 -2.46520E-003	  3.88825E-003	  1.74969E-003
  2.09715E+002	 -4.00614E-003	 -2.32489E-003	  2.42592E-004	  4.61889E-003
  2.35930E+002	 -3.16605E-003	  3.46257E-003	 -7.67897E-004	  3.10584E-003
  2.62144E+002	  4.10087E-004	  4.21153E-004	  1.80205E-003	 -2.47597E-003
  2.88358E+002	 -1.98413E-003	  2.85398E-003	  1.42458E-003	  1.85391E-003
  3.14573E+002	 -3.25047E-003	 -4.22119E-003	  3.26289E-003	  3.18895E-003
  3.40787E+002	  2.83770E-003	 -5.19428E-003	  1.89712E-003	  6.90071E-004
  3.67002E+002	  7.68540E-003	 -1.43497E-003	  3.07017E-003	 -5.43661E-003
  3.93216E+002	 -6.25921E-003	  1.35652E-003	  2.50778E-003	 -3.29568E-004

"Count Rate"
       0.01311	      59.73816	      37.99438	      60.57739	      44.25049
       0.02621	      51.57471	      55.16052	      50.20142	      56.91528
       0.03932	      42.11426	      51.57471	      49.43848	      40.28320
       0.05243	      67.97791	      78.96423	      74.69177	      58.36487
       0.06554	      49.89624	      50.88806	     102.38647	      34.10339
       0.07864	      33.64563	      58.59375	      30.05981	      46.61560
       0.09175	      70.95337	      54.16870	      62.78992	      59.28040
       0.10486	      57.75452	      60.11963	      39.59656	      69.88525
       0.11796	      49.89624	      43.10608	      49.28589	      51.80359
       0.13107	      52.26135	      50.12512	      58.13599	      60.57739
       0.14418	      57.44934	      47.91260	      43.25867	      43.86902
       0.15729	      50.12512	      34.48486	      79.80347	      54.39758
       0.17039	      48.98071	      41.96167	      81.17676	      38.07068
       0.18350	      38.75732	      44.63196	      61.03516	      52.18506
       0.19661	      58.13599	      72.93701	      73.16589	      68.89343
       0.20972	      55.54199	      67.06238	      63.32397	      56.07605
       0.22282	      58.36487	      59.43298	      49.97253	      47.22595
       0.23593	      39.52026	      46.69189	      44.47937	      66.14685
       0.24904	      49.74365	      51.04065	      62.78992	      52.94800
       0.26214	      46.38672	      91.62903	      69.04602	      38.07068
       0.27525	      54.55017	      51.34583	      65.53650	      43.02979
       0.28836	      49.05701	      50.65918	      55.16052	      43.48755
       0.30147	      42.87720	      61.79810	      57.06787	      50.58289
       0.31457	      47.68372	      61.56921	      58.36487	      49.81995
       0.32768	      72.63184	      69.58008	      52.79541	      47.37854
       0.34079	      39.59656	      68.66455	      52.56653	      50.81177
       0.35389	      59.81445	      49.51477	      50.35400	      41.42761
       0.36700	      47.45483	      58.97522	      60.04333	      48.14148
       0.38011	      49.97253	      52.49023	      65.00244	      59.28040
       0.39322	      61.26404	      58.36487	      51.42212	      51.65100
       0.40632	      51.65100	      56.38123	      46.38672	      71.71631
       0.41943	      50.12512	      49.74365	      47.07336	      57.98340
       0.43254	      53.93982	      46.84448	      44.47937	      62.33215
       0.44564	      57.37305	      46.15784	      48.98071	      56.45752
       0.45875	      82.77893	      52.33765	      46.84448	      53.10059
       0.47186	      69.04602	      57.83081	      57.67822	      45.24231
       0.48497	      51.87988	      71.33484	      52.33765	      42.64832
       0.49807	      48.21777	      61.56921	      49.81995	      49.28589
       0.51118	      58.97522	      37.68921	      55.69458	      48.29407
       0.52429	      56.45752	      62.17957	      46.99707	      48.06519
       0.53740	      66.52832	      45.85266	      47.45483	      45.24231
       0.55050	      52.33765	      50.35400	      47.60742	      52.18506
       0.56361	      53.02429	      47.37854	      57.67822	      48.44666
       0.57672	      64.46838	      56.83899	      50.27771	      37.46033
       0.58982	      47.91260	      50.73547	      46.53931	      50.04883
       0.60293	      50.50659	      52.94800	      61.64551	      53.86353
       0.61604	      54.16870	      59.81445	      56.22864	      65.07874
       0.62915	      57.14417	      44.55566	      56.22864	      51.04065
       0.64225	      47.91260	      49.74365	      48.75183	      40.89355
       0.65536	      51.19324	      51.04065	      57.22046	      54.24500
       0.66847	      52.87170	      47.60742	      45.62378	      51.87988
       0.68157	      58.36487	      58.82263	      54.62646	      59.12781
       0.69468	      57.22046	      45.54749	      48.67554	      52.03247
       0.70779	      49.36218	      52.26135	      46.00525	      54.16870
       0.72090	      49.51477	      57.52563	      51.42212	      61.95068
       0.73400	      62.63733	      54.01611	      49.28589	      52.79541
       0.74711	      56.30493	      54.32129	      62.94250	      59.50928
