ALV-7004/USB-FAST
Date :	"11/11/2025"
Time :	"3:54:41 PM"
Samplename : 	""
SampMemo(0) : 	""
SampMemo(1) : 	""
SampMemo(2) : 	""
SampMemo(3) : 	""
SampMemo(4) : 	""
SampMemo(5) : 	""
SampMemo(6) : 	""
SampMemo(7) : 	""
SampMemo(8) : 	""
SampMemo(9) : 	""
Temperature [K] :	     298.16000
Viscosity [cp]  :	       0.89000
Refractive Index:	       1.33200
Wavelength [nm] :	       0.00000
Angle [°]       :	       0.00000
Duration [s]    :	         1
FloatDur [ms]   :	          944
Stop TP [ms]   :	     61293
Runs            :	         1
Mode            :	"A-CH0+1  A-CH2+3 "
MeanCR0 [kHz]   :	      54.18989
MeanCR1 [kHz]   :	      52.56335
MeanCR2 [kHz]   :	      52.32281
MeanCR3 [kHz]   :	      51.76226

"Correlation"
  3.12500E-006	 -1.00000E+000	 -1.00000E+000	 -1.00000E+000	 -1.00000E+000
  6.25000E-006	 -1.00000E+000	 -1.00000E+000	 -1.00000E+000	 -1.00000E+000
  9.37500E-006	 -1.00000E+000	 -1.00000E+000	 -1.00000E+000	 -1.00000E+000
  1.25000E-005	 -1.00000E+000	 -1.00000E+000	 -1.00000E+000	 -1.00000E+000
  1.56250E-005	 -1.00000E+000	 -1.00000E+000	 -1.00000E+000	 -1.00000E+000
  1.87500E-005	 -1.00000E+000	 -1.00000E+000	 -1.00000E+000	 -1.00000E+000
  2.18750E-005	 -1.00000E+000	  1.08637E+000	  2.22032E+000	 -4.93778E-001
  2.50000E-005	  1.19327E+001	  1.45864E+001	  1.32437E+001	  2.49439E+001
  2.81250E-005	  2.57958E+000	  2.55909E+000	  2.34418E+000	  8.23855E+000
  3.12500E-005	  1.19394E+000	  8.40911E-001	  1.35331E+000	  4.31533E+000
  3.43750E-005	  1.54035E+000	  9.63638E-001	  8.57876E-001	  3.17633E+000
  3.75000E-005	  9.62998E-001	  4.72729E-001	  8.57876E-001	  4.56844E+000
  4.06250E-005	  8.47528E-001	  8.40911E-001	  9.81734E-001	  3.68255E+000
  4.37500E-005	  9.62998E-001	  1.20909E+000	  8.57876E-001	  2.16389E+000
  4.68750E-005	  8.47528E-001	  9.63638E-001	  7.34017E-001	  1.65767E+000
  5.00000E-005	  5.01116E-001	  5.95456E-001	  4.86300E-001	  2.79666E+000
  5.62500E-005	  9.62998E-001	  5.34092E-001	  3.62442E-001	  2.54355E+000
  6.25000E-005	  3.85646E-001	  4.72729E-001	  8.57876E-001	  1.78422E+000
  6.87500E-005	  8.47527E-001	  7.79547E-001	  6.72088E-001	  2.03733E+000
  7.50000E-005	  7.89792E-001	  6.56820E-001	  3.62442E-001	  8.98332E-001
  8.12500E-005	  3.27910E-001	  5.95456E-001	  6.10159E-001	  7.08499E-001
  8.75000E-005	  9.05263E-001	  5.34092E-001	  7.95946E-001	  8.98332E-001
  9.37500E-005	  6.16587E-001	  5.34092E-001	  1.22945E+000	  1.59439E+000
  1.00000E-004	  4.14513E-001	  3.80683E-001	  7.64982E-001	  1.15144E+000
  1.12500E-004	  7.03189E-001	  9.94320E-001	  4.55336E-001	  5.50305E-001
  1.25000E-004	  4.43381E-001	  5.64774E-001	  3.93407E-001	  3.60471E-001
  1.37500E-004	  7.32057E-001	  9.02274E-001	  2.69548E-001	  1.21472E+000
  1.50000E-004	  3.56778E-001	  5.34092E-001	  5.79194E-001	  8.35054E-001
  1.62500E-004	  1.54705E-001	  5.03410E-001	  3.62442E-001	  8.35054E-001
  1.75000E-004	  4.14513E-001	  3.80683E-001	  3.93407E-001	  4.55388E-001
  1.87500E-004	  6.16586E-001	  4.11365E-001	  3.93407E-001	  8.98332E-001
  2.00000E-004	  7.17623E-001	  7.33524E-001	  7.34017E-001	  8.35054E-001
  2.25000E-004	  5.15549E-001	  1.04546E-001	  7.80464E-001	  4.87027E-001
  2.50000E-004	  4.72248E-001	  3.65342E-001	  3.77924E-001	  2.02277E-001
  2.75000E-004	  5.29983E-001	  4.42046E-001	  3.46959E-001	  3.76291E-001
  3.00000E-004	  5.15549E-001	  4.42046E-001	  3.46959E-001	  3.28832E-001
  3.25000E-004	  5.15549E-001	  4.72728E-001	  5.63711E-001	  5.18665E-001
  3.50000E-004	  3.85645E-001	  6.10796E-001	  4.55335E-001	  3.44652E-001
  3.75000E-004	  7.03189E-001	  5.95455E-001	  6.10158E-001	  6.45221E-001
  4.00000E-004	  4.07295E-001	  6.10796E-001	  4.24370E-001	  5.58213E-001
  4.50000E-004	  4.28946E-001	  4.03693E-001	  7.03086E-001	  6.92678E-001
  5.00000E-004	  5.66067E-001	  6.18466E-001	  3.93434E-001	  4.55387E-001
  5.50000E-004	  5.08332E-001	  3.73011E-001	  6.64379E-001	  6.68949E-001
  6.00000E-004	  5.58850E-001	  5.41762E-001	  5.01812E-001	  3.84200E-001
  6.50000E-004	  5.22766E-001	  4.88068E-001	  6.10190E-001	  3.68380E-001
  7.00000E-004	  4.57814E-001	  5.80114E-001	  4.94071E-001	  4.94936E-001
  7.50000E-004	  3.85645E-001	  5.26421E-001	  4.55364E-001	  8.03414E-001
  8.00000E-004	  4.18119E-001	  5.34090E-001	  4.32139E-001	  5.10754E-001
  9.00000E-004	  5.22764E-001	  5.99289E-001	  6.02448E-001	  4.27702E-001
  1.00000E-003	  5.22764E-001	  5.83948E-001	  5.59870E-001	  5.10754E-001
  1.10000E-003	  5.22764E-001	  3.80681E-001	  5.13423E-001	  4.63296E-001
  1.20000E-003	  3.96469E-001	  5.18749E-001	  5.48259E-001	  5.42393E-001
  1.30000E-003	  3.96469E-001	  4.61221E-001	  5.59870E-001	  3.44650E-001
  1.40000E-003	  3.82035E-001	  5.11078E-001	  4.74716E-001	  5.14709E-001
  1.50000E-003	  3.38734E-001	  5.76277E-001	  4.39880E-001	  5.38438E-001
  1.60000E-003	  3.76620E-001	  6.28050E-001	  3.93430E-001	  4.59338E-001
  1.80000E-003	  4.05487E-001	  4.55465E-001	  4.65037E-001	  4.90977E-001
  2.00000E-003	  5.11936E-001	  4.32454E-001	  5.13420E-001	  5.79961E-001
  2.20000E-003	  4.61418E-001	  4.51630E-001	  4.45684E-001	  4.61316E-001
  2.40000E-003	  5.35391E-001	  5.01488E-001	  4.80520E-001	  4.41541E-001
  2.60000E-003	  4.23530E-001	  4.74641E-001	  4.08913E-001	  5.64142E-001
  2.80000E-003	  4.88482E-001	  5.55181E-001	  4.72778E-001	  4.77135E-001
  3.00000E-003	  4.19921E-001	  4.99570E-001	  3.79883E-001	  4.91008E-001
  3.20000E-003	  4.35252E-001	  5.44629E-001	  4.50517E-001	  4.91002E-001
  3.60000E-003	  5.04714E-001	  4.78471E-001	  4.77612E-001	  4.61341E-001
  4.00000E-003	  4.37959E-001	  4.02726E-001	  4.24391E-001	  4.89025E-001
  4.40000E-003	  4.73169E-001	  5.05318E-001	  3.77943E-001	  4.51453E-001
  4.80000E-003	  5.04744E-001	  5.09153E-001	  4.36002E-001	  4.46510E-001
  5.20000E-003	  5.05646E-001	  5.19700E-001	  4.25358E-001	  4.09927E-001
  5.60000E-003	  4.85799E-001	  4.83265E-001	  4.80515E-001	  4.52442E-001
  6.00000E-003	  5.42633E-001	  4.46831E-001	  5.64701E-001	  4.64307E-001
  6.40000E-003	  4.62814E-001	  4.54492E-001	  4.61635E-001	  4.89015E-001
  7.20000E-003	  4.49733E-001	  4.39630E-001	  4.75183E-001	  4.39579E-001
  8.00000E-003	  4.39358E-001	  4.56409E-001	  4.77602E-001	  5.04834E-001
  8.80000E-003	  4.55146E-001	  4.65038E-001	  4.72763E-001	  4.65286E-001
  9.60000E-003	  4.83563E-001	  4.73188E-001	  4.61635E-001	  4.84071E-001
  1.04000E-002	  4.39358E-001	  4.44424E-001	  4.42282E-001	  4.64821E-001
  1.12000E-002	  5.02057E-001	  4.87091E-001	  4.26800E-001	  4.71742E-001
  1.20000E-002	  4.82210E-001	  4.37713E-001	  4.20027E-001	  4.07969E-001
  1.28000E-002	  4.66628E-001	  4.69093E-001	  4.49308E-001	  4.53678E-001
  1.44000E-002	  4.81287E-001	  4.84434E-001	  4.68177E-001	  4.24263E-001
  1.60000E-002	  4.74325E-001	  4.80599E-001	  4.33099E-001	  4.50465E-001
  1.76000E-002	  4.57410E-001	  4.73168E-001	  4.87772E-001	  4.93969E-001
  1.92000E-002	  4.41171E-001	  4.99055E-001	  4.65032E-001	  4.56892E-001
  2.08000E-002	  4.52222E-001	  4.99774E-001	  4.29713E-001	  4.53431E-001
  2.24000E-002	  4.63950E-001	  4.71970E-001	  4.44953E-001	  4.46510E-001
  2.40000E-002	  4.31022E-001	  4.69812E-001	  4.58258E-001	  4.75925E-001
  2.56000E-002	  4.44092E-001	  4.80978E-001	  4.49932E-001	  4.67110E-001
  2.88000E-002	  4.23343E-001	  4.85892E-001	  4.90181E-001	  4.55245E-001
  3.20000E-002	  4.21764E-001	  4.77862E-001	  4.55525E-001	  4.33000E-001
  3.52000E-002	  4.67999E-001	  4.75105E-001	  4.35083E-001	  4.72548E-001
  3.84000E-002	  4.48490E-001	  4.95599E-001	  4.47179E-001	  4.71065E-001
  4.16000E-002	  4.30673E-001	  4.55330E-001	  4.34236E-001	  4.67110E-001
  4.48000E-002	  4.24696E-001	  4.86970E-001	  4.40101E-001	  4.50673E-001
  4.80000E-002	  4.48490E-001	  4.35795E-001	  4.24283E-001	  4.45235E-001
  5.12000E-002	  4.38403E-001	  4.47729E-001	  4.33176E-001	  4.69779E-001
  5.76000E-002	  4.36148E-001	  4.75773E-001	  4.21193E-001	  4.59089E-001
  6.40000E-002	  4.42181E-001	  4.44852E-001	  4.29118E-001	  4.39222E-001
  7.04000E-002	  4.27803E-001	  4.78890E-001	  4.30449E-001	  4.47255E-001
  7.68000E-002	  4.15679E-001	  4.35086E-001	  4.23552E-001	  4.69098E-001
  8.32000E-002	  4.27154E-001	  4.54861E-001	  4.23763E-001	  4.40858E-001
  8.96000E-002	  4.20866E-001	  4.41258E-001	  4.32806E-001	  4.35358E-001
  9.60000E-002	  4.08968E-001	  4.38202E-001	  4.12265E-001	  4.44286E-001
  1.02400E-001	  4.04234E-001	  4.37500E-001	  4.11060E-001	  4.35097E-001
  1.15200E-001	  4.14020E-001	  4.46369E-001	  4.07573E-001	  4.34603E-001
  1.28000E-001	  4.10779E-001	  4.36541E-001	  4.00281E-001	  4.18812E-001
  1.40800E-001	  3.89516E-001	  4.16378E-001	  3.81861E-001	  4.16556E-001
  1.53600E-001	  3.80324E-001	  4.19824E-001	  3.81442E-001	  4.20853E-001
  1.66400E-001	  3.95919E-001	  4.14011E-001	  3.73334E-001	  4.23012E-001
  1.79200E-001	  3.74460E-001	  3.98644E-001	  3.70184E-001	  3.93346E-001
  1.92000E-001	  3.70822E-001	  3.91424E-001	  3.70694E-001	  3.90223E-001
  2.04800E-001	  3.62525E-001	  3.96687E-001	  3.47768E-001	  3.83698E-001
  2.30400E-001	  3.44726E-001	  3.77019E-001	  3.35299E-001	  3.60318E-001
  2.56000E-001	  3.32584E-001	  3.51001E-001	  3.20237E-001	  3.53711E-001
  2.81600E-001	  3.18668E-001	  3.38448E-001	  3.05679E-001	  3.41926E-001
  3.07200E-001	  3.00895E-001	  3.25838E-001	  2.98651E-001	  3.28323E-001
  3.32800E-001	  2.86869E-001	  3.06604E-001	  2.72352E-001	  3.04445E-001
  3.58400E-001	  2.74326E-001	  2.86356E-001	  2.62787E-001	  2.91569E-001
  3.84000E-001	  2.67330E-001	  2.90288E-001	  2.42301E-001	  2.79646E-001
  4.09600E-001	  2.52406E-001	  2.64985E-001	  2.34489E-001	  2.67600E-001
  4.60800E-001	  2.25972E-001	  2.38081E-001	  2.05254E-001	  2.42273E-001
  5.12000E-001	  2.03621E-001	  2.10484E-001	  1.82656E-001	  2.11597E-001
  5.63200E-001	  1.95602E-001	  1.87524E-001	  1.59684E-001	  1.91668E-001
  6.14400E-001	  1.69209E-001	  1.71825E-001	  1.41457E-001	  1.71640E-001
  6.65600E-001	  1.59683E-001	  1.50565E-001	  1.16856E-001	  1.54440E-001
  7.16800E-001	  1.47496E-001	  1.32267E-001	  1.09226E-001	  1.40832E-001
  7.68000E-001	  1.36062E-001	  1.16680E-001	  9.51330E-002	  1.27556E-001
  8.19200E-001	  1.26644E-001	  1.03249E-001	  8.36912E-002	  1.20988E-001
  9.21600E-001	  1.13810E-001	  8.41390E-002	  5.87828E-002	  9.36968E-002
  1.02400E+000	  9.54803E-002	  6.78888E-002	  4.95515E-002	  8.90965E-002
  1.12640E+000	  8.32448E-002	  5.48480E-002	  3.77343E-002	  7.65570E-002
  1.22880E+000	  7.53138E-002	  4.46771E-002	  2.93536E-002	  7.45979E-002
  1.33120E+000	  6.95703E-002	  4.53993E-002	  2.95905E-002	  6.52229E-002
  1.43360E+000	  5.80366E-002	  4.01133E-002	  2.38163E-002	  5.96551E-002
  1.53600E+000	  5.02641E-002	  4.15082E-002	  2.92256E-002	  5.93978E-002
  1.63840E+000	  4.74151E-002	  3.77218E-002	  2.92715E-002	  5.19064E-002
  1.84320E+000	  3.63655E-002	  3.67944E-002	  3.46288E-002	  4.61112E-002
  2.04800E+000	  2.67368E-002	  3.41387E-002	  2.33706E-002	  4.51446E-002
  2.25280E+000	  2.28682E-002	  3.17229E-002	  1.46838E-002	  4.20882E-002
  2.45760E+000	  1.98368E-002	  2.08699E-002	  2.12797E-003	  4.02431E-002
  2.66240E+000	  1.02063E-002	  1.68359E-002	  5.69923E-004	  3.35511E-002
  2.86720E+000	  3.72929E-003	  1.94919E-002	 -7.08583E-003	  2.34395E-002
  3.07200E+000	 -3.99373E-003	  2.02712E-002	 -7.85230E-003	  1.52155E-002
  3.27680E+000	 -1.28533E-003	  1.23060E-002	 -3.65957E-003	  1.33931E-002
  3.68640E+000	  1.31610E-002	  3.76624E-003	  4.45888E-003	  1.32895E-002
  4.09600E+000	  2.35230E-002	  1.10101E-002	 -2.81809E-003	  6.22600E-003
  4.50560E+000	  2.25113E-002	  1.54456E-002	 -1.06557E-002	  3.67679E-003
  4.91520E+000	  1.29885E-002	  9.14874E-003	 -1.81255E-002	  7.01970E-003
  5.32480E+000	  7.50586E-004	  4.32495E-003	 -1.58905E-002	  1.00795E-002
  5.73440E+000	  2.72187E-003	  2.18435E-003	 -1.57721E-002	  1.52105E-002
  6.14400E+000	  6.20089E-003	  7.54626E-003	 -2.28873E-002	  5.25549E-003
  6.55360E+000	  7.93077E-003	  1.96716E-004	 -1.47412E-002	 -3.96096E-003
  7.37280E+000	  4.49857E-003	 -3.21059E-004	  3.74970E-003	 -2.33899E-002
  8.19200E+000	 -4.59527E-004	  1.35514E-002	 -9.13692E-003	 -2.21196E-002
  9.01120E+000	  4.11094E-003	  1.95581E-002	 -2.04848E-002	 -1.33016E-002
  9.83040E+000	 -1.20386E-002	  1.12572E-002	 -1.50420E-002	 -1.22565E-002
  1.06496E+001	 -1.64510E-002	  5.04592E-003	 -1.71105E-002	 -1.44601E-002
  1.14688E+001	 -8.92044E-003	  1.46460E-002	 -1.07643E-002	 -1.47735E-002
  1.22880E+001	  5.60688E-003	  1.36459E-002	 -3.68948E-003	 -1.53674E-002
  1.31072E+001	  8.19005E-003	  3.91045E-003	 -7.91057E-003	 -1.26344E-002
  1.47456E+001	 -3.02901E-003	  1.27527E-002	  3.89225E-003	  8.74367E-003
  1.63840E+001	  9.61352E-003	  5.18036E-003	 -1.47326E-002	 -1.57829E-003
  1.80224E+001	  1.79648E-002	 -3.37049E-005	  1.86961E-002	 -1.05152E-002
  1.96608E+001	  7.67358E-005	 -2.55728E-003	  7.85531E-003	  8.64944E-003
  2.12992E+001	  1.65386E-002	 -4.81052E-005	 -8.08340E-004	  7.53900E-003
  2.29376E+001	  1.68331E-002	  1.47935E-002	 -1.20877E-002	  1.75227E-002
  2.45760E+001	  2.07744E-002	  1.36985E-002	 -7.78810E-003	  1.00542E-002
  2.62144E+001	  6.29949E-003	  9.84799E-003	 -4.07632E-003	 -2.25784E-003
  2.94912E+001	 -1.95436E-003	 -1.65753E-002	  4.09129E-003	  6.89555E-003
  3.27680E+001	 -6.00987E-003	 -8.85378E-003	 -6.42263E-003	  5.55397E-004
  3.60448E+001	 -1.56674E-002	  2.15456E-003	 -6.03486E-003	  1.57887E-004
  3.93216E+001	 -4.24184E-003	 -1.48060E-003	 -8.59245E-003	  1.32621E-003
  4.25984E+001	  3.10245E-003	 -1.28963E-002	  2.45709E-004	  1.29273E-002
  4.58752E+001	 -3.43799E-003	  6.47718E-003	 -2.31950E-003	 -3.33284E-003
  4.91520E+001	 -8.83493E-003	  2.32011E-003	 -2.61641E-003	 -1.11349E-002
  5.24288E+001	 -2.02338E-004	 -4.52086E-004	  1.30763E-003	 -6.44756E-003
  5.89824E+001	 -1.35354E-003	 -8.55655E-003	 -1.54161E-003	 -1.00507E-002
  6.55360E+001	 -1.15918E-003	 -1.74866E-003	 -5.57647E-003	  7.76303E-003
  7.20896E+001	 -8.91582E-003	 -3.73542E-003	 -3.12311E-003	 -1.14124E-002
  7.86432E+001	 -1.10268E-002	 -1.69316E-002	 -9.35906E-003	 -9.52170E-006
  8.51968E+001	  4.46549E-003	 -7.00348E-003	 -3.15706E-003	  2.22383E-003
  9.17504E+001	  1.16882E-002	  1.71199E-003	  1.54438E-003	  8.03749E-003
  9.83040E+001	 -8.53890E-003	  1.02621E-002	  3.76335E-003	  1.55656E-002
  1.04858E+002	 -6.31241E-003	 -3.43487E-003	  4.39426E-003	 -4.96949E-003
  1.17965E+002	  4.27756E-003	 -5.13658E-003	  2.60928E-003	 -2.50408E-003
  1.31072E+002	 -8.48450E-003	 -6.67789E-003	  1.22748E-005	  8.02457E-003
  1.44179E+002	 -7.61430E-003	 -1.22974E-003	  3.49254E-004	  1.97336E-003
  1.57286E+002	  9.05861E-003	 -7.10914E-003	  8.13192E-004	  2.33119E-003
  1.70394E+002	 -1.02499E-003	 -1.48115E-002	 -1.79474E-003	 -7.15112E-004
  1.83501E+002	  3.07364E-003	  5.31589E-003	 -5.36905E-003	 -5.38359E-003
  1.96608E+002	 -3.70706E-003	  5.47665E-003	 -1.28553E-003	 -2.01118E-003
  2.09715E+002	 -9.10568E-003	  1.49727E-002	 -3.11808E-003	  1.95295E-003
  2.35930E+002	 -2.47150E-003	  1.11989E-002	  2.96059E-003	 -3.21452E-003
  2.62144E+002	  3.81107E-003	 -3.94112E-003	 -3.10848E-003	  8.40381E-003
  2.88358E+002	  8.55513E-005	 -5.00590E-003	  1.83532E-003	 -8.83346E-004
  3.14573E+002	 -2.16592E-003	 -2.13883E-003	  1.11180E-003	 -1.00358E-002
  3.40787E+002	  9.81340E-003	 -3.38147E-003	 -2.04908E-003	  2.99029E-003
  3.67002E+002	  7.11171E-003	 -7.13107E-003	  4.58440E-003	  5.35006E-004
  3.93216E+002	 -6.18804E-003	  2.99251E-003	 -3.26168E-003	  2.52070E-003

"Count Rate"
       0.01311	      66.75720	      48.59924	      48.67554	      44.55566
       0.02621	      45.85266	      55.31311	      39.74915	      63.40027
       0.03932	      72.70813	      29.06799	      55.61829	      52.33765
       0.05243	      46.38672	      33.41675	      56.38123	      60.11963
       0.06554	      72.55554	      47.83630	      47.53113	      50.50659
       0.07864	      53.93982	      35.47668	      43.94531	      46.00525
       0.09175	      60.27222	      68.20679	      38.52844	      68.89343
       0.10486	      56.91528	      66.07056	      71.33484	      43.71643
       0.11796	      66.37573	      59.20410	      52.49023	      65.84167
       0.13107	      54.32129	      65.84167	      39.67285	      44.32678
       0.14418	      66.14685	      48.06519	      56.99158	      37.61292
       0.15729	      54.16870	      49.28589	      52.56653	      76.75171
       0.17039	      81.40564	      60.95886	      70.72449	      50.73547
       0.18350	      28.99170	      45.31860	      57.14417	      68.96973
       0.19661	      65.68909	      48.14148	      57.90710	      47.76001
       0.20972	      59.35669	      51.95618	      49.36218	      59.66187
       0.22282	      53.78723	      57.22046	      66.29944	      46.31042
       0.23593	      63.78174	      53.71094	      48.90442	      41.27502
       0.24904	      43.41125	      63.47656	      37.30774	      66.29944
       0.26214	      56.91528	      40.89355	      46.92078	      57.52563
       0.27525	      32.50122	      47.14966	      54.32129	      64.23950
       0.28836	      35.93445	      48.06519	      37.53662	      42.49573
       0.30147	      30.82275	      92.77344	      51.26953	      55.69458
       0.31457	      50.12512	      43.25867	      66.90979	      39.06250
       0.32768	      84.15222	      51.49841	      56.38123	      48.98071
       0.34079	      83.38928	      54.01611	      44.86084	      41.80908
       0.35389	      66.83350	      49.36218	      47.45483	      43.41125
       0.36700	      59.05151	      56.76270	      50.27771	      34.63745
       0.38011	      45.92896	      49.20959	      44.32678	      70.72449
       0.39322	      55.38940	      41.73279	      36.23962	      48.29407
       0.40632	      40.28320	      46.08154	      39.52026	      70.03784
       0.41943	      69.27490	      38.75732	      61.03516	      87.28027
       0.43254	      46.53931	      44.78455	      44.02161	      57.75452
       0.44564	      46.76819	      52.56653	      56.30493	      45.31860
       0.45875	      51.19324	      52.87170	      55.69458	      54.24500
       0.47186	      38.90991	      34.71375	      66.75720	      44.47937
       0.48497	      70.03784	      46.69189	      44.09790	      52.18506
       0.49807	      48.90442	      50.12512	      58.44116	      53.40576
       0.51118	      56.99158	      59.58557	      43.33496	      47.37854
       0.52429	      42.95349	      56.30493	      58.36487	      49.36218
       0.53740	      39.21509	      54.32129	      43.86902	      57.06787
       0.55050	      47.45483	     101.69983	      67.82532	      47.91260
       0.56361	      43.10608	      46.46301	      43.79272	      37.30774
       0.57672	      49.59106	      57.37305	      51.19324	      44.86084
       0.58982	      37.76550	      55.84717	      66.07056	      50.88806
       0.60293	      67.52014	      42.11426	      50.27771	      38.45215
       0.61604	      44.40308	      40.89355	      55.99976	      52.33765
       0.62915	      50.73547	      46.15784	      42.95349	      50.50659
       0.64225	      46.38672	      71.25854	      44.32678	      44.78455
       0.65536	      52.33765	      42.26685	      52.03247	      35.32410
       0.66847	      73.47107	      47.68372	      60.04333	      60.88257
       0.68157	      45.39490	      42.03796	      52.49023	      64.84985
       0.69468	      55.08423	      63.70544	      53.55835	      33.87451
       0.70779	      67.21497	      39.82544	      53.25317	      39.21509
       0.72090	      59.50928	      37.46033	      45.54749	      47.37854
       0.73400	      51.65100	      59.96704	      39.29138	      38.22327
       0.74711	      44.47937	      63.40027	      52.56653	      59.58557
