ALV-7004/USB-FAST
Date :	"11/11/2025"
Time :	"3:59:36 PM"
Samplename : 	""
SampMemo(0) : 	""
SampMemo(1) : 	""
SampMemo(2) : 	""
SampMemo(3) : 	""
SampMemo(4) : 	""
SampMemo(5) : 	""
SampMemo(6) : 	""
SampMemo(7) : 	""
SampMemo(8) : 	""
SampMemo(9) : 	""
Temperature [K] :	     298.16000
Viscosity [cp]  :	       0.89000
Refractive Index:	       1.33200
Wavelength [nm] :	       0.00000
Angle [°]       :	       0.00000
Duration [s]    :	         1
FloatDur [ms]   :	          944
Stop TP [ms]   :	     68374
Runs            :	         1
Mode            :	"A-CH0+1  A-CH2+3 "
MeanCR0 [kHz]   :	      55.75604
MeanCR1 [kHz]   :	      57.59345
MeanCR2 [kHz]   :	      57.30311
MeanCR3 [kHz]   :	      56.07605

"Correlation"
  3.12500E-006	 -1.00000E+000	 -1.00000E+000	 -1.00000E+000	 -1.00000E+000
  6.25000E-006	 -1.00000E+000	 -1.00000E+000	 -1.00000E+000	 -1.00000E+000
  9.37500E-006	 -1.00000E+000	 -1.00000E+000	 -1.00000E+000	 -1.00000E+000
  1.25000E-005	 -1.00000E+000	 -1.00000E+000	 -1.00000E+000	 -1.00000E+000
  1.56250E-005	 -1.00000E+000	 -1.00000E+000	 -1.00000E+000	 -1.00000E+000
  1.87500E-005	 -1.00000E+000	 -1.00000E+000	 -1.00000E+000	 -1.00000E+000
  2.18750E-005	 -7.81851E-001	  8.40068E-001	  7.55497E-001	 -5.68667E-001
  2.50000E-005	  1.12164E+001	  1.05515E+001	  9.53298E+000	  2.47721E+001
  2.81250E-005	  4.78095E+000	  2.68014E+000	  2.09794E+000	  8.05799E+000
  3.12500E-005	  1.50872E+000	  8.40068E-001	  1.16855E+000	  4.82300E+000
  3.43750E-005	  2.05409E+000	  1.45342E+000	  8.58761E-001	  3.31333E+000
  3.75000E-005	  3.08895E-001	  8.40068E-001	  1.47835E+000	  2.45066E+000
  4.06250E-005	  1.07242E+000	  1.35120E+000	  1.06529E+000	  2.55850E+000
  4.37500E-005	  9.63343E-001	  1.35120E+000	  1.35910E-001	  3.42116E+000
  4.68750E-005	  1.29057E+000	  4.31164E-001	  1.27182E+000	  2.98983E+000
  5.00000E-005	  1.12695E+000	  7.88955E-001	  6.00600E-001	  2.77416E+000
  5.62500E-005	  6.36119E-001	  7.37842E-001	  7.55497E-001	  1.64191E+000
  6.25000E-005	  1.12695E+000	  2.26712E-001	  9.10394E-001	  1.58800E+000
  6.87500E-005	  5.27045E-001	  8.91181E-001	  7.55497E-001	  1.26450E+000
  7.50000E-005	  1.39964E+000	  1.75599E-001	  6.52232E-001	  1.21058E+000
  8.12500E-005	  2.54358E-001	  8.91181E-001	  5.48968E-001	  1.53408E+000
  8.75000E-005	  6.36119E-001	  3.80051E-001	  6.00600E-001	  1.21058E+000
  9.37500E-005	  6.90656E-001	  1.24897E+000	  7.55497E-001	  1.10275E+000
  1.00000E-004	  4.99776E-001	  1.01896E+000	  7.29680E-001	  6.71415E-001
  1.12500E-004	  2.81627E-001	  5.84503E-001	  7.03864E-001	  9.40998E-001
  1.25000E-004	  4.17970E-001	  3.80051E-001	  9.10393E-001	  6.71415E-001
  1.37500E-004	  5.81582E-001	  6.10059E-001	  6.00600E-001	  7.25332E-001
  1.50000E-004	  4.72507E-001	  6.10059E-001	  5.23151E-001	  3.74874E-001
  1.62500E-004	  4.99776E-001	  1.75599E-001	  4.71519E-001	  6.44457E-001
  1.75000E-004	  6.63388E-001	  5.07833E-001	  8.32945E-001	  4.28790E-001
  1.87500E-004	  3.90701E-001	  1.24486E-001	  5.23151E-001	  6.17499E-001
  2.00000E-004	  4.58872E-001	  4.31163E-001	  4.32795E-001	  3.88353E-001
  2.25000E-004	  4.45238E-001	  4.69498E-001	  6.39324E-001	  8.73602E-001
  2.50000E-004	  3.90701E-001	  5.33389E-001	  3.16622E-001	  5.23144E-001
  2.75000E-004	  4.17970E-001	  5.07833E-001	  3.42438E-001	  5.50102E-001
  3.00000E-004	  5.81581E-001	  2.90603E-001	  4.71519E-001	  5.77061E-001
  3.25000E-004	  6.77022E-001	  1.24485E-001	  1.10093E-001	  7.65769E-001
  3.50000E-004	  7.99731E-001	  7.63398E-001	  5.48967E-001	  4.15311E-001
  3.75000E-004	  5.54313E-001	  5.33389E-001	  5.36059E-001	  4.55748E-001
  4.00000E-004	  5.20226E-001	  6.67560E-001	  4.58610E-001	  5.50102E-001
  4.50000E-004	  4.24786E-001	  6.93117E-001	  4.45702E-001	  4.69227E-001
  5.00000E-004	  4.04335E-001	  5.52556E-001	  3.68254E-001	  4.08571E-001
  5.50000E-004	  4.38420E-001	  5.14221E-001	  5.81237E-001	  4.15310E-001
  6.00000E-004	  4.52055E-001	  4.37552E-001	  3.87616E-001	  3.88352E-001
  6.50000E-004	  4.17969E-001	  5.20610E-001	  3.74708E-001	  3.81612E-001
  7.00000E-004	  5.47495E-001	  5.14221E-001	  4.06978E-001	  4.96185E-001
  7.50000E-004	  6.22484E-001	  5.07832E-001	  4.65064E-001	  4.82706E-001
  8.00000E-004	  5.33859E-001	  4.95053E-001	  3.81161E-001	  4.65856E-001
  9.00000E-004	  3.77065E-001	  4.85469E-001	  4.42474E-001	  4.65856E-001
  1.00000E-003	  6.80428E-001	  5.14220E-001	  5.19922E-001	  5.26512E-001
  1.10000E-003	  6.22482E-001	  4.37551E-001	  5.16695E-001	  4.86075E-001
  1.20000E-003	  4.79322E-001	  5.11025E-001	  4.39247E-001	  3.51283E-001
  1.30000E-003	  3.94108E-001	  5.65333E-001	  4.65063E-001	  5.23142E-001
  1.40000E-003	  4.96365E-001	  4.59913E-001	  4.71517E-001	  5.43361E-001
  1.50000E-003	  5.40676E-001	  4.66302E-001	  4.13431E-001	  4.59116E-001
  1.60000E-003	  5.08292E-001	  4.50326E-001	  4.32790E-001	  4.91127E-001
  1.80000E-003	  4.11148E-001	  4.15186E-001	  4.19882E-001	  4.47320E-001
  2.00000E-003	  4.41825E-001	  4.87064E-001	  4.02134E-001	  4.70908E-001
  2.20000E-003	  5.79872E-001	  3.68865E-001	  4.60220E-001	  4.67538E-001
  2.40000E-003	  4.40121E-001	  4.90286E-001	  4.10201E-001	  3.81609E-001
  2.60000E-003	  4.29895E-001	  4.43964E-001	  4.06974E-001	  4.81017E-001
  2.80000E-003	  4.21374E-001	  4.42367E-001	  4.53766E-001	  4.97866E-001
  3.00000E-003	  4.00922E-001	  4.45561E-001	  4.63447E-001	  4.03513E-001
  3.20000E-003	  4.52926E-001	  3.81690E-001	  5.16687E-001	  4.33836E-001
  3.60000E-003	  3.94127E-001	  4.00858E-001	  4.00516E-001	  4.11090E-001
  4.00000E-003	  4.16283E-001	  4.27214E-001	  4.52954E-001	  4.04350E-001
  4.40000E-003	  4.37587E-001	  3.69710E-001	  3.89221E-001	  4.41418E-001
  4.80000E-003	  4.87012E-001	  4.32804E-001	  4.02129E-001	  3.99296E-001
  5.20000E-003	  4.43552E-001	  3.89676E-001	  4.44080E-001	  4.41418E-001
  5.60000E-003	  3.92423E-001	  4.03254E-001	  3.40009E-001	  4.19514E-001
  6.00000E-003	  3.75380E-001	  3.73703E-001	  3.68271E-001	  4.14459E-001
  6.40000E-003	  4.45700E-001	  4.01724E-001	  4.01742E-001	  4.43514E-001
  7.20000E-003	  3.83066E-001	  4.33672E-001	  3.88431E-001	  3.94231E-001
  8.00000E-003	  4.00535E-001	  3.72946E-001	  3.48924E-001	  4.18241E-001
  8.80000E-003	  3.61336E-001	  3.56173E-001	  4.07468E-001	  3.91704E-001
  9.60000E-003	  3.89857E-001	  3.24226E-001	  3.80036E-001	  4.08974E-001
  1.04000E-002	  3.48102E-001	  3.84926E-001	  3.37276E-001	  3.82859E-001
  1.12000E-002	  3.94544E-001	  3.61365E-001	  3.57042E-001	  3.80331E-001
  1.20000E-002	  3.59606E-001	  3.14242E-001	  3.54622E-001	  4.03077E-001
  1.28000E-002	  3.98386E-001	  3.23107E-001	  3.40888E-001	  3.76548E-001
  1.44000E-002	  3.81769E-001	  3.40679E-001	  3.41090E-001	  3.40112E-001
  1.60000E-002	  3.56630E-001	  3.25104E-001	  3.25357E-001	  3.21368E-001
  1.76000E-002	  3.66004E-001	  3.40854E-001	  3.26769E-001	  3.15260E-001
  1.92000E-002	  3.33835E-001	  2.96126E-001	  3.11844E-001	  2.71032E-001
  2.08000E-002	  3.28509E-001	  3.08482E-001	  3.04381E-001	  3.11890E-001
  2.24000E-002	  3.11441E-001	  2.85319E-001	  3.37661E-001	  2.76508E-001
  2.40000E-002	  3.47657E-001	  2.94504E-001	  3.19508E-001	  2.84932E-001
  2.56000E-002	  3.23837E-001	  2.79136E-001	  3.14277E-001	  2.96652E-001
  2.88000E-002	  2.95396E-001	  2.81333E-001	  2.87047E-001	  2.87384E-001
  3.20000E-002	  2.86342E-001	  2.51778E-001	  2.62541E-001	  2.64636E-001
  3.52000E-002	  2.47142E-001	  2.53675E-001	  2.48019E-001	  2.53473E-001
  3.84000E-002	  2.72601E-001	  2.54950E-001	  2.45621E-001	  2.55158E-001
  4.16000E-002	  2.56516E-001	  2.34958E-001	  2.35155E-001	  2.43046E-001
  4.48000E-002	  2.26287E-001	  2.09776E-001	  2.11354E-001	  2.27670E-001
  4.80000E-002	  2.26903E-001	  2.13847E-001	  2.07017E-001	  2.35779E-001
  5.12000E-002	  2.21787E-001	  1.90699E-001	  2.16118E-001	  2.18711E-001
  5.76000E-002	  2.12443E-001	  1.96890E-001	  1.99146E-001	  2.01962E-001
  6.40000E-002	  1.91329E-001	  1.75847E-001	  1.45944E-001	  1.88141E-001
  7.04000E-002	  1.80037E-001	  1.64984E-001	  1.68024E-001	  1.71024E-001
  7.68000E-002	  1.68289E-001	  1.42915E-001	  1.53601E-001	  1.52757E-001
  8.32000E-002	  1.54814E-001	  1.47458E-001	  1.30878E-001	  1.51493E-001
  8.96000E-002	  1.45120E-001	  1.06745E-001	  1.33853E-001	  1.43150E-001
  9.60000E-002	  1.33744E-001	  1.25277E-001	  1.26742E-001	  1.26350E-001
  1.02400E-001	  1.25841E-001	  1.06889E-001	  1.23973E-001	  1.21912E-001
  1.15200E-001	  1.05147E-001	  9.99758E-002	  9.57612E-002	  9.90868E-002
  1.28000E-001	  9.15101E-002	  8.48273E-002	  8.73468E-002	  8.05503E-002
  1.40800E-001	  7.73880E-002	  7.91939E-002	  7.23387E-002	  6.68544E-002
  1.53600E-001	  7.15425E-002	  5.25473E-002	  6.84597E-002	  6.41742E-002
  1.66400E-001	  5.75921E-002	  4.88632E-002	  5.28270E-002	  4.00622E-002
  1.79200E-001	  5.93968E-002	  3.93695E-002	  4.76194E-002	  4.42959E-002
  1.92000E-001	  5.14461E-002	  3.77465E-002	  3.93592E-002	  3.92132E-002
  2.04800E-001	  4.64765E-002	  2.96155E-002	  3.32741E-002	  2.97436E-002
  2.30400E-001	  2.78630E-002	  2.33831E-002	  2.94710E-002	  2.70308E-002
  2.56000E-001	  1.76447E-002	  1.15937E-002	  1.64024E-002	  2.35929E-002
  2.81600E-001	  2.02421E-002	  1.66766E-002	  1.63590E-002	  1.91206E-002
  3.07200E-001	  1.40970E-002	  1.64893E-002	  7.14617E-003	  1.65135E-002
  3.32800E-001	  5.23378E-003	  6.74296E-003	 -4.29989E-003	  1.27464E-002
  3.58400E-001	  1.03616E-002	  1.36864E-002	 -7.10560E-003	  1.09768E-002
  3.84000E-001	  4.80932E-003	  8.25531E-003	 -1.65213E-002	  2.49788E-003
  4.09600E-001	  1.38214E-002	  6.60397E-003	 -7.66551E-003	  3.33644E-003
  4.60800E-001	  1.73430E-002	  9.00222E-003	 -2.46991E-004	  3.38068E-003
  5.12000E-001	  1.09172E-002	  3.14452E-003	 -1.08549E-003	  8.33487E-003
  5.63200E-001	  1.02643E-002	  1.55940E-003	 -4.83275E-003	  8.52658E-003
  6.14400E-001	  7.75195E-003	  6.53647E-003	 -3.34459E-003	  6.51904E-003
  6.65600E-001	  2.56318E-003	  4.54606E-003	 -2.78458E-003	  7.20548E-003
  7.16800E-001	  3.67928E-003	 -3.43257E-003	 -7.28539E-003	  1.29428E-002
  7.68000E-001	  4.84676E-003	  1.10894E-003	 -5.88877E-003	  8.21077E-003
  8.19200E-001	  4.07694E-003	  1.85765E-003	 -7.40254E-003	  1.02014E-002
  9.21600E-001	  2.49550E-003	  7.36963E-004	  4.39999E-004	  3.71379E-003
  1.02400E+000	  8.88099E-003	 -1.77986E-004	  6.85360E-003	 -7.03987E-004
  1.12640E+000	  8.83944E-003	  6.84525E-003	  3.13876E-003	 -2.00797E-003
  1.22880E+000	  1.18096E-002	  5.22613E-003	 -6.60019E-004	  1.54165E-003
  1.33120E+000	  5.17758E-003	  2.55997E-003	 -6.12231E-004	  3.97815E-003
  1.43360E+000	 -1.03171E-002	  4.42896E-004	 -9.63136E-004	  1.72608E-003
  1.53600E+000	 -8.83963E-003	  2.41791E-003	 -1.69975E-003	  1.30270E-003
  1.63840E+000	 -3.01535E-003	 -3.35891E-003	 -6.51619E-003	  2.23426E-003
  1.84320E+000	  5.02421E-003	 -1.39673E-003	 -1.05717E-002	  4.38217E-003
  2.04800E+000	  9.20051E-003	  3.41394E-003	 -1.01379E-002	 -4.91233E-003
  2.25280E+000	  1.09141E-002	  6.51583E-004	 -1.02569E-003	 -3.07413E-003
  2.45760E+000	  1.27726E-002	 -3.82750E-003	  3.95602E-003	 -4.42705E-003
  2.66240E+000	 -1.53167E-003	  1.06847E-003	  4.13805E-003	 -5.48100E-003
  2.86720E+000	 -1.64236E-003	 -3.99423E-003	  3.99319E-003	 -1.42941E-003
  3.07200E+000	  2.90132E-003	  2.64327E-003	  1.98617E-003	  4.08737E-003
  3.27680E+000	  3.07016E-003	 -3.71128E-003	 -4.99601E-004	  3.55682E-003
  3.68640E+000	  6.19641E-003	  1.79410E-003	  8.08385E-004	  5.12702E-003
  4.09600E+000	  1.08503E-004	  4.48891E-003	  3.96902E-003	  1.47514E-003
  4.50560E+000	 -1.80289E-004	  3.50080E-003	  2.99676E-004	 -5.77821E-004
  4.91520E+000	 -2.03822E-003	  7.17763E-004	 -5.29475E-003	 -4.49696E-004
  5.32480E+000	 -8.65903E-004	  2.06843E-003	 -5.20901E-003	 -1.06149E-003
  5.73440E+000	 -4.46427E-003	  4.02266E-003	 -9.70384E-004	 -2.65178E-003
  6.14400E+000	  4.89054E-003	 -5.27781E-003	  2.08365E-004	  3.89009E-004
  6.55360E+000	 -2.96862E-003	 -5.90508E-003	  1.16975E-003	 -3.39355E-003
  7.37280E+000	 -3.70645E-004	 -3.19356E-003	  1.72974E-003	 -3.53193E-003
  8.19200E+000	  3.31132E-003	  9.84698E-004	 -2.23201E-003	 -8.31076E-004
  9.01120E+000	 -1.51722E-003	  2.74236E-004	 -2.54755E-003	  4.38393E-004
  9.83040E+000	 -3.99989E-003	 -1.26132E-003	 -5.02906E-003	  2.13248E-003
  1.06496E+001	  4.04749E-003	  1.63702E-003	  2.66011E-003	  1.23361E-003
  1.14688E+001	  2.30046E-003	  1.03775E-005	  3.73149E-003	  2.02258E-003
  1.22880E+001	  1.11038E-003	  1.65587E-003	 -2.18804E-003	  1.19147E-003
  1.31072E+001	  3.81573E-004	 -4.43118E-004	 -2.92979E-003	  5.88858E-004
  1.47456E+001	  9.48185E-004	 -9.35172E-004	 -2.70628E-003	 -2.08883E-003
  1.63840E+001	  2.03760E-003	  1.82398E-003	  1.48315E-003	 -1.16567E-003
  1.80224E+001	  7.16777E-004	  9.49814E-004	  1.25425E-003	 -3.71686E-003
  1.96608E+001	  5.36085E-004	 -2.30428E-003	  1.45153E-003	 -8.65979E-004
  2.12992E+001	  1.79199E-003	  2.11562E-003	  1.82608E-003	 -1.25474E-003
  2.29376E+001	 -5.73231E-004	  2.63127E-003	 -2.12222E-003	  2.75230E-004
  2.45760E+001	 -1.02638E-003	  2.10993E-003	  1.30500E-003	 -9.20989E-004
  2.62144E+001	  1.43175E-004	  2.91606E-003	  8.88237E-004	 -2.00932E-003
  2.94912E+001	 -1.71535E-003	  3.68616E-004	  7.68644E-004	 -2.92206E-003
  3.27680E+001	 -2.31088E-003	  7.34845E-004	 -2.88747E-003	 -1.86078E-003
  3.60448E+001	 -2.68666E-004	 -8.61623E-004	  1.22291E-003	 -9.00965E-004
  3.93216E+001	  3.29153E-004	  1.97369E-004	 -9.40090E-004	  1.32472E-003
  4.25984E+001	 -3.23121E-004	 -1.40546E-003	 -2.20447E-003	  3.85984E-004
  4.58752E+001	 -1.87686E-004	 -1.37451E-003	  1.81904E-003	 -2.47288E-003
  4.91520E+001	 -1.14832E-003	  4.50618E-004	  3.73264E-004	  2.92181E-003
  5.24288E+001	 -3.15044E-003	 -3.61540E-005	  7.74130E-004	  1.09500E-003
  5.89824E+001	 -8.20360E-004	 -2.13886E-004	  4.39648E-004	  8.17246E-004
  6.55360E+001	 -8.76327E-004	 -1.04100E-003	 -1.40971E-003	  3.07945E-003
  7.20896E+001	 -4.02834E-003	 -3.65256E-004	 -3.23351E-004	 -4.16291E-004
  7.86432E+001	 -1.65503E-003	 -1.33359E-003	  6.68523E-004	  2.63543E-004
  8.51968E+001	 -2.20197E-003	  2.07829E-004	 -3.73349E-004	 -2.51501E-003
  9.17504E+001	 -1.34490E-003	  2.90209E-004	 -4.36700E-004	  3.93822E-004
  9.83040E+001	  7.75141E-005	  1.49675E-003	  1.59897E-003	  1.16603E-003
  1.04858E+002	  7.58340E-004	  3.51442E-004	  1.70647E-003	 -3.48991E-004
  1.17965E+002	 -9.41878E-004	  5.59617E-004	  2.60910E-004	  1.49301E-005
  1.31072E+002	  5.92138E-004	 -4.84974E-004	 -5.78971E-004	 -2.13986E-003
  1.44179E+002	  2.42499E-003	 -4.35483E-004	 -1.22714E-003	  1.32214E-003
  1.57286E+002	 -6.11634E-004	 -1.10466E-003	 -1.27297E-004	  6.87245E-004
  1.70394E+002	 -7.03451E-005	 -1.30538E-003	  2.61441E-004	 -7.40205E-004
  1.83501E+002	  2.62227E-004	  7.52323E-004	  7.23475E-004	  3.87281E-006
  1.96608E+002	 -4.42497E-004	 -8.25489E-004	 -6.46409E-004	 -1.88069E-003
  2.09715E+002	  1.23050E-004	  5.28034E-004	 -1.26288E-005	  4.65232E-005
  2.35930E+002	  1.53480E-003	  9.04244E-004	  2.22259E-004	  8.13650E-004
  2.62144E+002	  4.49938E-004	  2.57830E-004	 -1.64114E-005	 -9.61616E-004
  2.88358E+002	 -6.55144E-004	  1.35730E-005	  3.63210E-004	  8.11643E-004
  3.14573E+002	 -4.58719E-004	 -3.28165E-004	 -1.61282E-004	 -1.91487E-004
  3.40787E+002	 -5.96716E-004	  7.54110E-004	  4.01245E-004	 -1.44367E-004
  3.67002E+002	  1.44489E-003	 -4.08354E-004	  1.33522E-004	  4.36939E-004
  3.93216E+002	  1.07812E-003	 -1.08871E-003	  4.82430E-005	  1.88396E-004

"Count Rate"
       0.01311	      45.16602	      62.63733	      59.66187	      46.84448
       0.02621	      56.76270	      58.36487	      60.57739	      55.16052
       0.03932	      57.06787	      58.59375	      52.71912	      57.90710
       0.05243	      59.58557	      59.89075	      59.43298	      59.20410
       0.06554	      55.99976	      55.38940	      59.89075	      55.31311
       0.07864	      56.68640	      55.16052	      58.05969	      56.61011
       0.09175	      57.06787	      58.44116	      57.22046	      53.17688
       0.10486	      57.52563	      60.19592	      59.05151	      59.50928
       0.11796	      48.75183	      54.55017	      54.24500	      61.79810
       0.13107	      52.71912	      64.01062	      57.60193	      41.58020
       0.14418	      47.45483	      66.83350	      48.52295	      55.08423
       0.15729	      59.43298	      57.37305	      63.24768	      50.04883
       0.17039	      58.28857	      55.08423	      57.52563	      53.17688
       0.18350	      51.72729	      46.92078	      59.28040	      50.43030
       0.19661	      52.03247	      53.17688	      53.25317	      54.47388
       0.20972	      54.70276	      52.71912	      56.30493	      60.50110
       0.22282	      54.70276	      53.48206	      56.22864	      54.32129
       0.23593	      58.67004	      55.16052	      67.97791	      48.06519
       0.24904	      55.38940	      59.81445	      60.88257	      52.41394
       0.26214	      55.92346	      62.94250	      54.70276	      63.01880
       0.27525	      57.44934	      62.94250	      55.31311	      53.93982
       0.28836	      45.01343	      52.79541	      62.63733	      58.51746
       0.30147	      55.54199	      64.23950	      49.59106	      44.63196
       0.31457	      47.30225	      55.92346	      52.18506	      52.56653
       0.32768	      52.56653	      59.28040	      54.85535	      66.14685
       0.34079	      58.51746	      61.49292	      65.68909	      52.33765
       0.35389	      56.91528	      70.80078	      58.67004	      53.25317
       0.36700	      56.15234	      53.17688	      55.08423	      48.82813
       0.38011	      61.64551	      61.95068	      55.69458	      62.63733
       0.39322	      64.92615	      51.87988	      55.00793	      53.32947
       0.40632	      67.13867	      58.21228	      51.19324	      52.18506
       0.41943	      60.50110	      54.70276	      56.76270	      60.27222
       0.43254	      43.33496	      51.95618	      55.23682	      55.31311
       0.44564	      61.79810	      52.18506	      63.70544	      52.49023
       0.45875	      55.46570	      51.34583	      62.25586	      49.36218
       0.47186	      50.65918	      57.83081	      52.79541	      56.91528
       0.48497	      45.39490	      60.50110	      59.20410	      60.65369
       0.49807	      54.09241	      57.22046	      56.15234	      51.34583
       0.51118	      48.14148	      51.72729	      53.86353	      60.57739
       0.52429	      57.37305	      54.16870	      63.85803	      51.42212
       0.53740	      59.50928	      55.31311	      53.48206	      55.31311
       0.55050	      58.74634	      54.24500	      57.29675	      55.69458
       0.56361	      51.49841	      62.94250	      60.19592	      54.77905
       0.57672	      50.88806	      50.12512	      57.37305	      60.42480
       0.58982	      47.98889	      64.31580	      50.96436	      53.48206
       0.60293	      57.83081	      57.06787	      58.74634	      49.28589
       0.61604	      51.95618	      57.44934	      56.07605	      53.78723
       0.62915	      52.49023	      52.41394	      54.24500	      60.42480
       0.64225	      61.72180	      49.66736	      54.62646	      47.30225
       0.65536	      57.52563	      54.09241	      54.01611	      58.44116
       0.66847	      51.42212	      52.71912	      57.83081	      51.11694
       0.68157	      58.97522	      59.35669	      50.58289	      54.09241
       0.69468	      49.66736	      56.07605	      58.97522	      53.10059
       0.70779	      50.96436	      55.16052	      54.16870	      56.30493
       0.72090	      50.12512	      55.31311	      58.82263	      62.02698
       0.73400	      51.65100	      52.26135	      52.33765	      54.62646
       0.74711	      56.30493	      53.40576	      57.67822	      52.33765
