ALV-7004/USB-FAST
Date :	"11/11/2025"
Time :	"3:56:27 PM"
Samplename : 	""
SampMemo(0) : 	""
SampMemo(1) : 	""
SampMemo(2) : 	""
SampMemo(3) : 	""
SampMemo(4) : 	""
SampMemo(5) : 	""
SampMemo(6) : 	""
SampMemo(7) : 	""
SampMemo(8) : 	""
SampMemo(9) : 	""
Temperature [K] :	     298.16000
Viscosity [cp]  :	       0.89000
Refractive Index:	       1.33200
Wavelength [nm] :	       0.00000
Angle [°]       :	       0.00000
Duration [s]    :	         1
FloatDur [ms]   :	          944
Stop TP [ms]   :	     67126
Runs            :	         1
Mode            :	"A-CH0+1  A-CH2+3 "
MeanCR0 [kHz]   :	      53.77664
MeanCR1 [kHz]   :	      54.62434
MeanCR2 [kHz]   :	      53.14191
MeanCR3 [kHz]   :	      51.92015

"Correlation"
  3.12500E-006	 -1.00000E+000	 -1.00000E+000	 -1.00000E+000	 -1.00000E+000
  6.25000E-006	 -1.00000E+000	 -1.00000E+000	 -1.00000E+000	 -1.00000E+000
  9.37500E-006	 -1.00000E+000	 -1.00000E+000	 -1.00000E+000	 -1.00000E+000
  1.25000E-005	 -1.00000E+000	 -1.00000E+000	 -1.00000E+000	 -1.00000E+000
  1.56250E-005	 -1.00000E+000	 -1.00000E+000	 -1.00000E+000	 -1.00000E+000
  1.87500E-005	 -1.00000E+000	 -1.00000E+000	 -1.00000E+000	 -1.00000E+000
  2.18750E-005	 -7.65496E-001	  2.50051E-001	  1.52146E+000	 -6.22639E-001
  2.50000E-005	  1.15460E+001	  1.25233E+001	  1.17274E+001	  2.60442E+001
  2.81250E-005	  1.81405E+000	  1.72738E+000	  2.36195E+000	  1.08240E+001
  3.12500E-005	  1.34504E+000	  1.38646E+000	  1.04118E+000	  4.03148E+000
  3.43750E-005	  2.04855E+000	  1.15918E+000	  8.01045E-001	  5.28935E+000
  3.75000E-005	  1.46229E+000	  1.50010E+000	 -1.59513E-001	  4.28305E+000
  4.06250E-005	  5.52681E-002	  9.31897E-001	  1.04118E+000	  3.77991E+000
  4.37500E-005	  9.93284E-001	  5.90974E-001	  6.80975E-001	  2.64782E+000
  4.68750E-005	  8.76032E-001	  9.31897E-001	  1.28132E+000	  1.64153E+000
  5.00000E-005	  5.82902E-001	  9.88717E-001	  9.21114E-001	  2.27046E+000
  5.62500E-005	  1.69680E+000	  3.63692E-001	  1.46143E+000	  2.14467E+000
  6.25000E-005	  8.17406E-001	  3.63692E-001	  4.40836E-001	  2.14467E+000
  6.87500E-005	  7.58780E-001	  4.20512E-001	  5.00870E-001	  8.86805E-001
  7.50000E-005	  4.65650E-001	  3.06871E-001	  5.60905E-001	  1.20127E+000
  8.12500E-005	  7.00154E-001	  4.77333E-001	  8.61079E-001	  1.26417E+000
  8.75000E-005	  6.41528E-001	  5.34153E-001	  7.41010E-001	  6.98124E-001
  9.37500E-005	  4.07024E-001	  1.21600E+000	  3.20766E-001	  9.49698E-001
  1.00000E-004	  6.12215E-001	  8.46666E-001	  4.70853E-001	  8.55358E-001
  1.12500E-004	  2.31146E-001	  3.35282E-001	  7.41009E-001	  8.55358E-001
  1.25000E-004	  4.65650E-001	  5.05743E-001	  6.20940E-001	  6.03784E-001
  1.37500E-004	  2.01833E-001	  9.31897E-001	  2.60731E-001	  1.26417E+000
  1.50000E-004	  3.19085E-001	  5.05743E-001	  3.80801E-001	  8.86804E-001
  1.62500E-004	  6.12215E-001	  5.05743E-001	  5.00870E-001	  6.98124E-001
  1.75000E-004	  6.41528E-001	  3.63692E-001	  6.50957E-001	  6.66677E-001
  1.87500E-004	  4.07024E-001	  7.61435E-001	  9.51131E-001	  1.04404E+000
  2.00000E-004	  4.65650E-001	  7.18819E-001	  4.40835E-001	  6.50953E-001
  2.25000E-004	  5.97558E-001	  5.62563E-001	  4.55844E-001	  3.99380E-001
  2.50000E-004	  4.80306E-001	  6.47794E-001	  2.90748E-001	  5.40890E-001
  2.75000E-004	  7.73436E-001	  6.19384E-001	  6.95983E-001	  4.77996E-001
  3.00000E-004	  4.65650E-001	  4.34717E-001	  3.80800E-001	  6.19507E-001
  3.25000E-004	  7.44123E-001	  8.89281E-001	  4.55844E-001	  6.98124E-001
  3.50000E-004	  5.09619E-001	  4.06307E-001	  6.05931E-001	  4.46550E-001
  3.75000E-004	  4.07024E-001	  6.76204E-001	  6.65966E-001	  2.10699E-001
  4.00000E-004	  3.48397E-001	  7.33024E-001	  5.45895E-001	  4.22964E-001
  4.50000E-004	  4.72977E-001	  5.98075E-001	  4.10817E-001	  6.58814E-001
  5.00000E-004	  6.04886E-001	  5.34152E-001	  5.90921E-001	  4.54411E-001
  5.50000E-004	  5.53588E-001	  5.69665E-001	  4.63347E-001	  5.09443E-001
  6.00000E-004	  5.09618E-001	  5.41255E-001	  4.25826E-001	  4.07241E-001
  6.50000E-004	  6.41527E-001	  5.55460E-001	  5.90921E-001	  4.54411E-001
  7.00000E-004	  6.56183E-001	  7.61434E-001	  3.88304E-001	  3.60071E-001
  7.50000E-004	  3.55725E-001	  6.61998E-001	  5.68408E-001	  5.88059E-001
  8.00000E-004	  4.54655E-001	  5.51907E-001	  4.40833E-001	  6.31330E-001
  9.00000E-004	  5.31602E-001	  5.87420E-001	  4.48338E-001	  3.44374E-001
  1.00000E-003	  4.10686E-001	  5.37702E-001	  5.75911E-001	  5.60574E-001
  1.10000E-003	  5.71907E-001	  4.87984E-001	  4.37081E-001	  5.17334E-001
  1.20000E-003	  5.68243E-001	  4.87984E-001	  4.55842E-001	  4.93748E-001
  1.30000E-003	  5.05953E-001	  4.77331E-001	  5.42142E-001	  4.42646E-001
  1.40000E-003	  4.21678E-001	  5.44805E-001	  5.15877E-001	  5.68436E-001
  1.50000E-003	  4.47327E-001	  4.52472E-001	  3.99559E-001	  6.03814E-001
  1.60000E-003	  4.80302E-001	  5.48353E-001	  4.03309E-001	  4.81953E-001
  1.80000E-003	  4.27172E-001	  5.30597E-001	  4.55839E-001	  6.86360E-001
  2.00000E-003	  4.50989E-001	  4.73777E-001	  5.29007E-001	  5.48779E-001
  2.20000E-003	  4.78470E-001	  4.84431E-001	  4.57716E-001	  5.05539E-001
  2.40000E-003	  5.88393E-001	  5.16392E-001	  5.13998E-001	  5.90053E-001
  2.60000E-003	  5.48088E-001	  5.83866E-001	  4.70848E-001	  5.82191E-001
  2.80000E-003	  4.12516E-001	  5.19943E-001	  3.97681E-001	  4.76057E-001
  3.00000E-003	  4.58317E-001	  5.46578E-001	  4.23946E-001	  4.97677E-001
  3.20000E-003	  4.92205E-001	  5.56338E-001	  5.05551E-001	  5.28136E-001
  3.60000E-003	  5.44418E-001	  5.06621E-001	  4.53958E-001	  4.65242E-001
  4.00000E-003	  4.57396E-001	  5.84749E-001	  4.40826E-001	  5.58601E-001
  4.40000E-003	  5.18770E-001	  5.70544E-001	  4.61463E-001	  5.03568E-001
  4.80000E-003	  4.96785E-001	  5.19050E-001	  4.51144E-001	  5.14378E-001
  5.20000E-003	  4.98617E-001	  5.38582E-001	  4.56773E-001	  5.03568E-001
  5.60000E-003	  5.39838E-001	  5.85636E-001	  4.48330E-001	  5.54670E-001
  6.00000E-003	  4.52816E-001	  5.58114E-001	  5.00860E-001	  5.69411E-001
  6.40000E-003	  4.88531E-001	  5.33245E-001	  4.71331E-001	  5.35496E-001
  7.20000E-003	  5.06393E-001	  5.58547E-001	  4.53978E-001	  5.53676E-001
  8.00000E-003	  4.81690E-001	  5.07942E-001	  4.37562E-001	  5.42867E-001
  8.80000E-003	  4.90850E-001	  5.66538E-001	  4.76022E-001	  5.31074E-001
  9.60000E-003	  4.69810E-001	  5.15489E-001	  4.37562E-001	  5.32057E-001
  1.04000E-002	  5.00498E-001	  5.34577E-001	  4.08951E-001	  5.21247E-001
  1.12000E-002	  4.66604E-001	  5.15045E-001	  5.09323E-001	  5.55150E-001
  1.20000E-002	  5.32560E-001	  5.23923E-001	  5.21048E-001	  4.93731E-001
  1.28000E-002	  4.97272E-001	  5.43686E-001	  4.74653E-001	  5.25434E-001
  1.44000E-002	  5.02081E-001	  5.12390E-001	  4.37130E-001	  5.12904E-001
  1.60000E-002	  5.08493E-001	  5.44573E-001	  4.13210E-001	  4.96689E-001
  1.76000E-002	  4.67042E-001	  5.33254E-001	  4.48593E-001	  5.43123E-001
  1.92000E-002	  4.89027E-001	  5.47903E-001	  4.39447E-001	  5.49756E-001
  2.08000E-002	  4.81012E-001	  5.36805E-001	  4.25845E-001	  5.22486E-001
  2.24000E-002	  4.68187E-001	  5.39025E-001	  4.52111E-001	  5.26662E-001
  2.40000E-002	  4.57195E-001	  5.17051E-001	  4.57974E-001	  5.57618E-001
  2.56000E-002	  4.67804E-001	  5.17927E-001	  4.45094E-001	  5.54659E-001
  2.88000E-002	  4.91620E-001	  5.46781E-001	  4.33954E-001	  4.94099E-001
  3.20000E-002	  4.65514E-001	  5.17483E-001	  4.30671E-001	  5.23212E-001
  3.52000E-002	  4.77079E-001	  5.61289E-001	  4.29001E-001	  5.23827E-001
  3.84000E-002	  4.72957E-001	  5.26887E-001	  4.32547E-001	  5.07243E-001
  4.16000E-002	  4.78940E-001	  5.45197E-001	  4.46384E-001	  5.21861E-001
  4.48000E-002	  4.48024E-001	  5.15013E-001	  4.53038E-001	  5.00856E-001
  4.80000E-002	  4.69550E-001	  5.23558E-001	  4.22200E-001	  5.19036E-001
  5.12000E-002	  4.65463E-001	  5.28557E-001	  4.38006E-001	  5.20091E-001
  5.76000E-002	  4.88134E-001	  5.19931E-001	  4.41231E-001	  5.32223E-001
  6.40000E-002	  4.63746E-001	  5.22317E-001	  4.53192E-001	  5.15085E-001
  7.04000E-002	  4.68211E-001	  5.28532E-001	  4.33286E-001	  5.06916E-001
  7.68000E-002	  4.61055E-001	  5.13439E-001	  4.33842E-001	  4.97794E-001
  8.32000E-002	  4.71818E-001	  5.15714E-001	  4.27744E-001	  5.08114E-001
  8.96000E-002	  4.62601E-001	  5.12577E-001	  4.24901E-001	  5.07315E-001
  9.60000E-002	  4.64032E-001	  4.99926E-001	  4.31175E-001	  5.07530E-001
  1.02400E-001	  4.56947E-001	  4.88034E-001	  4.15411E-001	  5.02668E-001
  1.15200E-001	  4.52138E-001	  5.00823E-001	  4.20190E-001	  4.98152E-001
  1.28000E-001	  4.45727E-001	  4.99823E-001	  4.22446E-001	  4.92592E-001
  1.40800E-001	  4.43494E-001	  5.06620E-001	  4.19984E-001	  4.86693E-001
  1.53600E-001	  4.42292E-001	  4.93663E-001	  4.04534E-001	  4.93728E-001
  1.66400E-001	  4.27493E-001	  5.06507E-001	  4.18255E-001	  4.93851E-001
  1.79200E-001	  4.26118E-001	  4.88642E-001	  4.07314E-001	  4.71976E-001
  1.92000E-001	  4.27148E-001	  4.82121E-001	  3.98283E-001	  4.75294E-001
  2.04800E-001	  4.30900E-001	  4.80337E-001	  3.94393E-001	  4.75556E-001
  2.30400E-001	  4.18193E-001	  4.57953E-001	  3.96547E-001	  4.63802E-001
  2.56000E-001	  4.12038E-001	  4.57454E-001	  3.78141E-001	  4.48325E-001
  2.81600E-001	  3.96550E-001	  4.40089E-001	  3.72658E-001	  4.46223E-001
  3.07200E-001	  3.83078E-001	  4.39839E-001	  3.63165E-001	  4.41846E-001
  3.32800E-001	  3.77622E-001	  4.29477E-001	  3.52111E-001	  4.29402E-001
  3.58400E-001	  3.74439E-001	  4.20779E-001	  3.54641E-001	  4.28422E-001
  3.84000E-001	  3.61254E-001	  4.09099E-001	  3.33750E-001	  4.13626E-001
  4.09600E-001	  3.57196E-001	  3.94346E-001	  3.27005E-001	  4.09540E-001
  4.60800E-001	  3.39683E-001	  3.77849E-001	  3.07981E-001	  3.93259E-001
  5.12000E-001	  3.21754E-001	  3.64697E-001	  2.94573E-001	  3.74741E-001
  5.63200E-001	  3.02788E-001	  3.52923E-001	  2.75709E-001	  3.59389E-001
  6.14400E-001	  2.86708E-001	  3.33747E-001	  2.61294E-001	  3.49869E-001
  6.65600E-001	  2.68065E-001	  3.20929E-001	  2.37466E-001	  3.26948E-001
  7.16800E-001	  2.54970E-001	  3.02525E-001	  2.26830E-001	  3.15366E-001
  7.68000E-001	  2.39267E-001	  2.88327E-001	  2.09854E-001	  3.01953E-001
  8.19200E-001	  2.25783E-001	  2.73800E-001	  1.93464E-001	  2.90507E-001
  9.21600E-001	  2.03846E-001	  2.44833E-001	  1.75854E-001	  2.67919E-001
  1.02400E+000	  1.76927E-001	  2.23661E-001	  1.50580E-001	  2.43980E-001
  1.12640E+000	  1.57913E-001	  1.90132E-001	  1.34029E-001	  2.24826E-001
  1.22880E+000	  1.41903E-001	  1.75596E-001	  1.16918E-001	  2.09049E-001
  1.33120E+000	  1.21715E-001	  1.60298E-001	  1.09755E-001	  1.92316E-001
  1.43360E+000	  1.07373E-001	  1.45907E-001	  9.56594E-002	  1.76922E-001
  1.53600E+000	  9.96776E-002	  1.32571E-001	  8.85267E-002	  1.59399E-001
  1.63840E+000	  9.06881E-002	  1.21362E-001	  7.95984E-002	  1.49178E-001
  1.84320E+000	  7.67268E-002	  1.03015E-001	  6.37224E-002	  1.25430E-001
  2.04800E+000	  6.67600E-002	  8.28749E-002	  4.93453E-002	  1.01495E-001
  2.25280E+000	  6.20106E-002	  6.68380E-002	  3.92388E-002	  8.18246E-002
  2.45760E+000	  5.62129E-002	  5.53267E-002	  3.05869E-002	  6.02017E-002
  2.66240E+000	  5.73790E-002	  4.27721E-002	  2.45084E-002	  4.18881E-002
  2.86720E+000	  5.41701E-002	  3.15021E-002	  2.74062E-002	  3.08200E-002
  3.07200E+000	  5.26712E-002	  3.10722E-002	  2.69041E-002	  1.88018E-002
  3.27680E+000	  4.55926E-002	  2.68129E-002	  2.79447E-002	  1.05011E-002
  3.68640E+000	  2.64127E-002	  1.82559E-002	  3.02909E-002	 -9.65752E-003
  4.09600E+000	  1.07164E-002	  1.34718E-002	  3.03911E-002	 -2.57406E-002
  4.50560E+000	 -5.11203E-003	  1.10970E-002	  2.87124E-002	 -3.23016E-002
  4.91520E+000	 -5.96991E-003	  1.54868E-002	  2.43324E-002	 -4.00717E-002
  5.32480E+000	  4.43569E-003	  2.33924E-002	  1.99668E-002	 -3.75910E-002
  5.73440E+000	  7.24300E-003	  2.51568E-002	  1.18757E-002	 -3.65402E-002
  6.14400E+000	  7.22231E-003	  2.01592E-002	  1.50196E-002	 -3.11925E-002
  6.55360E+000	  2.54864E-003	  1.88350E-002	  1.17461E-002	 -2.33856E-002
  7.37280E+000	 -4.07112E-003	  9.05554E-003	  1.52236E-003	 -1.12259E-002
  8.19200E+000	 -9.09621E-003	 -5.55373E-004	 -1.22195E-002	  7.03433E-003
  9.01120E+000	 -1.16151E-003	 -8.94046E-003	 -1.78730E-002	  1.79446E-002
  9.83040E+000	  2.45274E-003	 -1.02218E-003	 -1.71524E-002	  1.37431E-002
  1.06496E+001	 -7.29818E-004	  3.51860E-003	 -1.66133E-002	 -1.89954E-002
  1.14688E+001	 -1.65588E-003	  1.52710E-002	 -1.47098E-002	 -4.15325E-002
  1.22880E+001	 -6.27637E-004	  1.41900E-002	 -1.27636E-002	 -3.89483E-002
  1.31072E+001	 -6.84020E-003	  9.48432E-003	 -8.81997E-003	 -2.06176E-002
  1.47456E+001	 -2.05376E-002	 -5.32587E-003	 -2.75436E-002	 -1.70536E-002
  1.63840E+001	 -1.71515E-002	 -1.80255E-002	 -2.06310E-002	 -1.82294E-002
  1.80224E+001	  4.55788E-003	 -4.31574E-003	 -2.11044E-002	 -2.52574E-002
  1.96608E+001	 -4.08274E-003	  9.34166E-003	 -2.77986E-002	  1.15550E-002
  2.12992E+001	  2.23846E-002	  2.23787E-002	 -1.19134E-002	  1.84988E-002
  2.29376E+001	  2.29313E-002	 -6.05653E-003	 -5.05745E-003	  1.06443E-002
  2.45760E+001	  2.63878E-002	 -1.50148E-002	 -2.11191E-003	 -1.16779E-002
  2.62144E+001	  1.39000E-002	 -9.50691E-003	 -1.86168E-003	  4.07524E-003
  2.94912E+001	  5.77449E-003	 -3.35955E-002	  1.38979E-002	  6.99764E-003
  3.27680E+001	 -1.91339E-002	 -2.14414E-002	  6.49788E-003	  9.04343E-003
  3.60448E+001	 -7.00331E-003	 -2.12182E-002	 -8.87328E-003	 -7.12534E-003
  3.93216E+001	  2.93317E-002	 -2.48568E-002	 -2.07307E-003	 -3.83642E-002
  4.25984E+001	  7.86835E-003	 -1.81157E-002	 -5.90078E-003	 -8.89407E-003
  4.58752E+001	  2.62437E-002	 -1.05021E-002	  7.37436E-004	  2.35326E-003
  4.91520E+001	  2.53371E-002	 -1.71733E-002	 -7.47858E-003	  2.03707E-003
  5.24288E+001	  4.61621E-003	  3.79972E-003	  6.84700E-004	  1.84743E-002
  5.89824E+001	 -3.73490E-003	  1.22807E-002	  7.84002E-003	  6.77739E-003
  6.55360E+001	  2.48378E-002	 -6.94794E-003	 -1.38868E-002	 -9.92368E-003
  7.20896E+001	 -2.13515E-002	  1.59732E-002	 -9.58808E-003	 -1.66326E-002
  7.86432E+001	 -4.78414E-003	  9.10373E-003	 -1.53492E-002	  2.16383E-002
  8.51968E+001	  2.80686E-003	  6.33719E-003	  6.75425E-003	  1.67060E-002
  9.17504E+001	  1.42008E-004	 -8.91747E-004	 -3.51087E-003	 -1.29371E-003
  9.83040E+001	 -6.10043E-003	 -1.43488E-002	 -7.86117E-003	 -3.06293E-002
  1.04858E+002	  5.37653E-003	 -3.95716E-003	 -1.00652E-004	 -1.67542E-002
  1.17965E+002	 -1.25271E-002	 -1.38493E-002	  6.74836E-004	 -7.27776E-004
  1.31072E+002	  8.39230E-003	  1.68357E-002	  1.03604E-002	 -2.16012E-003
  1.44179E+002	  1.31094E-002	 -1.38306E-002	 -6.26153E-003	  2.18399E-002
  1.57286E+002	 -1.37446E-002	  3.59766E-003	  1.31132E-002	  1.00278E-002
  1.70394E+002	  7.05887E-003	  4.48336E-003	 -2.57438E-003	 -1.81947E-002
  1.83501E+002	  2.17733E-003	  1.58247E-003	 -7.34580E-003	 -6.56417E-003
  1.96608E+002	  2.22906E-003	 -2.53425E-002	 -9.48028E-003	 -1.76578E-003
  2.09715E+002	  2.80903E-003	 -2.19625E-002	  5.37873E-003	  5.75745E-004
  2.35930E+002	 -6.27670E-003	  1.38405E-002	 -5.04480E-003	  2.49946E-003
  2.62144E+002	  2.87354E-004	 -4.64390E-003	 -1.08142E-003	 -1.19394E-002
  2.88358E+002	  3.29811E-004	 -5.96598E-003	  3.36371E-003	  4.20859E-003
  3.14573E+002	 -4.84056E-003	  1.04729E-002	 -5.42184E-004	 -2.26661E-003
  3.40787E+002	  1.07410E-003	 -5.27226E-003	  4.78525E-003	 -5.45371E-003
  3.67002E+002	 -1.25132E-002	  2.66698E-003	 -3.29924E-003	 -6.14807E-003
  3.93216E+002	 -1.20749E-002	  1.53054E-002	 -4.77592E-003	  3.36764E-003

"Count Rate"
       0.01311	      46.84448	      44.55566	      86.05957	      43.64014
       0.02621	      58.05969	      87.35657	      48.98071	      65.30762
       0.03932	      38.68103	      77.51465	      70.34302	      40.74097
       0.05243	      48.44666	      49.13330	      36.77368	      71.02966
       0.06554	      35.62927	      57.75452	      88.88245	      42.19055
       0.07864	      44.78455	      48.52295	      57.67822	      73.69995
       0.09175	      51.42212	      43.64014	      41.35132	      61.34033
       0.10486	      60.80627	      32.42493	      49.59106	      54.39758
       0.11796	      58.05969	      41.58020	      44.09790	      49.51477
       0.13107	      66.75720	      51.26953	      38.68103	      47.76001
       0.14418	      38.45215	      90.71350	      52.87170	      43.94531
       0.15729	      85.60181	      47.68372	      76.75171	      60.80627
       0.17039	      32.11975	      45.24231	      33.34045	      44.32678
       0.18350	      65.38391	      42.95349	      73.24219	      99.02954
       0.19661	      42.64832	      83.99963	      58.59375	      32.95898
       0.20972	      33.56934	      27.61841	      62.10327	      46.53931
       0.22282	      83.54187	      44.70825	      37.76550	      37.76550
       0.23593	      39.52026	      40.66467	      56.61011	      68.81714
       0.24904	      29.37317	      51.04065	      40.35950	      53.32947
       0.26214	      54.47388	      50.43030	      45.92896	      40.74097
       0.27525	      37.91809	      84.30481	      50.27771	      38.68103
       0.28836	      35.78186	      47.91260	      45.85266	      32.19604
       0.30147	      54.16870	      64.54468	      58.59375	      61.11145
       0.31457	      31.81458	      52.94800	      71.79260	      59.81445
       0.32768	      45.85266	      84.38110	      65.07874	      50.65918
       0.34079	      53.25317	      30.36499	      55.69458	      38.29956
       0.35389	      56.53381	      56.76270	      47.07336	      30.05981
       0.36700	      49.81995	      77.59094	      64.31580	      53.17688
       0.38011	      34.94263	      52.79541	      40.51208	      55.23682
       0.39322	      58.82263	      53.17688	      38.52844	      51.49841
       0.40632	      47.14966	      59.05151	      44.55566	      48.67554
       0.41943	      41.27502	      55.92346	      46.15784	      57.60193
       0.43254	      51.49841	      56.91528	      48.14148	      31.96716
       0.44564	      60.04333	      71.79260	      72.86072	      48.90442
       0.45875	      59.12781	      46.38672	      45.77637	      70.34302
       0.47186	      55.61829	      35.70557	      43.86902	      58.97522
       0.48497	      37.38403	      33.11157	      38.90991	      25.48218
       0.49807	      72.55554	      59.73816	      82.77893	      39.13879
       0.51118	      60.04333	      47.07336	      36.84998	      55.00793
       0.52429	      52.10876	      65.00244	      62.25586	      50.65918
       0.53740	      47.98889	      30.89905	      56.15234	      49.43848
       0.55050	      41.27502	      52.49023	      47.22595	      49.97253
       0.56361	      55.46570	      37.00256	      54.93164	      59.28040
       0.57672	      59.89075	      56.91528	      42.49573	      50.88806
       0.58982	      42.19055	      42.03796	      60.95886	      48.06519
       0.60293	      71.02966	      63.09509	      52.49023	      63.78174
       0.61604	      66.52832	      39.67285	      34.40857	      67.36755
       0.62915	      60.11963	      45.85266	      59.89075	      69.96155
       0.64225	      61.34033	      41.73279	      51.19324	      30.13611
       0.65536	     115.66162	      39.21509	      86.89880	      79.49829
       0.66847	      45.08972	      57.98340	      41.96167	      36.31592
       0.68157	      61.41663	      91.55273	      45.47119	      38.83362
       0.69468	      77.20947	      67.74902	      48.98071	      31.12793
       0.70779	      73.16589	      43.02979	      62.48474	      62.94250
       0.72090	      45.01343	      30.28870	      41.35132	      29.22058
       0.73400	      37.99438	      56.22864	      52.64282	      77.66724
       0.74711	      46.92078	      68.13049	      74.84436	      52.03247
