ALV-7004/USB-FAST
Date :	"11/11/2025"
Time :	"3:53:02 PM"
Samplename : 	""
SampMemo(0) : 	""
SampMemo(1) : 	""
SampMemo(2) : 	""
SampMemo(3) : 	""
SampMemo(4) : 	""
SampMemo(5) : 	""
SampMemo(6) : 	""
SampMemo(7) : 	""
SampMemo(8) : 	""
SampMemo(9) : 	""
Temperature [K] :	     298.16000
Viscosity [cp]  :	       0.89000
Refractive Index:	       1.33200
Wavelength [nm] :	       0.00000
Angle [°]       :	       0.00000
Duration [s]    :	         1
FloatDur [ms]   :	          944
Stop TP [ms]   :	     58068
Runs            :	         1
Mode            :	"A-CH0+1  A-CH2+3 "
MeanCR0 [kHz]   :	      57.55636
MeanCR1 [kHz]   :	      58.77177
MeanCR2 [kHz]   :	      58.80356
MeanCR3 [kHz]   :	      56.90575

"Correlation"
  3.12500E-006	 -1.00000E+000	 -1.00000E+000	 -1.00000E+000	 -1.00000E+000
  6.25000E-006	 -1.00000E+000	 -1.00000E+000	 -1.00000E+000	 -1.00000E+000
  9.37500E-006	 -1.00000E+000	 -1.00000E+000	 -1.00000E+000	 -1.00000E+000
  1.25000E-005	 -1.00000E+000	 -1.00000E+000	 -1.00000E+000	 -1.00000E+000
  1.56250E-005	 -1.00000E+000	 -1.00000E+000	 -1.00000E+000	 -1.00000E+000
  1.87500E-005	 -1.00000E+000	 -1.00000E+000	 -1.00000E+000	 -1.00000E+000
  2.18750E-005	 -7.95284E-001	  3.74352E-001	  1.45155E+000	 -6.85865E-001
  2.50000E-005	  1.28183E+001	  1.42160E+001	  1.24345E+001	  2.60156E+001
  2.81250E-005	  3.70846E+000	  1.84687E+000	  2.23604E+000	  8.21463E+000
  3.12500E-005	  2.17309E+000	  8.65192E-001	  7.65114E-001	  4.86386E+000
  3.43750E-005	  8.42440E-001	  1.45420E+000	  1.54961E+000	  4.75914E+000
  3.75000E-005	  1.55894E+000	  1.15970E+000	  1.15736E+000	  3.39789E+000
  4.06250E-005	  3.30651E-001	  3.74352E-001	  6.67052E-001	  2.56020E+000
  4.37500E-005	  1.45659E+000	  2.76184E-001	  6.67052E-001	  2.97905E+000
  4.68750E-005	  1.25187E+000	  1.25786E+000	  1.64767E+000	  2.66491E+000
  5.00000E-005	  6.37724E-001	  3.74352E-001	  6.18021E-001	  2.82198E+000
  5.62500E-005	  7.40082E-001	  4.72520E-001	  3.72867E-001	  2.24606E+000
  6.25000E-005	  3.30651E-001	  5.70688E-001	  8.63176E-001	  1.30366E+000
  6.87500E-005	  4.33009E-001	  7.67024E-001	  1.76743E-001	  6.75387E-001
  7.50000E-005	  5.86545E-001	  3.25268E-001	  7.86809E-002	  1.72250E+000
  8.12500E-005	  1.25187E+000	  4.23436E-001	  7.16083E-001	  1.09423E+000
  8.75000E-005	  1.09833E+000	  1.40512E+000	  6.67052E-001	  1.40837E+000
  9.37500E-005	  4.84188E-001	  2.76184E-001	  4.70928E-001	  9.37167E-001
  1.00000E-004	  3.56240E-001	  4.72520E-001	  4.46413E-001	  1.14659E+000
  1.12500E-004	  5.60956E-001	  4.72520E-001	  5.68990E-001	  1.01570E+000
  1.25000E-004	  8.16850E-001	  6.44314E-001	  5.44475E-001	  9.63344E-001
  1.37500E-004	  5.09777E-001	  5.70688E-001	  4.46413E-001	  5.70675E-001
  1.50000E-004	  1.51525E-001	  5.46146E-001	  6.18021E-001	  1.06806E+000
  1.62500E-004	  8.68029E-001	  5.21604E-001	  2.25774E-001	  7.53921E-001
  1.75000E-004	  3.30651E-001	  1.01244E+000	  5.68990E-001	  1.14659E+000
  1.87500E-004	  6.37724E-001	  5.95230E-001	  9.36722E-001	  5.44498E-001
  2.00000E-004	  4.58598E-001	  7.30211E-001	  5.44474E-001	  4.92141E-001
  2.25000E-004	  5.22571E-001	  4.23436E-001	  4.95443E-001	  5.18319E-001
  2.50000E-004	  5.86545E-001	  5.21604E-001	  6.42536E-001	  5.70675E-001
  2.75000E-004	  5.22571E-001	  6.32043E-001	  5.07701E-001	  7.27743E-001
  3.00000E-004	  4.45803E-001	  5.33875E-001	  5.93505E-001	  7.53921E-001
  3.25000E-004	  5.60955E-001	  4.11165E-001	  3.97382E-001	  4.92141E-001
  3.50000E-004	  3.43445E-001	  4.35707E-001	  4.95443E-001	  6.49209E-001
  3.75000E-004	  6.76108E-001	  4.84791E-001	  4.70928E-001	  4.65964E-001
  4.00000E-004	  6.24928E-001	  4.41842E-001	  5.32216E-001	  6.03397E-001
  4.50000E-004	  7.59273E-001	  4.90926E-001	  6.11891E-001	  6.88475E-001
  5.00000E-004	  5.67352E-001	  5.46145E-001	  4.09639E-001	  4.59418E-001
  5.50000E-004	  4.96981E-001	  4.17300E-001	  4.46412E-001	  4.39785E-001
  6.00000E-004	  5.16173E-001	  7.11803E-001	  5.93505E-001	  4.26696E-001
  6.50000E-004	  6.18531E-001	  3.55945E-001	  7.09922E-001	  5.51041E-001
  7.00000E-004	  4.84187E-001	  4.72519E-001	  4.40257E-001	  3.28529E-001
  7.50000E-004	  4.64994E-001	  4.72519E-001	  4.34128E-001	  4.72507E-001
  8.00000E-004	  4.68192E-001	  4.41840E-001	  4.46411E-001	  4.49600E-001
  9.00000E-004	  4.10616E-001	  5.64550E-001	  5.32215E-001	  5.96851E-001
  1.00000E-003	  5.12973E-001	  5.30805E-001	  4.58668E-001	  4.82323E-001
  1.10000E-003	  6.08934E-001	  5.76821E-001	  3.66736E-001	  6.26301E-001
  1.20000E-003	  4.77788E-001	  4.05027E-001	  5.26086E-001	  6.09940E-001
  1.30000E-003	  4.84185E-001	  5.52279E-001	  5.50601E-001	  4.88867E-001
  1.40000E-003	  4.39404E-001	  5.30805E-001	  3.85122E-001	  4.65962E-001
  1.50000E-003	  5.09775E-001	  4.47976E-001	  5.04608E-001	  4.23423E-001
  1.60000E-003	  4.60193E-001	  4.67940E-001	  4.35683E-001	  5.57582E-001
  1.80000E-003	  5.43358E-001	  4.00449E-001	  5.23019E-001	  4.31601E-001
  2.00000E-003	  4.53795E-001	  4.15788E-001	  4.37215E-001	  4.28329E-001
  2.20000E-003	  4.55395E-001	  3.78974E-001	  4.73988E-001	  5.03590E-001
  2.40000E-003	  4.13812E-001	  3.55966E-001	  3.95845E-001	  4.87229E-001
  2.60000E-003	  3.70630E-001	  4.86347E-001	  5.07697E-001	  4.62687E-001
  2.80000E-003	  4.96977E-001	  3.91245E-001	  4.35683E-001	  4.07059E-001
  3.00000E-003	  3.61034E-001	  4.28059E-001	  4.31086E-001	  4.31601E-001
  3.20000E-003	  4.86577E-001	  4.56457E-001	  4.24978E-001	  4.17689E-001
  3.60000E-003	  3.98614E-001	  4.41885E-001	  4.31873E-001	  4.48775E-001
  4.00000E-003	  4.29001E-001	  3.90499E-001	  3.88971E-001	  4.38958E-001
  4.40000E-003	  4.04211E-001	  4.28821E-001	  3.78245E-001	  4.11145E-001
  4.80000E-003	  4.53790E-001	  4.75605E-001	  4.05825E-001	  4.39776E-001
  5.20000E-003	  4.00213E-001	  3.97376E-001	  4.88566E-001	  4.31596E-001
  5.60000E-003	  4.29001E-001	  4.13482E-001	  4.28809E-001	  4.11963E-001
  6.00000E-003	  4.29001E-001	  4.18851E-001	  4.51792E-001	  4.78225E-001
  6.40000E-003	  4.04602E-001	  4.29220E-001	  3.90518E-001	  4.22205E-001
  7.20000E-003	  3.77413E-001	  4.03911E-001	  4.02776E-001	  4.50428E-001
  8.00000E-003	  3.71016E-001	  3.53292E-001	  3.99712E-001	  4.22205E-001
  8.80000E-003	  3.75439E-001	  3.75150E-001	  3.70982E-001	  4.07480E-001
  9.60000E-003	  4.06627E-001	  4.06979E-001	  4.14243E-001	  4.02572E-001
  1.04000E-002	  3.35056E-001	  3.64029E-001	  3.60232E-001	  3.57578E-001
  1.12000E-002	  3.54248E-001	  4.15006E-001	  3.42994E-001	  4.13206E-001
  1.20000E-002	  3.81037E-001	  3.84329E-001	  3.63679E-001	  4.00117E-001
  1.28000E-002	  3.69848E-001	  3.53082E-001	  3.67732E-001	  4.00738E-001
  1.44000E-002	  3.67274E-001	  3.59409E-001	  3.67732E-001	  3.69242E-001
  1.60000E-002	  3.67674E-001	  3.62477E-001	  3.54517E-001	  4.20754E-001
  1.76000E-002	  3.59078E-001	  3.36401E-001	  3.57198E-001	  3.81283E-001
  1.92000E-002	  3.22492E-001	  3.33716E-001	  3.46855E-001	  3.66558E-001
  2.08000E-002	  3.11896E-001	  3.19528E-001	  3.23895E-001	  3.68194E-001
  2.24000E-002	  3.37286E-001	  3.34292E-001	  3.36704E-001	  3.77193E-001
  2.40000E-002	  2.78109E-001	  3.26790E-001	  3.38236E-001	  3.38335E-001
  2.56000E-002	  3.00713E-001	  3.01252E-001	  3.21536E-001	  3.37429E-001
  2.88000E-002	  2.92916E-001	  2.93870E-001	  2.96179E-001	  3.30602E-001
  3.20000E-002	  2.93415E-001	  2.93103E-001	  2.73119E-001	  3.19047E-001
  3.52000E-002	  2.62404E-001	  2.69807E-001	  2.71322E-001	  2.98288E-001
  3.84000E-002	  2.56506E-001	  2.53892E-001	  2.59135E-001	  2.93891E-001
  4.16000E-002	  2.45034E-001	  2.67410E-001	  2.51760E-001	  2.93073E-001
  4.48000E-002	  2.36182E-001	  2.68656E-001	  2.55112E-001	  2.70167E-001
  4.80000E-002	  2.27985E-001	  2.33855E-001	  2.32699E-001	  2.64849E-001
  5.12000E-002	  2.25315E-001	  2.19798E-001	  2.35556E-001	  2.51990E-001
  5.76000E-002	  1.87228E-001	  2.08079E-001	  2.02819E-001	  2.25095E-001
  6.40000E-002	  1.84001E-001	  2.05155E-001	  1.98970E-001	  1.95848E-001
  7.04000E-002	  1.55340E-001	  1.63064E-001	  1.72409E-001	  1.97762E-001
  7.68000E-002	  1.48913E-001	  1.79225E-001	  1.60318E-001	  1.74906E-001
  8.32000E-002	  1.43565E-001	  1.53098E-001	  1.48297E-001	  1.54526E-001
  8.96000E-002	  1.40145E-001	  1.63693E-001	  1.47797E-001	  1.34738E-001
  9.60000E-002	  1.41045E-001	  1.36752E-001	  1.16617E-001	  1.47184E-001
  1.02400E-001	  1.16563E-001	  1.20706E-001	  1.14180E-001	  1.29634E-001
  1.15200E-001	  9.29943E-002	  1.05388E-001	  1.06910E-001	  1.16219E-001
  1.28000E-001	  9.32644E-002	  9.47083E-002	  7.14446E-002	  1.08947E-001
  1.40800E-001	  8.27871E-002	  7.90594E-002	  7.71589E-002	  8.54470E-002
  1.53600E-001	  5.60130E-002	  6.11051E-002	  5.77105E-002	  6.86410E-002
  1.66400E-001	  5.61908E-002	  6.04578E-002	  5.94110E-002	  5.27925E-002
  1.79200E-001	  5.19165E-002	  4.94122E-002	  4.49736E-002	  4.98774E-002
  1.92000E-001	  4.60231E-002	  4.45462E-002	  3.89380E-002	  4.57860E-002
  2.04800E-001	  3.67696E-002	  3.95672E-002	  4.14070E-002	  3.54569E-002
  2.30400E-001	  4.09581E-002	  2.50384E-002	  2.66733E-002	  2.60636E-002
  2.56000E-001	  3.60953E-002	  1.72169E-002	  1.51038E-002	  2.67605E-002
  2.81600E-001	  1.92569E-002	  2.08612E-002	  9.64773E-003	  2.26045E-002
  3.07200E-001	  3.67448E-003	  1.10720E-002	  8.18647E-003	  3.04820E-002
  3.32800E-001	  1.61316E-002	  1.91390E-002	  1.56598E-002	  2.71573E-002
  3.58400E-001	  2.09878E-003	  9.55543E-003	  8.14969E-003	  1.44978E-002
  3.84000E-001	  5.23600E-004	  7.61363E-003	  4.46614E-003	  1.30912E-002
  4.09600E-001	 -8.77794E-004	  1.09777E-002	  4.58010E-003	  8.89874E-003
  4.60800E-001	 -7.08598E-004	  6.22419E-003	  5.97202E-004	  8.87237E-003
  5.12000E-001	 -2.70197E-003	  3.62248E-003	  2.75919E-003	  5.82212E-003
  5.63200E-001	  2.33211E-003	  4.18039E-003	  3.87367E-004	  7.14077E-003
  6.14400E-001	  1.99563E-003	  1.09733E-002	 -1.08054E-002	  9.09859E-003
  6.65600E-001	 -7.50736E-003	  7.20283E-003	 -8.48775E-003	  1.13627E-002
  7.16800E-001	  6.50684E-004	  7.63365E-004	 -9.96130E-003	  4.66066E-003
  7.68000E-001	  6.07769E-003	  8.74861E-003	 -4.87661E-003	 -2.64553E-004
  8.19200E-001	  2.25140E-003	  7.80893E-003	 -3.05244E-003	  7.52041E-003
  9.21600E-001	 -4.34426E-003	  6.52038E-003	 -2.39295E-003	  9.33462E-003
  1.02400E+000	 -2.84625E-003	  4.28041E-003	 -3.26827E-003	 -2.11834E-003
  1.12640E+000	 -3.79079E-003	  1.58591E-003	 -4.85124E-003	 -7.04562E-003
  1.22880E+000	  5.54139E-003	 -1.06607E-003	 -2.43291E-004	 -8.21872E-003
  1.33120E+000	  9.15391E-003	  2.26133E-003	 -1.01086E-003	 -8.45767E-003
  1.43360E+000	  1.56116E-002	  9.40856E-003	  1.85830E-003	 -8.39367E-003
  1.53600E+000	  9.89114E-003	  1.02421E-002	  5.43507E-003	  1.10360E-004
  1.63840E+000	  6.64340E-003	  3.18331E-003	  3.26059E-003	 -3.28482E-003
  1.84320E+000	  1.80234E-003	 -4.87601E-003	  1.57363E-003	  3.20885E-003
  2.04800E+000	 -1.44437E-004	  3.60307E-003	 -1.86492E-003	 -6.13727E-003
  2.25280E+000	  2.60347E-003	  1.85480E-003	  6.16747E-003	 -2.12446E-003
  2.45760E+000	 -1.53257E-003	 -3.47382E-003	  3.69711E-003	  3.04412E-003
  2.66240E+000	 -2.31337E-003	  7.82375E-004	  1.31029E-003	  7.99228E-003
  2.86720E+000	  5.71984E-003	 -1.51361E-003	  5.86112E-003	  7.07159E-003
  3.07200E+000	 -6.93368E-004	 -5.64857E-004	 -3.93756E-003	 -3.16499E-003
  3.27680E+000	 -1.18159E-004	  3.28959E-004	 -1.28645E-003	 -1.12437E-003
  3.68640E+000	 -1.12618E-003	  1.08314E-003	  4.63961E-003	  4.11739E-003
  4.09600E+000	  2.18334E-003	  6.40102E-003	  2.88876E-003	  4.85505E-004
  4.50560E+000	 -3.04917E-003	  3.46710E-005	 -6.94884E-003	  5.37685E-003
  4.91520E+000	 -1.11299E-003	  8.37602E-003	 -2.63439E-003	 -5.11906E-004
  5.32480E+000	  3.32301E-004	 -7.73632E-004	 -4.34079E-003	 -3.66108E-003
  5.73440E+000	 -7.05336E-004	  2.15924E-003	  1.54307E-003	 -6.29176E-003
  6.14400E+000	 -1.29595E-003	  4.09328E-003	 -1.67915E-003	 -3.36239E-003
  6.55360E+000	  9.58904E-004	  1.26552E-003	  6.99943E-004	  1.46989E-004
  7.37280E+000	  1.49488E-004	  2.58479E-003	  1.56816E-003	 -4.95964E-004
  8.19200E+000	  2.22679E-003	  1.57973E-003	  1.01104E-003	 -6.34974E-004
  9.01120E+000	 -2.23727E-005	  4.80650E-003	  7.28913E-004	 -2.99019E-003
  9.83040E+000	  4.63611E-003	  3.85658E-004	 -3.81830E-004	  2.31343E-003
  1.06496E+001	 -4.63713E-003	  2.61229E-003	 -6.21051E-004	 -1.97281E-003
  1.14688E+001	  1.82091E-003	 -3.92513E-003	 -1.12249E-004	 -1.80490E-003
  1.22880E+001	  6.50266E-004	  5.02784E-003	 -6.28538E-003	  3.99433E-003
  1.31072E+001	 -6.56265E-005	  8.55298E-004	 -5.14039E-003	  4.33572E-003
  1.47456E+001	 -2.68073E-003	 -3.44889E-004	 -3.16282E-003	 -9.01057E-004
  1.63840E+001	 -1.89804E-003	  6.12304E-003	  3.64537E-003	  1.16470E-004
  1.80224E+001	 -1.06162E-003	 -2.20925E-004	 -3.13835E-003	  9.94653E-004
  1.96608E+001	 -1.76093E-003	 -1.29152E-003	 -1.14567E-003	 -7.97940E-003
  2.12992E+001	  9.66092E-004	 -3.46746E-004	 -1.15093E-003	  3.61809E-003
  2.29376E+001	 -1.90227E-003	  4.58986E-003	 -2.52160E-004	  5.58955E-003
  2.45760E+001	  4.52134E-004	 -8.76443E-005	  1.25530E-003	  6.34639E-004
  2.62144E+001	  2.62164E-004	 -1.80887E-003	  1.03292E-003	  2.11493E-003
  2.94912E+001	  5.67449E-004	 -1.30718E-003	 -8.60680E-004	 -1.29675E-003
  3.27680E+001	  6.93353E-005	 -1.40151E-003	 -2.16554E-003	 -2.65599E-003
  3.60448E+001	  7.00696E-004	 -1.26959E-003	  1.33345E-004	  2.63508E-003
  3.93216E+001	  5.84983E-004	  1.09235E-003	  2.64328E-003	 -2.62492E-004
  4.25984E+001	 -1.25050E-003	 -1.75837E-003	 -9.47367E-004	 -5.21464E-004
  4.58752E+001	 -3.09249E-003	 -2.14400E-003	 -1.72276E-003	 -1.17240E-003
  4.91520E+001	  1.57586E-003	  1.74805E-003	 -1.46027E-003	  7.69984E-004
  5.24288E+001	  1.60868E-003	  1.14260E-003	  1.45694E-003	  2.14613E-003
  5.89824E+001	  8.48370E-004	 -5.60871E-004	  9.57597E-004	  1.85227E-004
  6.55360E+001	  1.02829E-004	 -1.16974E-003	 -6.96345E-004	 -9.12302E-004
  7.20896E+001	  2.01512E-003	 -1.49904E-003	  9.92840E-004	 -1.36066E-003
  7.86432E+001	  4.00341E-004	 -2.66536E-003	  1.61640E-003	  1.54543E-004
  8.51968E+001	 -3.93422E-004	  1.01786E-003	 -1.03730E-003	 -1.44713E-003
  9.17504E+001	  6.69351E-004	 -8.25768E-004	  1.64343E-003	 -1.06241E-003
  9.83040E+001	  9.00674E-006	  2.61585E-003	  6.35489E-004	 -1.12824E-003
  1.04858E+002	 -5.17997E-004	  1.33093E-003	 -5.73161E-004	  6.59754E-004
  1.17965E+002	 -6.34125E-004	  1.10351E-003	  9.43529E-005	 -1.57509E-003
  1.31072E+002	  2.50842E-004	 -2.67327E-004	  6.16050E-004	 -1.42255E-003
  1.44179E+002	 -6.57892E-004	 -3.93234E-004	 -1.10605E-003	 -2.88100E-004
  1.57286E+002	 -4.97571E-004	 -1.27221E-003	  1.45753E-003	 -1.13144E-003
  1.70394E+002	 -6.17471E-004	  3.86049E-004	 -4.01708E-004	 -1.06336E-003
  1.83501E+002	 -2.54984E-005	  9.32776E-004	 -7.87043E-004	 -6.83040E-004
  1.96608E+002	 -8.07822E-004	 -2.09813E-004	  5.77545E-004	 -1.24856E-004
  2.09715E+002	 -1.64296E-003	 -2.73076E-004	  2.13670E-004	  5.63241E-004
  2.35930E+002	 -4.31096E-005	 -3.71018E-004	 -1.15720E-004	  7.86839E-004
  2.62144E+002	 -5.66060E-004	 -1.61067E-004	 -8.06335E-005	 -1.15439E-003
  2.88358E+002	 -1.06494E-003	 -6.12354E-004	 -2.78296E-004	 -1.26961E-003
  3.14573E+002	  5.91758E-004	  3.26447E-004	  4.52049E-004	 -4.06895E-004
  3.40787E+002	 -1.01786E-003	  1.73498E-003	 -1.74803E-004	 -7.09778E-004
  3.67002E+002	  1.71593E-004	 -4.06982E-004	 -2.74317E-004	  1.18187E-003
  3.93216E+002	  8.03137E-004	 -2.26285E-004	  7.50181E-004	  2.41104E-004

"Count Rate"
       0.01311	      54.70276	      59.12781	      63.55286	      53.55835
       0.02621	      52.71912	      54.93164	      58.74634	      57.98340
       0.03932	      50.58289	      58.36487	      58.51746	      62.86621
       0.05243	      63.17139	      58.74634	      54.85535	      60.95886
       0.06554	      64.23950	      49.28589	      63.78174	      47.30225
       0.07864	      48.67554	      63.47656	      49.97253	      58.59375
       0.09175	      61.26404	      74.15771	      56.38123	      52.10876
       0.10486	      61.72180	      56.30493	      59.12781	      58.59375
       0.11796	      51.11694	      60.50110	      61.87439	      55.23682
       0.13107	      52.26135	      54.70276	      57.06787	      50.96436
       0.14418	      65.30762	      59.50928	      59.43298	      50.96436
       0.15729	      61.79810	      60.50110	      65.99426	      54.16870
       0.17039	      53.78723	      65.38391	      61.41663	      64.23950
       0.18350	      55.99976	      62.48474	      53.40576	      54.77905
       0.19661	      57.83081	      56.53381	      55.99976	      57.60193
       0.20972	      61.18774	      57.06787	      59.96704	      62.63733
       0.22282	      55.31311	      61.56921	      59.89075	      67.21497
       0.23593	      55.16052	      45.47119	      56.07605	      55.92346
       0.24904	      59.58557	      49.05701	      58.97522	      61.41663
       0.26214	      52.87170	      63.32397	      60.04333	      54.09241
       0.27525	      59.50928	      65.46021	      56.83899	      54.24500
       0.28836	      61.49292	      57.67822	      59.50928	      48.52295
       0.30147	      53.78723	      54.01611	      58.44116	      51.72729
       0.31457	      60.88257	      60.50110	      62.10327	      62.40845
       0.32768	      54.70276	      58.13599	      58.97522	      55.84717
       0.34079	      62.33215	      56.83899	      54.39758	      50.12512
       0.35389	      55.99976	      51.95618	      56.76270	      51.49841
       0.36700	      51.65100	      58.51746	      60.80627	      55.16052
       0.38011	      52.03247	      65.99426	      58.97522	      52.03247
       0.39322	      57.44934	      63.32397	      61.87439	      58.28857
       0.40632	      58.59375	      66.14685	      53.32947	      54.85535
       0.41943	      61.34033	      57.75452	      62.33215	      54.55017
       0.43254	      48.29407	      63.93433	      58.13599	      57.98340
       0.44564	      50.50659	      51.04065	      56.30493	      53.17688
       0.45875	      51.34583	      62.94250	      61.34033	      60.95886
       0.47186	      57.29675	      47.60742	      55.84717	      57.75452
       0.48497	      55.31311	      54.77905	      62.25586	      52.56653
       0.49807	      49.74365	      51.04065	      57.52563	      52.56653
       0.51118	      52.71912	      59.20410	      59.89075	      55.92346
       0.52429	      50.88806	      59.20410	      58.59375	      47.37854
       0.53740	      63.62915	      58.59375	      55.99976	      55.69458
       0.55050	      52.33765	      60.80627	      62.63733	      59.12781
       0.56361	      51.72729	      54.09241	      54.93164	      55.69458
       0.57672	      57.22046	      54.70276	      66.14685	      59.05151
       0.58982	      56.15234	      55.00793	      53.93982	      63.01880
       0.60293	      56.22864	      50.50659	      56.83899	      50.20142
       0.61604	      57.14417	      53.10059	      67.06238	      64.77356
       0.62915	      62.48474	      61.95068	      55.69458	      59.12781
       0.64225	      64.69727	      57.52563	      58.97522	      61.95068
       0.65536	      64.46838	      48.14148	      57.67822	      51.49841
       0.66847	      58.89893	      55.16052	      52.94800	      62.48474
       0.68157	      52.94800	      55.31311	      56.38123	      66.90979
       0.69468	      64.23950	      57.29675	      62.48474	      66.29944
       0.70779	      59.66187	      58.67004	      62.40845	      46.61560
       0.72090	      60.80627	      65.91797	      52.41394	      58.59375
       0.73400	      49.51477	      66.07056	      50.88806	      44.70825
       0.74711	      52.79541	      58.36487	      54.55017	      55.23682
