ALV-7004/USB-FAST
Date :	"11/11/2025"
Time :	"3:59:50 PM"
Samplename : 	""
SampMemo(0) : 	""
SampMemo(1) : 	""
SampMemo(2) : 	""
SampMemo(3) : 	""
SampMemo(4) : 	""
SampMemo(5) : 	""
SampMemo(6) : 	""
SampMemo(7) : 	""
SampMemo(8) : 	""
SampMemo(9) : 	""
Temperature [K] :	     298.16000
Viscosity [cp]  :	       0.89000
Refractive Index:	       1.33200
Wavelength [nm] :	       0.00000
Angle [°]       :	       0.00000
Duration [s]    :	         1
FloatDur [ms]   :	          944
Stop TP [ms]   :	     68448
Runs            :	         1
Mode            :	"A-CH0+1  A-CH2+3 "
MeanCR0 [kHz]   :	      55.92240
MeanCR1 [kHz]   :	      58.77495
MeanCR2 [kHz]   :	      58.85230
MeanCR3 [kHz]   :	      57.57226

"Correlation"
  3.12500E-006	 -1.00000E+000	 -1.00000E+000	 -1.00000E+000	 -1.00000E+000
  6.25000E-006	 -1.00000E+000	 -1.00000E+000	 -1.00000E+000	 -1.00000E+000
  9.37500E-006	 -1.00000E+000	 -1.00000E+000	 -1.00000E+000	 -1.00000E+000
  1.25000E-005	 -1.00000E+000	 -1.00000E+000	 -1.00000E+000	 -1.00000E+000
  1.56250E-005	 -1.00000E+000	 -1.00000E+000	 -1.00000E+000	 -1.00000E+000
  1.87500E-005	 -1.00000E+000	 -1.00000E+000	 -1.00000E+000	 -1.00000E+000
  2.18750E-005	 -1.00000E+000	  1.06131E+000	  1.64329E+000	 -1.00000E+000
  2.50000E-005	  1.25533E+001	  1.38218E+001	  1.13353E+001	  2.52914E+001
  2.81250E-005	  3.22864E+000	  1.55209E+000	  2.03489E+000	  7.90021E+000
  3.12500E-005	  1.38539E+000	  9.63148E-001	  1.44749E+000	  3.60356E+000
  3.43750E-005	  9.51679E-001	  5.70518E-001	  9.57991E-001	  5.85418E+000
  3.75000E-005	  1.27696E+000	  1.06131E+000	  1.64329E+000	  3.80816E+000
  4.06250E-005	  1.06011E+000	  3.74204E-001	  3.70593E-001	  2.88745E+000
  4.37500E-005	  1.27696E+000	  8.64991E-001	  8.60091E-001	  1.96674E+000
  4.68750E-005	  8.43252E-001	  2.76046E-001	 -2.10047E-002	  2.17134E+000
  5.00000E-005	  1.06011E+000	  2.76046E-001	  3.70593E-001	  2.17134E+000
  5.62500E-005	  5.17973E-001	  8.64990E-001	  4.19543E-001	  1.40408E+000
  6.25000E-005	  6.80612E-001	  8.64990E-001	  7.13242E-001	  1.86444E+000
  6.87500E-005	  4.09546E-001	  5.21440E-001	  3.21644E-001	  1.76213E+000
  7.50000E-005	  7.34826E-001	  3.25125E-001	  7.13242E-001	  1.04603E+000
  8.12500E-005	  1.00589E+000	  5.21440E-001	  6.64292E-001	  1.09718E+000
  8.75000E-005	  4.09546E-001	  7.17754E-001	  5.17443E-001	  5.34519E-001
  9.37500E-005	  8.43252E-001	  6.19597E-001	  8.11141E-001	  1.35293E+000
  1.00000E-004	  8.70359E-001	  5.70518E-001	  6.88767E-001	  1.17390E+000
  1.12500E-004	  2.46906E-001	  6.68675E-001	  4.44018E-001	  7.64696E-001
  1.25000E-004	  3.55332E-001	  6.93215E-001	  5.41917E-001	  6.11245E-001
  1.37500E-004	  5.17972E-001	  7.42293E-001	  8.11141E-001	  7.39121E-001
  1.50000E-004	  8.97465E-001	  5.70518E-001	  4.44018E-001	  7.13546E-001
  1.62500E-004	  2.94602E-003	  6.93215E-001	  4.92968E-001	  4.32217E-001
  1.75000E-004	  6.80612E-001	  3.98743E-001	  5.90867E-001	  5.08943E-001
  1.87500E-004	  5.72186E-001	  7.66833E-001	  2.72694E-001	  4.83368E-001
  2.00000E-004	  4.77312E-001	  4.96900E-001	  3.82830E-001	  4.57792E-001
  2.25000E-004	  5.45079E-001	  6.31866E-001	  4.44018E-001	  4.32217E-001
  2.50000E-004	  5.85739E-001	  3.86473E-001	  6.52054E-001	  5.60094E-001
  2.75000E-004	  3.55332E-001	  5.95057E-001	  6.64291E-001	  3.55491E-001
  3.00000E-004	  5.45079E-001	  3.74203E-001	  5.17442E-001	  4.57792E-001
  3.25000E-004	  4.50205E-001	  6.80945E-001	  3.21643E-001	  6.24032E-001
  3.50000E-004	  5.17972E-001	  2.51506E-001	  3.46118E-001	  3.04341E-001
  3.75000E-004	  5.72185E-001	  4.72360E-001	  3.33881E-001	  2.78765E-001
  4.00000E-004	  4.90865E-001	  4.23281E-001	  5.72510E-001	  4.13035E-001
  4.50000E-004	  5.58631E-001	  6.13461E-001	  4.01186E-001	  5.60093E-001
  5.00000E-004	  5.11195E-001	  6.80944E-001	  5.48035E-001	  5.34518E-001
  5.50000E-004	  4.63758E-001	  3.80337E-001	  3.82830E-001	  4.70579E-001
  6.00000E-004	  4.43428E-001	  4.72360E-001	  2.29862E-001	  3.93854E-001
  6.50000E-004	  5.24748E-001	  5.09169E-001	  4.19542E-001	  3.74672E-001
  7.00000E-004	  4.63758E-001	  4.78495E-001	  4.37898E-001	  4.06641E-001
  7.50000E-004	  5.45078E-001	  4.35551E-001	  3.27761E-001	  6.49607E-001
  8.00000E-004	  4.36650E-001	  5.18370E-001	  5.05203E-001	  5.05744E-001
  9.00000E-004	  5.14582E-001	  5.36774E-001	  4.99084E-001	  5.12138E-001
  1.00000E-003	  4.36650E-001	  5.18370E-001	  4.86847E-001	  4.76972E-001
  1.10000E-003	  4.16320E-001	  5.79718E-001	  4.01185E-001	  5.21729E-001
  1.20000E-003	  2.06244E-001	  3.64999E-001	  3.30820E-001	  4.83366E-001
  1.30000E-003	  4.26485E-001	  3.83404E-001	  4.25660E-001	  4.48200E-001
  1.40000E-003	  5.14582E-001	  3.43527E-001	  3.85888E-001	  3.61883E-001
  1.50000E-003	  5.21358E-001	  3.83404E-001	  4.96025E-001	  4.60988E-001
  1.60000E-003	  4.41730E-001	  4.47817E-001	  4.45543E-001	  6.17663E-001
  1.80000E-003	  4.84084E-001	  4.07940E-001	  6.04629E-001	  4.09861E-001
  2.00000E-003	  4.45119E-001	  4.44749E-001	  4.22598E-001	  3.28338E-001
  2.20000E-003	  4.01070E-001	  4.76957E-001	  4.42484E-001	  4.27444E-001
  2.40000E-003	  5.51851E-001	  3.52727E-001	  4.74607E-001	  4.35436E-001
  2.60000E-003	  3.57022E-001	  4.55485E-001	  4.22598E-001	  4.40232E-001
  2.80000E-003	  4.73919E-001	  4.95362E-001	  4.21068E-001	  5.07368E-001
  3.00000E-003	  4.24789E-001	  4.84626E-001	  4.08831E-001	  4.25845E-001
  3.20000E-003	  4.18854E-001	  4.57781E-001	  3.79762E-001	  4.59408E-001
  3.60000E-003	  3.55324E-001	  4.23273E-001	  3.86646E-001	  4.23443E-001
  4.00000E-003	  4.40031E-001	  4.30941E-001	  3.85881E-001	  4.78590E-001
  4.40000E-003	  3.16383E-001	  4.01801E-001	  3.82822E-001	  4.01064E-001
  4.80000E-003	  3.11325E-001	  4.44744E-001	  3.60641E-001	  4.29863E-001
  5.20000E-003	  3.57069E-001	  4.54713E-001	  4.03472E-001	  4.58636E-001
  5.60000E-003	  4.51945E-001	  3.84930E-001	  3.91235E-001	  3.81109E-001
  6.00000E-003	  4.35850E-001	  3.96433E-001	  3.61406E-001	  4.23469E-001
  6.40000E-003	  3.96027E-001	  4.12911E-001	  4.03080E-001	  3.91489E-001
  7.20000E-003	  3.88403E-001	  3.59256E-001	  3.95050E-001	  3.92688E-001
  8.00000E-003	  3.63413E-001	  3.95298E-001	  3.43424E-001	  3.93887E-001
  8.80000E-003	  3.86709E-001	  4.07568E-001	  3.76694E-001	  3.63116E-001
  9.60000E-003	  3.41389E-001	  3.95682E-001	  3.59867E-001	  3.81099E-001
  1.04000E-002	  3.54942E-001	  3.56572E-001	  3.91608E-001	  3.95885E-001
  1.12000E-002	  3.57060E-001	  4.26740E-001	  3.69810E-001	  3.59520E-001
  1.20000E-002	  3.65531E-001	  3.87246E-001	  3.24685E-001	  4.26656E-001
  1.28000E-002	  3.76736E-001	  3.61155E-001	  3.43812E-001	  3.76685E-001
  1.44000E-002	  3.44547E-001	  3.53678E-001	  3.53372E-001	  3.24335E-001
  1.60000E-002	  3.41794E-001	  3.65014E-001	  3.29854E-001	  3.64097E-001
  1.76000E-002	  3.60642E-001	  3.66547E-001	  3.42473E-001	  3.38721E-001
  1.92000E-002	  3.40100E-001	  3.45459E-001	  3.27942E-001	  3.54306E-001
  2.08000E-002	  3.20193E-001	  3.45459E-001	  3.39247E-001	  3.31927E-001
  2.24000E-002	  3.11510E-001	  3.41265E-001	  3.42498E-001	  2.90191E-001
  2.40000E-002	  3.12569E-001	  3.41673E-001	  3.31407E-001	  2.94187E-001
  2.56000E-002	  3.16557E-001	  3.06312E-001	  3.00585E-001	  2.87283E-001
  2.88000E-002	  3.23172E-001	  2.96534E-001	  2.70946E-001	  2.98972E-001
  3.20000E-002	  2.58792E-001	  2.94736E-001	  2.67217E-001	  2.81088E-001
  3.52000E-002	  2.92888E-001	  2.59649E-001	  2.57943E-001	  2.92977E-001
  3.84000E-002	  2.59346E-001	  2.73550E-001	  2.69680E-001	  2.36131E-001
  4.16000E-002	  2.54792E-001	  2.57828E-001	  2.27517E-001	  2.32035E-001
  4.48000E-002	  2.46133E-001	  2.61854E-001	  2.45874E-001	  2.38152E-001
  4.80000E-002	  2.12800E-001	  2.37911E-001	  2.20155E-001	  2.12276E-001
  5.12000E-002	  2.10980E-001	  2.41266E-001	  1.98246E-001	  2.03463E-001
  5.76000E-002	  2.09272E-001	  2.17465E-001	  1.93991E-001	  1.76454E-001
  6.40000E-002	  1.83137E-001	  1.87794E-001	  1.79744E-001	  1.74527E-001
  7.04000E-002	  1.73514E-001	  1.79481E-001	  1.62894E-001	  1.63686E-001
  7.68000E-002	  1.63845E-001	  1.73872E-001	  1.48483E-001	  1.46701E-001
  8.32000E-002	  1.48806E-001	  1.61814E-001	  1.24074E-001	  1.28567E-001
  8.96000E-002	  1.25072E-001	  1.37676E-001	  1.18508E-001	  1.18076E-001
  9.60000E-002	  1.20539E-001	  1.47982E-001	  9.42693E-002	  1.12131E-001
  1.02400E-001	  1.13623E-001	  1.28157E-001	  9.49763E-002	  1.05473E-001
  1.15200E-001	  8.89961E-002	  1.06491E-001	  8.53134E-002	  7.96616E-002
  1.28000E-001	  8.54212E-002	  8.56974E-002	  6.76311E-002	  6.24820E-002
  1.40800E-001	  7.03884E-002	  7.57503E-002	  6.38347E-002	  5.69813E-002
  1.53600E-001	  6.53443E-002	  7.62057E-002	  5.98471E-002	  4.30627E-002
  1.66400E-001	  5.71018E-002	  5.26582E-002	  5.22450E-002	  3.38586E-002
  1.79200E-001	  4.46547E-002	  5.92548E-002	  5.29531E-002	  3.15664E-002
  1.92000E-001	  4.24831E-002	  4.37706E-002	  4.73167E-002	  2.48970E-002
  2.04800E-001	  2.94027E-002	  3.04681E-002	  4.19371E-002	  2.54322E-002
  2.30400E-001	  3.11577E-002	  3.16199E-002	  3.41180E-002	  1.98615E-002
  2.56000E-001	  2.17686E-002	  2.36524E-002	  2.53270E-002	  1.13555E-002
  2.81600E-001	  2.20477E-002	  2.52063E-002	  1.98762E-002	  1.27981E-002
  3.07200E-001	  1.32416E-002	  2.23837E-002	  1.70441E-002	  1.11866E-002
  3.32800E-001	  3.46721E-003	  2.33907E-002	  1.10307E-002	  7.35182E-003
  3.58400E-001	  2.69166E-003	  1.34705E-002	  1.37139E-002	 -4.23986E-003
  3.84000E-001	 -3.10311E-003	  1.75294E-002	  9.30894E-003	  3.84783E-003
  4.09600E-001	  5.10607E-004	  1.39245E-002	  8.86588E-003	  1.06597E-003
  4.60800E-001	 -5.43091E-003	  9.69169E-003	  3.33715E-003	 -1.70884E-003
  5.12000E-001	  2.80367E-003	  1.02138E-002	 -1.98239E-003	 -6.99424E-003
  5.63200E-001	 -1.16351E-003	  1.32661E-002	 -5.93316E-003	 -8.21733E-003
  6.14400E-001	 -2.15166E-003	  2.45515E-003	 -1.00097E-002	 -5.05543E-003
  6.65600E-001	 -4.15825E-003	 -4.65014E-004	 -1.02785E-002	 -2.94929E-004
  7.16800E-001	 -2.53079E-004	  7.28036E-004	 -7.74461E-003	  7.89466E-003
  7.68000E-001	 -1.33391E-003	 -8.78825E-004	  8.49650E-003	 -4.31244E-003
  8.19200E-001	 -5.55619E-004	 -1.41440E-003	  5.29192E-003	 -8.66172E-003
  9.21600E-001	  2.25503E-003	  1.41708E-003	  3.25240E-003	  1.23566E-003
  1.02400E+000	 -5.29591E-003	 -4.72752E-004	 -3.03707E-003	  9.28095E-003
  1.12640E+000	 -6.44972E-004	 -5.90168E-003	 -1.09908E-003	  7.27818E-003
  1.22880E+000	 -7.43484E-003	 -6.44724E-003	  2.96625E-003	  5.65691E-003
  1.33120E+000	 -5.32168E-003	 -2.01758E-003	 -3.78167E-003	  2.63923E-004
  1.43360E+000	 -3.53936E-003	 -3.15126E-003	 -1.58293E-003	  4.71379E-004
  1.53600E+000	  6.15460E-005	 -1.98740E-003	 -8.25662E-003	  4.37321E-004
  1.63840E+000	  1.24570E-003	  4.75598E-003	  4.85335E-004	  1.93658E-003
  1.84320E+000	 -2.40620E-004	  6.82127E-003	  2.41597E-003	 -3.76109E-003
  2.04800E+000	  1.21868E-003	  1.10808E-002	 -2.40435E-003	 -4.63795E-003
  2.25280E+000	  7.83191E-003	  5.31501E-003	 -3.62563E-004	  6.03438E-003
  2.45760E+000	  9.09300E-003	  5.53395E-003	 -5.09453E-003	  7.22856E-003
  2.66240E+000	  7.85407E-003	  1.96987E-003	  9.51276E-004	  8.96523E-004
  2.86720E+000	  4.88383E-003	 -6.67257E-003	  2.04892E-003	  1.00756E-003
  3.07200E+000	  2.93574E-003	 -2.15030E-004	  5.93134E-003	 -4.43739E-003
  3.27680E+000	  2.47889E-003	 -7.85669E-004	  7.13614E-003	 -3.56555E-003
  3.68640E+000	 -1.56996E-003	  7.77012E-003	  6.70082E-004	 -8.28393E-004
  4.09600E+000	 -5.44761E-003	  8.45526E-004	 -1.85000E-003	 -3.75769E-003
  4.50560E+000	  9.89113E-004	  3.75557E-003	 -1.85261E-003	 -1.55809E-003
  4.91520E+000	 -2.53149E-004	  2.82929E-003	  1.69491E-003	 -1.88044E-003
  5.32480E+000	  3.99139E-003	 -3.55553E-003	  1.29189E-004	  1.26734E-003
  5.73440E+000	 -4.60560E-003	  3.06651E-003	  4.51863E-004	 -1.73139E-003
  6.14400E+000	 -1.50027E-002	 -3.67525E-003	 -1.36846E-003	 -1.56086E-003
  6.55360E+000	 -3.53348E-003	  2.03513E-003	 -1.24891E-003	  1.41533E-003
  7.37280E+000	  4.50609E-004	  2.05434E-003	  3.66703E-003	  4.01439E-004
  8.19200E+000	 -7.55765E-004	  2.97852E-003	  5.67900E-004	 -2.55364E-003
  9.01120E+000	  2.06647E-003	 -3.33647E-003	  5.67967E-004	 -6.71650E-004
  9.83040E+000	  5.89462E-003	 -5.21488E-003	  1.98272E-003	 -5.00347E-003
  1.06496E+001	  5.65460E-004	 -1.24460E-003	  2.64029E-004	 -5.78471E-003
  1.14688E+001	 -1.17374E-003	 -1.75772E-003	 -6.05478E-003	 -1.89312E-003
  1.22880E+001	  2.44161E-003	  3.73707E-003	 -4.11436E-003	  3.82377E-004
  1.31072E+001	 -2.28425E-003	  1.42058E-003	 -4.17388E-003	  1.47313E-004
  1.47456E+001	 -1.61241E-003	  2.46462E-003	 -1.34063E-003	 -2.09190E-003
  1.63840E+001	 -2.54049E-003	  1.60636E-003	 -2.67023E-003	  2.68582E-003
  1.80224E+001	 -2.17630E-003	  2.92021E-003	 -5.90498E-004	  6.24088E-004
  1.96608E+001	 -1.98768E-004	 -5.66063E-004	  2.71389E-003	  2.46453E-003
  2.12992E+001	  9.48664E-004	  3.44532E-003	 -2.11151E-004	  8.81141E-005
  2.29376E+001	 -1.86523E-004	 -1.53900E-003	 -1.96104E-003	  6.92527E-006
  2.45760E+001	 -3.24356E-004	  1.74675E-003	  1.95198E-003	  6.48287E-004
  2.62144E+001	 -2.73990E-003	 -2.22065E-003	  5.07740E-004	 -2.86598E-003
  2.94912E+001	 -2.78140E-004	 -1.26656E-003	 -3.00335E-003	  2.31449E-003
  3.27680E+001	 -1.11087E-005	  9.63487E-004	  1.77493E-003	  2.77319E-003
  3.60448E+001	  1.14148E-003	  3.05509E-003	 -2.15082E-003	 -1.15039E-004
  3.93216E+001	  3.13433E-004	 -8.03680E-004	 -9.03016E-004	  1.25488E-004
  4.25984E+001	  2.27340E-003	 -1.84463E-003	  3.94017E-003	 -1.41985E-003
  4.58752E+001	  2.55278E-003	 -4.43834E-003	 -1.04040E-003	 -3.25717E-003
  4.91520E+001	  1.79755E-004	 -2.92631E-004	 -1.81349E-004	  3.03354E-004
  5.24288E+001	  2.34157E-004	  1.21715E-006	  2.62751E-004	 -2.47709E-004
  5.89824E+001	  7.00557E-004	  7.22849E-004	 -2.50913E-003	  4.11149E-004
  6.55360E+001	  5.39825E-004	 -2.89733E-003	 -6.51203E-004	 -8.03936E-004
  7.20896E+001	 -8.75823E-004	  8.55318E-004	  2.09328E-003	 -1.81043E-003
  7.86432E+001	  1.21145E-003	  2.28403E-003	  6.01890E-004	 -1.15865E-003
  8.51968E+001	  1.24296E-003	 -1.43588E-004	 -1.08791E-003	  6.94156E-004
  9.17504E+001	  5.03712E-004	  1.89107E-003	  1.32711E-003	  7.09393E-004
  9.83040E+001	  2.07251E-003	  2.44827E-003	  6.86913E-004	 -1.41295E-003
  1.04858E+002	 -2.92667E-004	  2.31321E-003	 -1.37256E-003	 -5.48426E-005
  1.17965E+002	 -1.48988E-003	  1.74972E-003	  8.72328E-004	 -8.77092E-004
  1.31072E+002	 -1.47991E-004	 -1.33986E-004	 -2.80208E-005	 -1.18553E-005
  1.44179E+002	  2.11640E-004	 -1.60620E-003	  1.39781E-004	  1.12255E-003
  1.57286E+002	 -1.83316E-003	 -1.29876E-003	  9.05223E-005	 -1.23065E-003
  1.70394E+002	 -2.86645E-004	 -5.23125E-004	 -2.96163E-004	  9.84841E-005
  1.83501E+002	 -2.98059E-004	  1.06519E-003	  2.71833E-004	 -2.27032E-004
  1.96608E+002	 -7.12786E-005	  1.43255E-003	  3.36519E-004	 -6.97696E-004
  2.09715E+002	 -1.30735E-003	  6.63995E-004	  3.61737E-004	 -5.88480E-004
  2.35930E+002	  1.20755E-004	 -1.85293E-003	 -4.60422E-004	  1.63323E-003
  2.62144E+002	 -2.24192E-004	 -1.15489E-003	 -2.56244E-004	 -7.51438E-005
  2.88358E+002	  4.22255E-004	  4.86109E-004	 -9.70540E-005	 -9.38682E-004
  3.14573E+002	  9.57896E-004	  1.14877E-003	  2.59156E-004	  5.77887E-004
  3.40787E+002	  3.37009E-004	 -2.29497E-003	 -2.67671E-004	  2.47445E-004
  3.67002E+002	  1.21871E-003	  1.71106E-004	 -5.88102E-004	  9.80931E-004
  3.93216E+002	  4.97436E-004	  2.66063E-004	  4.40036E-004	 -1.21870E-003

"Count Rate"
       0.01311	      56.30493	      55.08423	      64.39209	      52.03247
       0.02621	      56.76270	      53.10059	      55.46570	      57.98340
       0.03932	      54.16870	      67.97791	      56.38123	      52.79541
       0.05243	      52.79541	      53.86353	      59.81445	      54.47388
       0.06554	      58.97522	      61.64551	      57.98340	      61.11145
       0.07864	      69.27490	      63.40027	      45.47119	      57.90710
       0.09175	      54.85535	      51.42212	      57.29675	      58.13599
       0.10486	      55.16052	      63.47656	      57.22046	      56.76270
       0.11796	      58.13599	      74.84436	      53.55835	      49.28589
       0.13107	      58.51746	      59.50928	      61.87439	      61.56921
       0.14418	      57.06787	      54.01611	      55.77087	      56.22864
       0.15729	      53.10059	      59.66187	      58.51746	      52.33765
       0.17039	      60.34851	      53.93982	      57.67822	      59.20410
       0.18350	      57.60193	      56.68640	      48.82813	      61.41663
       0.19661	      49.59106	      58.97522	      64.54468	      60.80627
       0.20972	      56.83899	      64.77356	      63.09509	      61.56921
       0.22282	      56.38123	      65.38391	      57.83081	      53.48206
       0.23593	      47.45483	      63.78174	      60.34851	      63.47656
       0.24904	      54.70276	      55.84717	      56.38123	      60.34851
       0.26214	      55.46570	      56.22864	      58.67004	      53.63464
       0.27525	      53.10059	      60.27222	      60.11963	      58.67004
       0.28836	      51.26953	      57.37305	      68.81714	      51.57471
       0.30147	      50.96436	      67.52014	      52.49023	      60.04333
       0.31457	      55.69458	      60.42480	      63.47656	      58.44116
       0.32768	      50.65918	      62.10327	      67.90161	      57.67822
       0.34079	      51.19324	      54.70276	      56.07605	      55.38940
       0.35389	      55.08423	      48.82813	      55.99976	      58.36487
       0.36700	      59.43298	      65.23132	      50.43030	      52.64282
       0.38011	      52.33765	      53.32947	      57.14417	      54.77905
       0.39322	      46.61560	      63.93433	      58.97522	      56.91528
       0.40632	      54.01611	      51.04065	      57.29675	      59.73816
       0.41943	      49.28589	      53.40576	      62.02698	      54.93164
       0.43254	      58.51746	      58.21228	      67.52014	      56.61011
       0.44564	      60.57739	      55.31311	      51.26953	      60.65369
       0.45875	      62.17957	      49.59106	      54.62646	      49.97253
       0.47186	      53.17688	      46.92078	      63.93433	      58.21228
       0.48497	      50.50659	      52.64282	      64.16321	      59.05151
       0.49807	      57.06787	      63.40027	      54.70276	      57.29675
       0.51118	      57.60193	      57.37305	      56.83899	      54.24500
       0.52429	      54.16870	      56.07605	      55.77087	      56.91528
       0.53740	      63.47656	      56.68640	      53.17688	      69.27490
       0.55050	      54.39758	      50.88806	      57.75452	      60.19592
       0.56361	      50.96436	      52.56653	      61.72180	      58.28857
       0.57672	      57.67822	      59.89075	      51.26953	      58.67004
       0.58982	      56.83899	      55.61829	      61.72180	      51.49841
       0.60293	      57.60193	      59.89075	      59.20410	      49.59106
       0.61604	      49.43848	      61.72180	      58.21228	      51.19324
       0.62915	      59.05151	      58.13599	      59.28040	      60.65369
       0.64225	      49.51477	      54.16870	      55.61829	      53.25317
       0.65536	      52.87170	      52.18506	      57.98340	      56.07605
       0.66847	      56.99158	      56.45752	      49.13330	      57.90710
       0.68157	      53.32947	      57.37305	      61.87439	      61.79810
       0.69468	      47.98889	      62.71362	      54.09241	      54.55017
       0.70779	      54.77905	      63.09509	      60.27222	      54.32129
       0.72090	      54.24500	      56.22864	      57.06787	      61.87439
       0.73400	      54.55017	      56.83899	      63.24768	      55.38940
       0.74711	      52.03247	      55.31311	      54.77905	      56.22864
