ALV-7004/USB-FAST
Date :	"11/11/2025"
Time :	"3:57:59 PM"
Samplename : 	""
SampMemo(0) : 	""
SampMemo(1) : 	""
SampMemo(2) : 	""
SampMemo(3) : 	""
SampMemo(4) : 	""
SampMemo(5) : 	""
SampMemo(6) : 	""
SampMemo(7) : 	""
SampMemo(8) : 	""
SampMemo(9) : 	""
Temperature [K] :	     298.16000
Viscosity [cp]  :	       0.89000
Refractive Index:	       1.33200
Wavelength [nm] :	       0.00000
Angle [°]       :	       0.00000
Duration [s]    :	         1
FloatDur [ms]   :	          944
Stop TP [ms]   :	     67943
Runs            :	         1
Mode            :	"A-CH0+1  A-CH2+3 "
MeanCR0 [kHz]   :	      52.23698
MeanCR1 [kHz]   :	      54.66355
MeanCR2 [kHz]   :	      53.79253
MeanCR3 [kHz]   :	      53.06032

"Correlation"
  3.12500E-006	 -1.00000E+000	 -1.00000E+000	 -1.00000E+000	 -1.00000E+000
  6.25000E-006	 -1.00000E+000	 -1.00000E+000	 -1.00000E+000	 -1.00000E+000
  9.37500E-006	 -1.00000E+000	 -1.00000E+000	 -1.00000E+000	 -1.00000E+000
  1.25000E-005	 -1.00000E+000	 -1.00000E+000	 -1.00000E+000	 -1.00000E+000
  1.56250E-005	 -1.00000E+000	 -1.00000E+000	 -1.00000E+000	 -1.00000E+000
  1.87500E-005	 -1.00000E+000	 -1.00000E+000	 -1.00000E+000	 -1.00000E+000
  2.18750E-005	 -1.00000E+000	  7.02171E-001	  1.81239E+000	 -2.77365E-001
  2.50000E-005	  1.21722E+001	  1.47734E+001	  1.21245E+001	  2.38105E+001
  2.81250E-005	  3.47357E+000	  2.74478E+000	  2.63266E+000	  9.59865E+000
  3.12500E-005	  2.10664E+000	  9.29127E-001	  1.46084E+000	  5.74459E+000
  3.43750E-005	  9.88252E-001	  9.29127E-001	  1.57802E+000	  5.38328E+000
  3.75000E-005	  1.85811E+000	  5.88693E-001	  7.57741E-001	  4.29932E+000
  4.06250E-005	  1.73385E+000	  8.15649E-001	  1.69520E+000	  3.93801E+000
  4.37500E-005	  4.91189E-001	  7.02171E-001	  7.57741E-001	  2.49274E+000
  4.68750E-005	  1.60958E+000	  5.88693E-001	  1.10929E+000	  2.01098E+000
  5.00000E-005	  1.17465E+000	  6.45432E-001	  6.40558E-001	  1.83032E+000
  5.62500E-005	  3.04790E-001	  8.15649E-001	  9.33515E-001	  1.16791E+000
  6.25000E-005	  6.77587E-001	  8.15649E-001	  8.16332E-001	  1.52922E+000
  6.87500E-005	  5.62587E-002	  1.38304E+000	  8.16332E-001	  2.07120E+000
  7.50000E-005	  6.77587E-001	  6.45432E-001	  6.40558E-001	  1.16791E+000
  8.12500E-005	  1.17465E+000	  1.04260E+000	  6.99149E-001	  1.28834E+000
  8.75000E-005	  1.05038E+000	  4.75214E-001	  1.13236E-001	  1.16791E+000
  9.37500E-005	 -5.87416E-003	  5.31953E-001	  4.06193E-001	  9.87246E-001
  1.00000E-004	  3.35856E-001	  6.45431E-001	  6.40558E-001	  8.06588E-001
  1.12500E-004	  7.08654E-001	  7.58909E-001	  2.59714E-001	  7.46368E-001
  1.25000E-004	  6.15454E-001	  5.31953E-001	  5.23375E-001	  3.24831E-001
  1.37500E-004	  5.84388E-001	  6.73801E-001	  3.76897E-001	  8.06588E-001
  1.50000E-004	  3.35856E-001	  5.60323E-001	  6.99149E-001	  8.96917E-001
  1.62500E-004	  6.15454E-001	  6.17062E-001	  6.40558E-001	  6.86148E-001
  1.75000E-004	  9.57185E-001	  4.18475E-001	  6.11262E-001	  8.96917E-001
  1.87500E-004	  5.84388E-001	  3.33367E-001	  4.35488E-001	  6.86148E-001
  2.00000E-004	  4.29055E-001	  4.89399E-001	  4.35488E-001	  7.46368E-001
  2.25000E-004	  5.84388E-001	  5.88692E-001	  7.72388E-001	  5.35599E-001
  2.50000E-004	  5.22255E-001	  7.73094E-001	  5.52671E-001	  7.01203E-001
  2.75000E-004	  4.91188E-001	  6.02877E-001	  5.67318E-001	  5.35599E-001
  3.00000E-004	  5.68854E-001	  6.31246E-001	  4.35488E-001	  3.85050E-001
  3.25000E-004	  4.29055E-001	  5.46138E-001	  6.25910E-001	  5.20544E-001
  3.50000E-004	  6.30987E-001	  3.90105E-001	  2.89010E-001	  4.75379E-001
  3.75000E-004	  3.35856E-001	  6.31246E-001	  3.76897E-001	  5.35599E-001
  4.00000E-004	  3.59155E-001	  4.82306E-001	  5.74642E-001	  5.88291E-001
  4.50000E-004	  5.92153E-001	  4.04290E-001	  3.47600E-001	  5.05489E-001
  5.00000E-004	  3.51389E-001	  4.25567E-001	  4.13516E-001	  4.67851E-001
  5.50000E-004	  5.76620E-001	  3.47551E-001	  4.20839E-001	  4.22687E-001
  6.00000E-004	  6.23220E-001	  4.96490E-001	  5.81966E-001	  5.13016E-001
  6.50000E-004	  7.47486E-001	  7.30539E-001	  4.42811E-001	  3.09775E-001
  7.00000E-004	  3.59155E-001	  6.52523E-001	  4.28163E-001	  4.52797E-001
  7.50000E-004	  6.15453E-001	  3.97197E-001	  5.08726E-001	  3.09775E-001
  8.00000E-004	  4.98953E-001	  4.53935E-001	  3.87881E-001	  4.03867E-001
  9.00000E-004	  3.94104E-001	  3.83011E-001	  6.14922E-001	  4.64086E-001
  1.00000E-003	  3.66921E-001	  4.57481E-001	  3.76922E-001	  4.86669E-001
  1.10000E-003	  5.22253E-001	  6.02875E-001	  3.76922E-001	  5.46888E-001
  1.20000E-003	  5.37786E-001	  4.85851E-001	  5.56361E-001	  6.29690E-001
  1.30000E-003	  4.98953E-001	  5.42590E-001	  5.01431E-001	  4.33977E-001
  1.40000E-003	  3.86337E-001	  4.68120E-001	  3.18329E-001	  5.20542E-001
  1.50000E-003	  3.78571E-001	  3.97196E-001	  4.68473E-001	  5.50652E-001
  1.60000E-003	  4.54293E-001	  5.51452E-001	  5.69176E-001	  5.07397E-001
  1.80000E-003	  4.30993E-001	  4.46840E-001	  4.66639E-001	  4.18948E-001
  2.00000E-003	  5.10600E-001	  5.23083E-001	  4.61146E-001	  4.88578E-001
  2.20000E-003	  4.11576E-001	  5.10671E-001	  4.81287E-001	  3.47436E-001
  2.40000E-003	  4.56234E-001	  4.52159E-001	  3.98892E-001	  3.38026E-001
  2.60000E-003	  4.58176E-001	  3.77690E-001	  4.70301E-001	  4.96105E-001
  2.80000E-003	  4.13518E-001	  5.07125E-001	  3.64102E-001	  4.30239E-001
  3.00000E-003	  3.80510E-001	  4.76983E-001	  4.09878E-001	  4.17066E-001
  3.20000E-003	  4.49434E-001	  3.67933E-001	  4.34592E-001	  4.07680E-001
  3.60000E-003	  3.92155E-001	  4.77864E-001	  4.20859E-001	  4.47200E-001
  4.00000E-003	  3.66914E-001	  3.91870E-001	  4.29098E-001	  3.85097E-001
  4.40000E-003	  4.38755E-001	  4.49495E-001	  4.30014E-001	  3.74719E-001
  4.80000E-003	  4.55258E-001	  4.57474E-001	  4.10788E-001	  4.21766E-001
  5.20000E-003	  4.27105E-001	  4.07827E-001	  4.27267E-001	  3.86010E-001
  5.60000E-003	  4.15455E-001	  4.49495E-001	  4.54733E-001	  3.67191E-001
  6.00000E-003	  3.82447E-001	  4.24672E-001	  4.15366E-001	  3.94478E-001
  6.40000E-003	  3.70788E-001	  3.83881E-001	  4.47399E-001	  3.56859E-001
  7.20000E-003	  3.93117E-001	  4.27765E-001	  4.53807E-001	  3.80382E-001
  8.00000E-003	  4.38745E-001	  3.73243E-001	  4.17187E-001	  3.93085E-001
  8.80000E-003	  3.37780E-001	  4.02055E-001	  4.12152E-001	  3.90262E-001
  9.60000E-003	  3.85350E-001	  3.57285E-001	  3.29300E-001	  3.27218E-001
  1.04000E-002	  3.91660E-001	  3.76789E-001	  4.18103E-001	  3.41803E-001
  1.12000E-002	  3.76127E-001	  3.98066E-001	  3.86061E-001	  3.50715E-001
  1.20000E-002	  3.77584E-001	  4.09591E-001	  3.36192E-001	  3.58713E-001
  1.28000E-002	  3.94311E-001	  3.82560E-001	  3.85154E-001	  3.62070E-001
  1.44000E-002	  3.65187E-001	  3.20280E-001	  3.60435E-001	  3.52895E-001
  1.60000E-002	  3.28539E-001	  3.23162E-001	  3.58604E-001	  3.38545E-001
  1.76000E-002	  3.84389E-001	  3.24048E-001	  3.92020E-001	  3.52189E-001
  1.92000E-002	  3.16674E-001	  3.02328E-001	  3.48076E-001	  3.27515E-001
  2.08000E-002	  3.45070E-001	  3.13188E-001	  3.44643E-001	  3.08695E-001
  2.24000E-002	  2.88520E-001	  3.03214E-001	  3.07794E-001	  3.04931E-001
  2.40000E-002	  2.95559E-001	  2.89695E-001	  3.13770E-001	  3.24901E-001
  2.56000E-002	  2.83129E-001	  2.76744E-001	  3.25865E-001	  2.90348E-001
  2.88000E-002	  2.92231E-001	  2.55245E-001	  2.96340E-001	  2.65619E-001
  3.20000E-002	  2.81820E-001	  2.48817E-001	  2.78145E-001	  2.67031E-001
  3.52000E-002	  2.62645E-001	  2.42636E-001	  2.55486E-001	  2.66442E-001
  3.84000E-002	  2.25751E-001	  2.19118E-001	  2.44043E-001	  2.38303E-001
  4.16000E-002	  2.20168E-001	  2.03714E-001	  2.38550E-001	  2.10778E-001
  4.48000E-002	  2.20411E-001	  1.84432E-001	  2.27793E-001	  2.23952E-001
  4.80000E-002	  1.92862E-001	  1.87535E-001	  2.12000E-001	  1.98309E-001
  5.12000E-002	  1.82638E-001	  1.72559E-001	  2.09007E-001	  1.74353E-001
  5.76000E-002	  1.73597E-001	  1.54749E-001	  1.70294E-001	  1.75271E-001
  6.40000E-002	  1.60624E-001	  1.30256E-001	  1.45633E-001	  1.53764E-001
  7.04000E-002	  1.33925E-001	  1.14907E-001	  1.35161E-001	  1.36799E-001
  7.68000E-002	  1.30201E-001	  1.18010E-001	  1.38080E-001	  1.24107E-001
  8.32000E-002	  1.14568E-001	  1.12081E-001	  1.21429E-001	  1.27143E-001
  8.96000E-002	  1.00673E-001	  8.94511E-002	  1.03176E-001	  9.87102E-002
  9.60000E-002	  8.45538E-002	  8.75117E-002	  1.13876E-001	  6.82411E-002
  1.02400E-001	  9.19246E-002	  8.50764E-002	  9.41459E-002	  7.46815E-002
  1.15200E-001	  7.32641E-002	  6.64077E-002	  7.38347E-002	  6.78783E-002
  1.28000E-001	  5.91069E-002	  5.72013E-002	  5.99964E-002	  5.47585E-002
  1.40800E-001	  5.15941E-002	  4.48027E-002	  4.14020E-002	  3.92854E-002
  1.53600E-001	  2.96151E-002	  3.47295E-002	  4.32042E-002	  3.03105E-002
  1.66400E-001	  3.56421E-002	  4.00773E-002	  4.35109E-002	  2.44659E-002
  1.79200E-001	  3.18680E-002	  4.20723E-002	  3.32980E-002	  1.17572E-002
  1.92000E-001	  1.14883E-002	  2.70342E-002	  2.75766E-002	  2.16602E-002
  2.04800E-001	  2.04737E-002	  2.98142E-002	  2.92913E-002	  1.69219E-002
  2.30400E-001	  2.55322E-002	  1.68204E-002	  2.43141E-002	  1.79902E-002
  2.56000E-001	  2.53557E-002	  1.74680E-002	  1.46315E-002	  1.66921E-002
  2.81600E-001	  2.21099E-002	  1.94557E-002	  9.16804E-003	  1.56495E-002
  3.07200E-001	  1.15632E-002	  1.51179E-002	  6.19317E-003	  1.05548E-002
  3.32800E-001	  6.87405E-003	  7.13787E-003	  8.16133E-003	  1.42334E-002
  3.58400E-001	  6.34817E-003	  7.04925E-004	  9.48269E-003	 -3.65218E-004
  3.84000E-001	 -1.60897E-003	 -6.10745E-003	  1.30154E-002	 -1.15125E-003
  4.09600E-001	 -2.30746E-004	 -3.78392E-003	  1.35504E-002	  9.67132E-003
  4.60800E-001	  3.15357E-003	  4.18856E-003	  7.36502E-003	  5.62203E-003
  5.12000E-001	  5.48784E-003	  6.18467E-004	  4.11951E-003	  4.23520E-003
  5.63200E-001	  5.21283E-003	  4.48496E-003	  5.60882E-003	  7.46408E-003
  6.14400E-001	 -3.19265E-003	 -9.88237E-004	  1.06940E-002	  8.19479E-003
  6.65600E-001	 -2.96390E-004	 -3.08408E-003	 -1.92236E-003	  5.97088E-003
  7.16800E-001	 -3.72386E-003	 -7.00011E-003	  8.30517E-003	 -1.94761E-004
  7.68000E-001	 -4.72558E-003	 -1.52480E-002	  2.99830E-003	 -2.63534E-003
  8.19200E-001	 -3.65958E-003	 -2.36523E-003	  1.95882E-003	  3.53680E-003
  9.21600E-001	 -8.56680E-003	  6.78316E-003	 -2.59332E-003	  4.18932E-003
  1.02400E+000	  1.99921E-003	 -1.46474E-004	 -2.84212E-003	  9.26840E-004
  1.12640E+000	  2.96803E-003	 -3.20689E-003	  3.40008E-003	 -4.06733E-003
  1.22880E+000	 -3.92819E-003	  3.10660E-003	 -7.81946E-005	 -8.58525E-003
  1.33120E+000	 -3.01399E-003	  1.23175E-003	 -1.20775E-003	 -1.58724E-003
  1.43360E+000	 -4.74378E-003	  1.99814E-004	  3.99397E-003	 -6.12836E-003
  1.53600E+000	 -6.60169E-003	  1.14781E-003	  7.87313E-003	 -3.37938E-003
  1.63840E+000	 -5.09983E-003	  4.29455E-003	  2.99709E-003	 -3.04106E-003
  1.84320E+000	 -8.22778E-003	  3.44752E-003	  1.77215E-003	  2.88137E-003
  2.04800E+000	 -4.80506E-003	  1.82099E-003	 -1.96468E-003	  1.60421E-003
  2.25280E+000	  2.67234E-003	  4.13393E-003	  2.22264E-003	 -5.73177E-003
  2.45760E+000	 -5.27253E-003	 -6.92650E-005	 -2.46684E-004	  3.26199E-003
  2.66240E+000	 -8.78754E-003	  2.52959E-003	  1.07293E-003	  6.62586E-003
  2.86720E+000	 -2.15267E-003	  2.66697E-003	 -4.26304E-003	  2.87290E-003
  3.07200E+000	  6.07340E-003	  6.71489E-003	 -3.71454E-003	  2.04483E-003
  3.27680E+000	  1.04788E-003	 -5.07140E-004	 -2.31372E-003	  1.33743E-003
  3.68640E+000	  4.13833E-003	 -1.97205E-004	  2.66117E-003	  2.01029E-003
  4.09600E+000	  3.01967E-003	 -3.06190E-003	 -2.10584E-003	  2.22283E-003
  4.50560E+000	  2.68745E-003	 -6.44743E-004	  5.22937E-003	 -6.41964E-005
  4.91520E+000	 -5.59802E-003	  5.85978E-003	  1.39974E-003	  6.48245E-003
  5.32480E+000	 -8.64851E-004	 -3.05945E-003	 -2.11819E-003	 -9.91039E-004
  5.73440E+000	 -5.64941E-003	 -2.08310E-004	 -5.13480E-004	  1.84001E-003
  6.14400E+000	 -3.08236E-003	 -1.70278E-003	 -3.80348E-004	  4.98409E-003
  6.55360E+000	 -1.57161E-003	  2.24506E-003	 -1.09426E-003	  8.59205E-003
  7.37280E+000	 -1.05588E-003	 -2.44504E-003	 -2.02064E-003	  3.93020E-003
  8.19200E+000	  3.33400E-003	  3.95781E-003	  3.74966E-004	 -2.05976E-004
  9.01120E+000	 -1.56846E-003	 -2.00872E-003	 -1.00248E-003	 -2.40636E-005
  9.83040E+000	  1.78799E-003	 -1.35332E-003	  3.33127E-003	  1.66699E-003
  1.06496E+001	  8.99313E-004	 -1.98327E-003	 -8.09865E-005	 -1.51990E-003
  1.14688E+001	 -1.64358E-003	  7.75741E-004	  2.03722E-003	 -3.73707E-003
  1.22880E+001	  4.08942E-003	 -1.66440E-003	  1.40593E-003	 -2.09378E-003
  1.31072E+001	 -3.60124E-003	  8.34041E-004	  4.31788E-003	  3.00952E-004
  1.47456E+001	  3.94098E-004	  7.91299E-004	  1.47628E-003	  1.04586E-003
  1.63840E+001	  5.86406E-004	 -1.80396E-003	 -2.12965E-004	  1.36381E-003
  1.80224E+001	 -1.85421E-003	 -2.93367E-003	  1.68896E-003	 -1.85174E-003
  1.96608E+001	  2.62620E-003	  2.23487E-003	 -3.10030E-003	 -8.07666E-004
  2.12992E+001	 -2.14084E-003	 -1.73011E-003	 -1.17345E-003	 -2.42568E-003
  2.29376E+001	 -7.49711E-004	 -2.12553E-004	 -1.39027E-003	  3.62799E-003
  2.45760E+001	 -1.70394E-006	  8.34506E-004	  2.07039E-005	 -4.12181E-003
  2.62144E+001	  1.68322E-003	 -3.82028E-005	 -2.13134E-003	 -3.87330E-003
  2.94912E+001	  9.57408E-004	  2.31539E-003	  8.28890E-004	  9.33582E-004
  3.27680E+001	  1.42776E-003	  7.78570E-004	 -2.13318E-003	 -1.10386E-003
  3.60448E+001	  7.50805E-004	  2.25831E-004	 -4.37134E-003	 -1.03553E-003
  3.93216E+001	 -2.06105E-003	  4.95689E-004	 -6.65749E-004	 -1.67133E-003
  4.25984E+001	 -9.69988E-005	  6.05464E-004	  4.41103E-004	 -7.18335E-004
  4.58752E+001	  1.83120E-004	 -2.46240E-003	 -1.63820E-004	 -1.58650E-003
  4.91520E+001	  3.15996E-003	 -1.13868E-003	 -2.26347E-003	 -2.70727E-003
  5.24288E+001	  1.98589E-003	 -6.94860E-004	 -1.21523E-004	 -1.92386E-003
  5.89824E+001	  7.61284E-004	 -1.05320E-003	  1.16962E-003	  2.84125E-004
  6.55360E+001	  6.32676E-004	 -5.88992E-004	  1.28413E-003	 -4.69119E-004
  7.20896E+001	 -1.32185E-003	 -3.09894E-005	  7.62168E-004	 -1.18539E-003
  7.86432E+001	  8.19003E-004	 -1.46073E-003	  4.56521E-004	  3.56759E-004
  8.51968E+001	  4.17856E-004	 -1.04927E-003	 -1.74808E-003	 -2.35502E-003
  9.17504E+001	  4.59927E-004	 -9.12067E-005	  5.59788E-004	 -7.02155E-005
  9.83040E+001	 -1.41225E-003	 -1.23548E-003	 -9.23364E-004	 -2.45670E-004
  1.04858E+002	 -1.10543E-004	 -5.18998E-004	  1.01280E-003	 -6.98796E-004
  1.17965E+002	 -7.20384E-005	  4.62628E-004	 -1.81576E-004	  1.20221E-003
  1.31072E+002	 -7.79302E-004	 -1.48929E-003	 -4.60160E-004	  5.19281E-004
  1.44179E+002	  3.88910E-004	  6.27499E-004	  1.08017E-004	 -8.72251E-004
  1.57286E+002	 -6.49584E-004	 -7.33483E-005	  1.24637E-005	  3.27811E-004
  1.70394E+002	  5.94900E-004	  1.33352E-003	  3.61742E-004	  7.69452E-005
  1.83501E+002	 -1.48859E-003	 -2.45596E-004	 -1.16912E-003	  1.08501E-003
  1.96608E+002	  4.34573E-004	  1.96916E-004	 -1.07481E-003	 -8.62659E-004
  2.09715E+002	  6.36969E-004	  7.07545E-004	  6.37045E-004	 -1.72272E-003
  2.35930E+002	 -2.01366E-004	 -8.52802E-004	  5.93656E-006	  7.21069E-004
  2.62144E+002	  7.25917E-004	 -2.30326E-004	 -5.89778E-004	  2.01241E-003
  2.88358E+002	  9.41621E-004	  3.51313E-004	  1.15249E-003	 -2.24387E-004
  3.14573E+002	  5.64425E-004	 -3.49795E-004	 -8.83860E-004	 -1.05102E-003
  3.40787E+002	  7.90198E-004	 -1.14868E-003	  5.90199E-006	 -1.00351E-003
  3.67002E+002	  3.11232E-004	  6.51135E-004	 -1.75645E-004	  2.01159E-004
  3.93216E+002	 -4.32474E-005	  4.56380E-004	 -5.57271E-004	  6.07411E-005

"Count Rate"
       0.01311	      44.86084	      57.37305	      53.86353	      47.68372
       0.02621	      54.85535	      57.60193	      50.65918	      44.02161
       0.03932	      48.29407	      52.18506	      53.71094	      58.59375
       0.05243	      45.62378	      53.25317	      59.66187	      48.98071
       0.06554	      53.93982	      56.61011	      52.94800	      54.62646
       0.07864	      56.45752	      52.10876	      50.27771	      50.96436
       0.09175	      46.84448	      51.65100	      52.79541	      46.00525
       0.10486	      53.17688	      51.80359	      56.45752	      59.35669
       0.11796	      55.54199	      54.01611	      68.89343	      52.18506
       0.13107	      50.73547	      47.83630	      56.76270	      52.56653
       0.14418	      52.64282	      54.09241	      49.13330	      53.55835
       0.15729	      53.10059	      49.74365	      44.17419	      45.24231
       0.17039	      54.85535	      67.06238	      53.17688	      53.86353
       0.18350	      49.97253	      60.50110	      57.06787	      46.00525
       0.19661	      52.94800	      51.42212	      56.38123	      49.74365
       0.20972	      52.10876	      51.57471	      49.51477	      57.14417
       0.22282	      52.10876	      53.71094	      53.48206	      62.71362
       0.23593	      52.71912	      56.91528	      50.27771	      60.80627
       0.24904	      54.77905	      52.10876	      46.38672	      50.58289
       0.26214	      50.96436	      55.00793	      50.81177	      52.87170
       0.27525	      55.77087	      57.98340	      48.52295	      47.07336
       0.28836	      53.40576	      57.90710	      55.69458	      52.26135
       0.30147	      50.04883	      49.66736	      53.86353	      48.82813
       0.31457	      56.99158	      56.22864	      50.96436	      55.92346
       0.32768	      54.39758	      53.63464	      54.39758	      54.47388
       0.34079	      55.08423	      53.71094	      55.16052	      52.10876
       0.35389	      49.36218	      53.63464	      51.19324	      52.18506
       0.36700	      50.43030	      48.98071	      48.90442	      50.43030
       0.38011	      55.08423	      51.80359	      50.73547	      48.75183
       0.39322	      47.37854	      54.47388	      49.43848	      56.07605
       0.40632	      49.28589	      52.79541	      52.64282	      52.41394
       0.41943	      50.27771	      51.34583	      53.63464	      51.04065
       0.43254	      50.81177	      63.55286	      49.43848	      45.70007
       0.44564	      48.06519	      51.26953	      48.29407	      50.58289
       0.45875	      51.80359	      65.07874	      53.32947	      51.42212
       0.47186	      50.73547	      54.24500	      53.71094	      61.49292
       0.48497	      49.81995	      55.99976	      54.32129	      64.62097
       0.49807	      49.13330	      55.99976	      52.03247	      53.02429
       0.51118	      47.60742	      51.42212	      56.15234	      51.26953
       0.52429	      51.72729	      48.21777	      53.93982	      49.20959
       0.53740	      50.65918	      49.20959	      56.99158	      51.95618
       0.55050	      55.16052	      57.75452	      52.71912	      47.07336
       0.56361	      44.63196	      49.66736	      57.22046	      51.26953
       0.57672	      55.46570	      55.54199	      49.89624	      51.04065
       0.58982	      50.12512	      56.76270	      44.47937	      51.26953
       0.60293	      60.80627	      54.24500	      52.26135	      59.66187
       0.61604	      52.03247	      54.01611	      54.39758	      51.19324
       0.62915	      54.47388	      54.39758	      61.72180	      49.28589
       0.64225	      51.26953	      56.07605	      54.70276	      56.76270
       0.65536	      49.36218	      52.10876	      48.90442	      55.92346
       0.66847	      47.91260	      57.75452	      52.56653	      57.44934
       0.68157	      53.86353	      53.17688	      51.34583	      47.91260
       0.69468	      50.81177	      55.00793	      61.11145	      54.55017
       0.70779	      47.53113	      44.25049	      45.31860	      47.68372
       0.72090	      45.16602	      54.85535	      46.46301	      55.00793
       0.73400	      44.47937	      48.29407	      57.22046	      55.08423
       0.74711	      52.94800	      52.33765	      55.92346	      54.24500
