ALV-7004/USB-FAST
Date :	"11/11/2025"
Time :	"3:55:20 PM"
Samplename : 	""
SampMemo(0) : 	""
SampMemo(1) : 	""
SampMemo(2) : 	""
SampMemo(3) : 	""
SampMemo(4) : 	""
SampMemo(5) : 	""
SampMemo(6) : 	""
SampMemo(7) : 	""
SampMemo(8) : 	""
SampMemo(9) : 	""
Temperature [K] :	     298.16000
Viscosity [cp]  :	       0.89000
Refractive Index:	       1.33200
Wavelength [nm] :	       0.00000
Angle [°]       :	       0.00000
Duration [s]    :	         1
FloatDur [ms]   :	          944
Stop TP [ms]   :	     63414
Runs            :	         1
Mode            :	"A-CH0+1  A-CH2+3 "
MeanCR0 [kHz]   :	      53.61027
MeanCR1 [kHz]   :	      52.34613
MeanCR2 [kHz]   :	      53.25317
MeanCR3 [kHz]   :	      54.09347

"Correlation"
  3.12500E-006	 -1.00000E+000	 -1.00000E+000	 -1.00000E+000	 -1.00000E+000
  6.25000E-006	 -1.00000E+000	 -1.00000E+000	 -1.00000E+000	 -1.00000E+000
  9.37500E-006	 -1.00000E+000	 -1.00000E+000	 -1.00000E+000	 -1.00000E+000
  1.25000E-005	 -1.00000E+000	 -1.00000E+000	 -1.00000E+000	 -1.00000E+000
  1.56250E-005	 -1.00000E+000	 -1.00000E+000	 -1.00000E+000	 -1.00000E+000
  1.87500E-005	 -1.00000E+000	 -1.00000E+000	 -1.00000E+000	 -1.00000E+000
  2.18750E-005	 -6.46057E-001	  2.37481E-001	  1.27180E+000	 -4.20587E-001
  2.50000E-005	  1.18599E+001	  1.19935E+001	  1.28699E+001	  2.93612E+001
  2.81250E-005	  4.42712E+000	  3.20743E+000	  1.27180E+000	  8.15472E+000
  3.12500E-005	  1.83154E+000	  1.22747E+000	  1.27180E+000	  4.67824E+000
  3.43750E-005	  5.33751E-001	  1.22747E+000	  1.03266E+000	  4.09883E+000
  3.75000E-005	  4.15770E-001	  1.35121E+000	  7.93527E-001	  3.28765E+000
  4.06250E-005	  1.12366E+000	  1.35121E+000	  1.63051E+000	  3.63530E+000
  4.37500E-005	  4.15770E-001	  1.10372E+000	  5.54390E-001	  2.36059E+000
  4.68750E-005	  1.35962E+000	  1.10372E+000	  1.15223E+000	  3.05589E+000
  5.00000E-005	  1.12366E+000	  1.22747E+000	  1.86964E+000	  1.72324E+000
  5.62500E-005	  6.18276E-002	  6.08725E-001	  4.34821E-001	  2.36059E+000
  6.25000E-005	  8.87693E-001	  7.94347E-001	  7.33742E-001	  1.78118E+000
  6.87500E-005	  1.00567E+000	  5.46851E-001	  7.33742E-001	  7.96179E-001
  7.50000E-005	  5.92741E-001	  1.10372E+000	  8.53311E-001	  1.37559E+000
  8.12500E-005	  9.46684E-001	  7.32473E-001	  5.54390E-001	  1.14383E+000
  8.75000E-005	  8.87693E-001	  7.94347E-001	  8.53311E-001	  9.70003E-001
  9.37500E-005	  4.74761E-001	  4.84977E-001	  4.94605E-001	  5.06473E-001
  1.00000E-004	  4.15770E-001	  7.94347E-001	  9.42987E-001	  9.41032E-001
  1.12500E-004	  9.76179E-001	  7.01536E-001	  4.34821E-001	  9.12061E-001
  1.25000E-004	  3.27284E-001	  4.54040E-001	  3.75037E-001	  9.70002E-001
  1.37500E-004	  7.69712E-001	  2.06544E-001	  9.13095E-001	  7.09267E-001
  1.50000E-004	  7.99208E-001	  8.87158E-001	  2.55468E-001	  2.16766E-001
  1.62500E-004	  4.15770E-001	  7.94347E-001	  4.94605E-001	  9.12061E-001
  1.75000E-004	  4.45265E-001	  7.63410E-001	  4.94605E-001	  6.22355E-001
  1.87500E-004	  1.79808E-001	  8.25284E-001	  4.64713E-001	  2.74707E-001
  2.00000E-004	  2.53546E-001	  5.00445E-001	  4.49767E-001	  5.06472E-001
  2.25000E-004	  2.53546E-001	  4.69508E-001	  7.03850E-001	  3.76104E-001
  2.50000E-004	  3.12536E-001	  5.77787E-001	  5.24497E-001	  6.80296E-001
  2.75000E-004	  3.27284E-001	  4.23102E-001	  7.48688E-001	  7.23752E-001
  3.00000E-004	  6.95974E-001	  3.61228E-001	  7.78580E-001	  7.67208E-001
  3.25000E-004	  7.40217E-001	  5.46850E-001	  6.88904E-001	  3.18163E-001
  3.50000E-004	  3.27284E-001	  6.70599E-001	  4.94605E-001	  5.20957E-001
  3.75000E-004	  5.33750E-001	  4.38571E-001	  4.49767E-001	  7.09266E-001
  4.00000E-004	  4.60012E-001	  5.39116E-001	  3.15252E-001	  5.93383E-001
  4.50000E-004	  5.48497E-001	  3.92165E-001	  5.02077E-001	  5.64413E-001
  5.00000E-004	  5.55871E-001	  4.07633E-001	  4.49766E-001	  4.84744E-001
  5.50000E-004	  6.00114E-001	  4.61773E-001	  3.60090E-001	  3.76104E-001
  6.00000E-004	  3.93648E-001	  3.45759E-001	  5.61861E-001	  7.59964E-001
  6.50000E-004	  4.96881E-001	  6.55129E-001	  6.59011E-001	  4.70258E-001
  7.00000E-004	  3.19910E-001	  6.70598E-001	  4.34820E-001	  4.12317E-001
  7.50000E-004	  4.30517E-001	  4.92710E-001	  5.17023E-001	  5.86141E-001
  8.00000E-004	  5.52183E-001	  4.69506E-001	  5.09549E-001	  5.93382E-001
  9.00000E-004	  4.56324E-001	  4.81107E-001	  4.57238E-001	  4.52150E-001
  1.00000E-003	  4.37889E-001	  5.15912E-001	  4.27346E-001	  4.59393E-001
  1.10000E-003	  5.04253E-001	  5.73918E-001	  5.35705E-001	  5.02849E-001
  1.20000E-003	  4.41576E-001	  5.85520E-001	  5.17022E-001	  4.77500E-001
  1.30000E-003	  4.60011E-001	  6.16457E-001	  5.05812E-001	  5.89761E-001
  1.40000E-003	  4.41576E-001	  6.08722E-001	  5.24495E-001	  6.00625E-001
  1.50000E-003	  3.71525E-001	  5.93254E-001	  5.13286E-001	  4.37665E-001
  1.60000E-003	  4.80286E-001	  4.38567E-001	  4.62840E-001	  5.22764E-001
  1.80000E-003	  5.22685E-001	  6.06786E-001	  4.14266E-001	  5.69841E-001
  2.00000E-003	  5.20842E-001	  6.24188E-001	  3.54482E-001	  4.32231E-001
  2.20000E-003	  5.46650E-001	  5.06241E-001	  4.66577E-001	  5.87947E-001
  2.40000E-003	  4.24983E-001	  5.21710E-001	  5.03942E-001	  4.24988E-001
  2.60000E-003	  4.82129E-001	  5.37178E-001	  4.14266E-001	  3.86964E-001
  2.80000E-003	  5.20842E-001	  5.25577E-001	  5.00205E-001	  4.88361E-001
  3.00000E-003	  4.80286E-001	  5.37178E-001	  5.00205E-001	  4.99225E-001
  3.20000E-003	  4.83968E-001	  5.24605E-001	  4.50692E-001	  5.12800E-001
  3.60000E-003	  4.70142E-001	  5.23638E-001	  4.65638E-001	  4.52143E-001
  4.00000E-003	  4.16682E-001	  5.57475E-001	  4.45087E-001	  3.89675E-001
  4.40000E-003	  4.54473E-001	  4.98502E-001	  4.75913E-001	  4.24078E-001
  4.80000E-003	  4.87655E-001	  5.38140E-001	  4.74045E-001	  4.85640E-001
  5.20000E-003	  5.47566E-001	  5.31372E-001	  4.07722E-001	  4.76587E-001
  5.60000E-003	  5.23602E-001	  4.25994E-001	  3.87171E-001	  4.84735E-001
  6.00000E-003	  5.29132E-001	  5.15904E-001	  4.96464E-001	  4.56670E-001
  6.40000E-003	  5.04696E-001	  5.11060E-001	  4.72663E-001	  4.71145E-001
  7.20000E-003	  4.94557E-001	  4.87374E-001	  4.44639E-001	  4.59376E-001
  8.00000E-003	  4.56767E-001	  4.88341E-001	  4.48375E-001	  4.89251E-001
  8.80000E-003	  4.60454E-001	  4.50637E-001	  4.66591E-001	  5.30896E-001
  9.60000E-003	  4.52620E-001	  5.32812E-001	  4.74064E-001	  4.60281E-001
  1.04000E-002	  4.84880E-001	  4.95108E-001	  4.80136E-001	  4.63450E-001
  1.12000E-002	  4.35107E-001	  4.81573E-001	  4.74998E-001	  5.39949E-001
  1.20000E-002	  4.59532E-001	  5.10093E-001	  4.42303E-001	  4.40817E-001
  1.28000E-002	  4.42490E-001	  4.99922E-001	  4.50953E-001	  4.84478E-001
  1.44000E-002	  4.79819E-001	  4.93396E-001	  4.56558E-001	  4.83799E-001
  1.60000E-002	  4.63459E-001	  5.37383E-001	  4.44619E-001	  4.94437E-001
  1.76000E-002	  4.72906E-001	  4.72882E-001	  4.30607E-001	  4.91268E-001
  1.92000E-002	  4.73598E-001	  4.86175E-001	  4.51158E-001	  4.99189E-001
  2.08000E-002	  4.65993E-001	  4.59589E-001	  4.38781E-001	  4.58224E-001
  2.24000E-002	  4.43181E-001	  4.86175E-001	  4.47889E-001	  5.04621E-001
  2.40000E-002	  4.45946E-001	  4.76991E-001	  4.49757E-001	  4.62977E-001
  2.56000E-002	  4.48240E-001	  4.85561E-001	  4.42857E-001	  4.50773E-001
  2.88000E-002	  4.50746E-001	  5.00425E-001	  4.71348E-001	  4.81667E-001
  3.20000E-002	  4.61115E-001	  4.78068E-001	  4.33166E-001	  4.72558E-001
  3.52000E-002	  4.69785E-001	  4.57041E-001	  4.17986E-001	  4.57394E-001
  3.84000E-002	  4.34299E-001	  4.86195E-001	  4.31181E-001	  4.53319E-001
  4.16000E-002	  4.44553E-001	  4.68430E-001	  4.23329E-001	  4.75161E-001
  4.48000E-002	  4.55959E-001	  4.77494E-001	  4.28350E-001	  4.69079E-001
  4.80000E-002	  4.52964E-001	  4.56225E-001	  4.15623E-001	  4.57648E-001
  5.12000E-002	  4.50724E-001	  4.61008E-001	  4.20945E-001	  4.70051E-001
  5.76000E-002	  4.30563E-001	  4.53424E-001	  4.18201E-001	  4.49960E-001
  6.40000E-002	  4.25897E-001	  4.56082E-001	  4.17384E-001	  4.54601E-001
  7.04000E-002	  4.17659E-001	  4.44270E-001	  4.13239E-001	  4.41414E-001
  7.68000E-002	  4.13742E-001	  4.33092E-001	  4.17501E-001	  4.43254E-001
  8.32000E-002	  4.12850E-001	  4.26626E-001	  3.82322E-001	  4.41612E-001
  8.96000E-002	  4.17862E-001	  4.26082E-001	  3.99896E-001	  4.26443E-001
  9.60000E-002	  4.04843E-001	  4.21245E-001	  3.91461E-001	  4.29104E-001
  1.02400E-001	  4.06415E-001	  4.04911E-001	  3.94896E-001	  4.16309E-001
  1.15200E-001	  3.82682E-001	  3.93461E-001	  3.74025E-001	  4.03708E-001
  1.28000E-001	  3.79457E-001	  3.90528E-001	  3.72445E-001	  4.06145E-001
  1.40800E-001	  3.71997E-001	  3.75238E-001	  3.56242E-001	  4.00511E-001
  1.53600E-001	  3.74069E-001	  3.64874E-001	  3.31626E-001	  3.78002E-001
  1.66400E-001	  3.62808E-001	  3.54903E-001	  3.24211E-001	  3.56316E-001
  1.79200E-001	  3.39219E-001	  3.45294E-001	  3.14709E-001	  3.62600E-001
  1.92000E-001	  3.29112E-001	  3.34413E-001	  3.10381E-001	  3.40542E-001
  2.04800E-001	  3.17187E-001	  3.21099E-001	  3.02167E-001	  3.30428E-001
  2.30400E-001	  2.99070E-001	  2.92275E-001	  2.82848E-001	  3.19037E-001
  2.56000E-001	  2.83338E-001	  2.71635E-001	  2.65439E-001	  2.89718E-001
  2.81600E-001	  2.63180E-001	  2.52180E-001	  2.41800E-001	  2.58792E-001
  3.07200E-001	  2.47180E-001	  2.30992E-001	  2.31562E-001	  2.50126E-001
  3.32800E-001	  2.37008E-001	  2.14781E-001	  2.16793E-001	  2.40877E-001
  3.58400E-001	  2.19467E-001	  2.11134E-001	  2.02174E-001	  2.16417E-001
  3.84000E-001	  2.03914E-001	  1.85525E-001	  1.91876E-001	  1.99282E-001
  4.09600E-001	  1.92877E-001	  1.63544E-001	  1.77744E-001	  1.90992E-001
  4.60800E-001	  1.67567E-001	  1.39888E-001	  1.59010E-001	  1.69858E-001
  5.12000E-001	  1.43323E-001	  1.29524E-001	  1.48554E-001	  1.44544E-001
  5.63200E-001	  1.23166E-001	  9.68859E-002	  1.25487E-001	  1.31499E-001
  6.14400E-001	  1.07453E-001	  7.82071E-002	  1.04346E-001	  1.12672E-001
  6.65600E-001	  9.77282E-002	  6.55806E-002	  9.60823E-002	  9.98269E-002
  7.16800E-001	  8.59648E-002	  6.28843E-002	  8.25468E-002	  8.78255E-002
  7.68000E-001	  7.64403E-002	  4.93825E-002	  7.69166E-002	  7.26375E-002
  8.19200E-001	  6.63288E-002	  4.07179E-002	  6.75677E-002	  6.74624E-002
  9.21600E-001	  5.17843E-002	  3.60867E-002	  5.57954E-002	  5.45996E-002
  1.02400E+000	  3.57227E-002	  2.57355E-002	  4.55849E-002	  4.57630E-002
  1.12640E+000	  2.73687E-002	  2.34001E-002	  3.29956E-002	  3.75158E-002
  1.22880E+000	  2.04557E-002	  2.53728E-002	  3.44436E-002	  3.26447E-002
  1.33120E+000	  1.69968E-002	  1.66253E-002	  3.11184E-002	  2.46534E-002
  1.43360E+000	  1.93887E-002	  1.21387E-002	  3.02122E-002	  2.12282E-002
  1.53600E+000	  1.59758E-002	  4.13671E-005	  3.06758E-002	  7.21302E-003
  1.63840E+000	  1.92908E-002	 -4.72205E-003	  3.11382E-002	  4.87497E-003
  1.84320E+000	  1.67394E-002	 -1.99251E-003	  2.37584E-002	  7.97003E-004
  2.04800E+000	  1.46351E-002	 -4.78026E-003	  1.09509E-002	 -2.14645E-003
  2.25280E+000	  1.01410E-002	 -1.93331E-003	  8.56663E-004	  7.16595E-003
  2.45760E+000	  7.14267E-003	 -2.39368E-003	 -1.03395E-002	  1.47178E-002
  2.66240E+000	  4.05924E-003	 -8.73490E-003	 -1.08216E-002	  2.79994E-002
  2.86720E+000	  3.93615E-003	 -1.45335E-002	 -1.10206E-002	  2.35717E-002
  3.07200E+000	  9.40475E-004	 -2.02042E-002	 -8.84913E-003	  2.42328E-002
  3.27680E+000	 -6.56438E-003	 -2.10273E-002	 -5.57062E-003	  2.43922E-002
  3.68640E+000	 -1.50839E-002	 -2.21018E-002	  6.22016E-003	  2.07665E-002
  4.09600E+000	 -1.52566E-002	 -1.55828E-002	  5.02143E-003	  1.87716E-002
  4.50560E+000	 -1.66093E-002	 -1.38265E-002	 -2.33005E-003	  2.08884E-002
  4.91520E+000	 -8.77052E-004	 -1.18086E-002	  1.92721E-003	  2.95830E-002
  5.32480E+000	  2.45989E-003	 -1.30374E-002	  1.61558E-003	  1.39345E-002
  5.73440E+000	  4.30126E-003	 -1.86342E-002	  1.21080E-002	  1.81225E-003
  6.14400E+000	 -1.04759E-002	 -8.30328E-003	  1.14143E-003	 -7.69192E-003
  6.55360E+000	 -9.54158E-003	 -8.94622E-004	 -9.83079E-004	 -5.04724E-003
  7.37280E+000	  3.04701E-003	  1.47933E-002	  4.01232E-003	  1.10129E-002
  8.19200E+000	  2.19419E-002	 -5.69370E-003	  1.26617E-003	  1.31374E-002
  9.01120E+000	 -6.88049E-003	 -1.25892E-002	  6.23629E-003	 -4.59631E-003
  9.83040E+000	  7.00263E-004	 -9.86486E-003	  1.36431E-002	 -9.92666E-003
  1.06496E+001	  2.13293E-002	 -8.91297E-003	  6.27292E-003	 -6.63716E-003
  1.14688E+001	  2.06686E-002	 -2.48753E-003	 -3.71860E-003	 -8.96216E-003
  1.22880E+001	  1.70209E-002	  2.49376E-003	  7.13266E-003	 -2.84063E-003
  1.31072E+001	  1.12642E-002	  1.21479E-003	  2.67056E-003	  2.63898E-003
  1.47456E+001	  6.37820E-003	 -2.62958E-003	 -1.13595E-002	 -1.04746E-002
  1.63840E+001	  1.61902E-002	  9.23763E-003	  5.40572E-003	 -1.15084E-002
  1.80224E+001	  5.17722E-003	  6.63454E-003	 -2.18132E-003	 -7.58182E-003
  1.96608E+001	 -1.03561E-002	  3.80340E-003	 -8.96085E-003	  2.01676E-003
  2.12992E+001	  8.21912E-003	 -7.10094E-003	 -3.18846E-003	 -5.04809E-003
  2.29376E+001	 -1.02838E-002	 -3.65719E-003	  1.04430E-002	 -6.24434E-003
  2.45760E+001	 -1.59740E-002	 -2.28557E-003	 -3.44731E-003	 -7.74133E-003
  2.62144E+001	 -4.68125E-003	 -9.88847E-005	 -4.14945E-003	 -7.11128E-003
  2.94912E+001	 -2.32542E-003	 -2.51487E-003	 -5.26545E-003	  5.26081E-003
  3.27680E+001	 -6.29755E-003	  5.03861E-003	 -1.46053E-003	  6.18580E-003
  3.60448E+001	 -8.63460E-005	 -2.08436E-003	 -3.03093E-003	 -3.50486E-003
  3.93216E+001	 -3.92059E-003	 -6.16966E-003	  9.46798E-003	  5.10223E-003
  4.25984E+001	 -5.64444E-003	  5.05296E-003	 -5.44399E-003	 -9.22440E-004
  4.58752E+001	 -1.33157E-002	 -1.89767E-003	 -1.67638E-003	 -3.54070E-003
  4.91520E+001	  8.89734E-003	 -1.45298E-002	  1.06251E-003	 -6.46807E-003
  5.24288E+001	  2.73787E-003	 -3.56791E-003	 -7.42546E-004	 -1.07087E-002
  5.89824E+001	 -3.54396E-003	  2.56088E-003	 -7.68807E-003	  8.96575E-003
  6.55360E+001	 -4.22365E-004	  3.00435E-003	 -1.20755E-003	  8.19269E-003
  7.20896E+001	 -5.05388E-004	 -9.17362E-003	 -6.14205E-003	 -9.41773E-003
  7.86432E+001	  1.53294E-004	  5.80328E-003	 -8.11206E-003	 -5.69308E-003
  8.51968E+001	  3.35046E-003	  4.09612E-003	 -3.98779E-003	  2.71840E-003
  9.17504E+001	 -2.56066E-003	  4.00322E-003	 -9.43994E-003	  1.29034E-002
  9.83040E+001	  9.51247E-004	 -2.41656E-004	 -3.61161E-003	  2.20715E-003
  1.04858E+002	 -1.70842E-003	  9.70767E-004	  1.95502E-004	  3.21867E-003
  1.17965E+002	 -2.11784E-003	  1.99969E-004	  6.88923E-003	  4.92465E-003
  1.31072E+002	 -4.26676E-003	 -5.95735E-005	 -3.46088E-003	 -3.88959E-003
  1.44179E+002	 -5.45137E-003	 -4.05250E-003	  1.01227E-002	  3.41320E-003
  1.57286E+002	  1.74047E-003	 -8.06108E-004	 -1.36583E-003	 -3.96545E-003
  1.70394E+002	  2.65899E-003	  8.32791E-003	 -4.32080E-003	  6.42528E-003
  1.83501E+002	  3.30981E-003	 -9.77747E-003	  8.22955E-003	  9.13959E-003
  1.96608E+002	  4.98162E-003	  4.80679E-003	 -3.57006E-003	  3.45094E-003
  2.09715E+002	 -3.29832E-003	  2.93811E-003	 -3.89025E-003	  8.84640E-003
  2.35930E+002	  5.09193E-003	 -1.13342E-003	  1.96151E-005	 -6.42107E-003
  2.62144E+002	  4.57753E-004	 -9.25517E-004	 -1.43149E-003	  1.45498E-003
  2.88358E+002	 -4.32003E-003	  1.23696E-003	  2.40899E-003	  7.71920E-003
  3.14573E+002	  1.22002E-003	 -1.20766E-003	 -4.08063E-003	 -5.60055E-003
  3.40787E+002	 -7.82150E-003	 -1.31940E-003	  4.37545E-003	  2.08424E-003
  3.67002E+002	 -9.38353E-004	 -1.47465E-004	  1.78406E-003	  1.22701E-003
  3.93216E+002	 -4.27150E-003	  2.52408E-004	 -1.56366E-003	  5.98539E-003

"Count Rate"
       0.01311	      68.43567	      46.99707	      63.01880	      65.07874
       0.02621	      29.37317	      56.83899	      32.42493	      31.50940
       0.03932	      39.74915	      59.50928	      40.89355	      42.03796
       0.05243	      43.79272	      57.83081	      65.38391	      50.20142
       0.06554	      59.58557	      36.92627	      67.74902	      72.25037
       0.07864	      47.07336	      58.21228	      56.76270	      41.35132
       0.09175	      62.25586	      51.34583	      74.99695	      67.21497
       0.10486	      73.08960	      47.68372	      57.29675	      59.05151
       0.11796	      68.35938	      61.95068	      45.47119	      58.44116
       0.13107	      55.31311	      46.99707	      47.76001	      66.83350
       0.14418	      44.63196	      56.91528	      47.45483	      37.23145
       0.15729	      64.08691	      43.86902	      39.29138	      67.59644
       0.17039	      55.99976	      54.47388	      53.17688	      45.62378
       0.18350	      54.16870	      40.66467	      46.92078	      67.74902
       0.19661	      65.07874	      48.67554	      52.33765	      66.68091
       0.20972	      46.61560	      54.47388	      45.31860	      56.45752
       0.22282	      41.80908	      52.03247	      47.60742	      48.98071
       0.23593	      36.54480	      52.79541	      60.19592	      64.31580
       0.24904	      41.04614	      67.59644	      50.96436	      43.71643
       0.26214	      60.80627	      37.91809	      41.96167	      37.23145
       0.27525	      62.78992	      53.25317	      59.28040	      75.30212
       0.28836	      37.46033	      65.68909	      60.72998	      63.47656
       0.30147	      57.67822	      42.34314	      23.04077	      63.70544
       0.31457	      49.89624	      55.31311	      56.61011	      55.23682
       0.32768	      50.35400	      46.31042	      52.33765	      71.25854
       0.34079	      52.26135	      58.05969	      55.16052	      55.38940
       0.35389	      52.03247	      53.48206	      52.10876	      41.42761
       0.36700	      47.60742	      61.34033	      45.47119	      57.29675
       0.38011	      62.33215	      53.93982	      60.42480	      53.02429
       0.39322	      64.31580	      55.23682	      57.60193	      51.04065
       0.40632	      44.25049	      53.02429	      53.32947	      61.18774
       0.41943	      52.41394	      55.46570	      50.04883	      49.97253
       0.43254	      56.30493	      45.24231	      59.89075	      51.57471
       0.44564	      44.17419	      60.50110	      55.54199	      56.76270
       0.45875	      41.19873	      55.77087	      54.70276	      40.51208
       0.47186	      44.55566	      40.58838	      57.98340	      49.74365
       0.48497	      50.43030	      46.31042	      46.23413	      69.04602
       0.49807	      56.22864	      60.11963	      53.02429	      69.19861
       0.51118	      54.70276	      54.01611	      52.49023	      60.11963
       0.52429	      46.00525	      60.11963	      48.29407	      40.89355
       0.53740	      36.16333	      44.78455	      38.52844	      36.31592
       0.55050	      63.70544	      41.19873	      61.95068	      47.07336
       0.56361	      56.07605	      55.77087	      45.62378	      50.12512
       0.57672	      67.67273	      59.20410	      58.82263	      54.39758
       0.58982	      54.01611	      60.65369	      44.17419	      55.00793
       0.60293	      41.19873	      48.98071	      64.46838	      41.19873
       0.61604	      54.85535	      67.29126	      82.47375	      46.69189
       0.62915	      52.33765	      35.55298	      42.03796	      60.34851
       0.64225	      36.39221	      44.17419	      51.57471	      46.99707
       0.65536	      58.51746	      49.36218	      47.83630	      42.34314
       0.66847	      47.22595	      45.39490	      50.73547	      58.05969
       0.68157	      56.15234	      53.02429	      51.19324	      54.85535
       0.69468	      50.50659	      48.98071	      50.50659	      54.39758
       0.70779	      57.06787	      42.26685	      47.68372	      54.62646
       0.72090	      51.65100	      47.83630	      57.98340	      39.97803
       0.73400	      59.66187	      44.93713	      67.67273	      56.07605
       0.74711	      70.57190	      43.56384	      57.98340	      54.16870
