ALV-7004/USB-FAST
Date :	"11/11/2025"
Time :	"3:52:55 PM"
Samplename : 	""
SampMemo(0) : 	""
SampMemo(1) : 	""
SampMemo(2) : 	""
SampMemo(3) : 	""
SampMemo(4) : 	""
SampMemo(5) : 	""
SampMemo(6) : 	""
SampMemo(7) : 	""
SampMemo(8) : 	""
SampMemo(9) : 	""
Temperature [K] :	     298.16000
Viscosity [cp]  :	       0.89000
Refractive Index:	       1.33200
Wavelength [nm] :	       0.00000
Angle [°]       :	       0.00000
Duration [s]    :	         1
FloatDur [ms]   :	          944
Stop TP [ms]   :	     58046
Runs            :	         1
Mode            :	"A-CH0+1  A-CH2+3 "
MeanCR0 [kHz]   :	      59.47007
MeanCR1 [kHz]   :	      60.59223
MeanCR2 [kHz]   :	      59.44464
MeanCR3 [kHz]   :	      58.50792

"Correlation"
  3.12500E-006	 -1.00000E+000	 -1.00000E+000	 -1.00000E+000	 -1.00000E+000
  6.25000E-006	 -1.00000E+000	 -1.00000E+000	 -1.00000E+000	 -1.00000E+000
  9.37500E-006	 -1.00000E+000	 -1.00000E+000	 -1.00000E+000	 -1.00000E+000
  1.25000E-005	 -1.00000E+000	 -1.00000E+000	 -1.00000E+000	 -1.00000E+000
  1.56250E-005	 -1.00000E+000	 -1.00000E+000	 -1.00000E+000	 -1.00000E+000
  1.87500E-005	 -1.00000E+000	 -1.00000E+000	 -1.00000E+000	 -1.00000E+000
  2.18750E-005	 -1.00000E+000	  2.00652E-001	  8.23206E-001	 -7.02834E-001
  2.50000E-005	  1.56827E+001	  1.35002E+001	  1.12827E+001	  2.39620E+001
  2.81250E-005	  3.12275E+000	  2.60196E+000	  1.11108E+000	  9.00460E+000
  3.12500E-005	  1.58870E+000	  1.58602E+000	  9.19164E-001	  4.15088E+000
  3.43750E-005	  6.29924E-001	  3.85367E-001	  6.31290E-001	  3.35844E+000
  3.75000E-005	  1.01344E+000	  8.47157E-001	  1.20704E+000	  2.86316E+000
  4.06250E-005	  1.01344E+000	  1.49366E+000	  1.01512E+000	  3.85372E+000
  4.37500E-005	  1.01344E+000	 -7.64218E-002	  6.31290E-001	  2.07072E+000
  4.68750E-005	  3.42290E-001	  1.08294E-001	  2.47457E-001	  2.66505E+000
  5.00000E-005	  5.81985E-001	  5.70083E-001	  9.67143E-001	  2.66505E+000
  5.62500E-005	  9.65496E-001	  8.93335E-001	  6.31289E-001	  1.42686E+000
  6.25000E-005	  1.06137E+000	  6.62441E-001	  1.06310E+000	  1.67450E+000
  6.87500E-005	  6.29924E-001	 -1.22601E-001	  1.11108E+000	  7.82997E-001
  7.50000E-005	  4.38168E-001	  8.93335E-001	  4.87352E-001	  8.32525E-001
  8.12500E-005	  6.29924E-001	  7.54799E-001	  9.19164E-001	  8.82053E-001
  8.75000E-005	  8.69618E-001	  6.62441E-001	  7.27248E-001	  1.82308E+000
  9.37500E-005	  8.69618E-001	  3.39188E-001	  7.27248E-001	  5.84887E-001
  1.00000E-004	  7.01832E-001	  4.31546E-001	  6.79268E-001	  7.08706E-001
  1.12500E-004	  7.01832E-001	  8.24067E-001	  7.51237E-001	  8.07761E-001
  1.25000E-004	  2.46412E-001	  6.85530E-001	  4.63362E-001	  8.32525E-001
  1.37500E-004	  5.81985E-001	  6.16262E-001	  4.39373E-001	  7.82997E-001
  1.50000E-004	  8.45649E-001	  8.24067E-001	  6.07300E-001	  6.09650E-001
  1.62500E-004	  6.29923E-001	  2.93009E-001	  5.11342E-001	  1.39137E-001
  1.75000E-004	  5.10076E-001	  6.85530E-001	  6.55279E-001	  6.34414E-001
  1.87500E-004	  5.34046E-001	  6.62441E-001	  7.27248E-001	  5.84886E-001
  2.00000E-004	  5.46030E-001	  8.00977E-001	  3.07430E-001	  4.85831E-001
  2.25000E-004	  3.30305E-001	  6.85530E-001	  5.35331E-001	  4.23921E-001
  2.50000E-004	  7.13816E-001	  3.62277E-001	  3.07430E-001	  3.86775E-001
  2.75000E-004	  5.58015E-001	  6.73985E-001	  4.63362E-001	  3.62011E-001
  3.00000E-004	  3.06335E-001	  6.27806E-001	  2.23467E-001	  4.85831E-001
  3.25000E-004	  4.86106E-001	  5.58538E-001	  6.19294E-001	  3.86775E-001
  3.50000E-004	  6.17938E-001	  5.35448E-001	  3.79399E-001	  3.74393E-001
  3.75000E-004	  6.77862E-001	  5.23904E-001	  5.95305E-001	  8.82052E-001
  4.00000E-004	  6.11945E-001	  6.56667E-001	  3.85396E-001	  6.59177E-001
  4.50000E-004	  4.74121E-001	  5.52765E-001	  6.43283E-001	  4.11539E-001
  5.00000E-004	  4.86106E-001	  4.89269E-001	  7.09254E-001	  4.23920E-001
  5.50000E-004	  4.02213E-001	  5.18131E-001	  6.25291E-001	  3.62011E-001
  6.00000E-004	  3.66259E-001	  4.48862E-001	  5.53322E-001	  4.54875E-001
  6.50000E-004	  4.80113E-001	  4.20000E-001	  6.73270E-001	  6.40604E-001
  7.00000E-004	  5.22060E-001	  4.25773E-001	  3.91393E-001	  5.41549E-001
  7.50000E-004	  5.10075E-001	  4.83496E-001	  4.99346E-001	  5.16785E-001
  8.00000E-004	  4.68127E-001	  4.08455E-001	  4.54364E-001	  5.13688E-001
  9.00000E-004	  3.78242E-001	  5.52763E-001	  5.44325E-001	  4.57970E-001
  1.00000E-003	  5.13070E-001	  5.84511E-001	  5.11339E-001	  5.07497E-001
  1.10000E-003	  4.41162E-001	  3.91137E-001	  4.15381E-001	  4.54874E-001
  1.20000E-003	  4.65131E-001	  3.47845E-001	  4.81352E-001	  4.20824E-001
  1.30000E-003	  2.97345E-001	  5.32560E-001	  4.90348E-001	  3.03196E-001
  1.40000E-003	  4.14196E-001	  4.54633E-001	  5.77311E-001	  4.64160E-001
  1.50000E-003	  4.47154E-001	  4.25772E-001	  4.45368E-001	  4.27015E-001
  1.60000E-003	  4.71121E-001	  4.80606E-001	  4.57360E-001	  5.15233E-001
  1.80000E-003	  3.93221E-001	  4.32985E-001	  4.52862E-001	  4.71897E-001
  2.00000E-003	  4.65129E-001	  4.71948E-001	  4.06383E-001	  4.13083E-001
  2.20000E-003	  4.39661E-001	  4.05566E-001	  4.34870E-001	  4.48681E-001
  2.40000E-003	  4.06703E-001	  4.70505E-001	  4.48364E-001	  3.92962E-001
  2.60000E-003	  4.20186E-001	  4.11338E-001	  4.55861E-001	  4.84279E-001
  2.80000E-003	  4.48650E-001	  5.18127E-001	  4.31872E-001	  3.85223E-001
  3.00000E-003	  4.39661E-001	  4.37339E-001	  4.28873E-001	  4.56419E-001
  3.20000E-003	  4.36686E-001	  4.77767E-001	  4.46110E-001	  4.62658E-001
  3.60000E-003	  3.95488E-001	  4.75602E-001	  4.29618E-001	  3.86043E-001
  4.00000E-003	  3.44552E-001	  3.91179E-001	  4.21371E-001	  3.92234E-001
  4.40000E-003	  4.06724E-001	  4.26536E-001	  4.05628E-001	  3.69791E-001
  4.80000E-003	  3.65526E-001	  3.94065E-001	  3.88386E-001	  3.90686E-001
  5.20000E-003	  3.82754E-001	  4.92198E-001	  4.14624E-001	  4.35572E-001
  5.60000E-003	  3.64777E-001	  3.88293E-001	  3.85387E-001	  4.44085E-001
  6.00000E-003	  4.14963E-001	  4.08497E-001	  4.11626E-001	  4.03842E-001
  6.40000E-003	  3.91034E-001	  4.21500E-001	  3.99996E-001	  3.89566E-001
  7.20000E-003	  3.69685E-001	  3.92637E-001	  3.66636E-001	  3.91526E-001
  8.00000E-003	  3.88387E-001	  4.09594E-001	  3.76757E-001	  3.84561E-001
  8.80000E-003	  3.49810E-001	  3.61249E-001	  3.86502E-001	  3.78369E-001
  9.60000E-003	  3.52432E-001	  3.16488E-001	  3.62888E-001	  3.69057E-001
  1.04000E-002	  3.52807E-001	  3.99468E-001	  3.65137E-001	  3.60157E-001
  1.12000E-002	  3.76402E-001	  4.03436E-001	  3.38899E-001	  3.60544E-001
  1.20000E-002	  3.51683E-001	  3.38856E-001	  3.55766E-001	  3.18753E-001
  1.28000E-002	  3.65758E-001	  3.32571E-001	  3.46002E-001	  3.45290E-001
  1.44000E-002	  3.49278E-001	  3.31309E-001	  3.43566E-001	  3.50708E-001
  1.60000E-002	  3.06019E-001	  3.42313E-001	  3.50125E-001	  3.46257E-001
  1.76000E-002	  3.14985E-001	  3.21387E-001	  3.17890E-001	  3.25942E-001
  1.92000E-002	  2.95509E-001	  3.23371E-001	  3.34383E-001	  3.26135E-001
  2.08000E-002	  3.15898E-001	  3.18681E-001	  3.06271E-001	  2.88189E-001
  2.24000E-002	  2.73202E-001	  2.86368E-001	  2.73121E-001	  3.06740E-001
  2.40000E-002	  2.95860E-001	  2.94666E-001	  2.73496E-001	  2.81975E-001
  2.56000E-002	  2.76700E-001	  2.94271E-001	  2.79059E-001	  2.73229E-001
  2.88000E-002	  2.25482E-001	  2.49777E-001	  2.47103E-001	  2.78356E-001
  3.20000E-002	  2.41119E-001	  2.33631E-001	  2.41949E-001	  2.37144E-001
  3.52000E-002	  2.15276E-001	  2.16582E-001	  2.45416E-001	  2.28050E-001
  3.84000E-002	  2.17523E-001	  2.25964E-001	  2.24519E-001	  2.01446E-001
  4.16000E-002	  1.93178E-001	  1.94753E-001	  2.16928E-001	  2.10250E-001
  4.48000E-002	  1.75762E-001	  1.84650E-001	  1.82724E-001	  2.03961E-001
  4.80000E-002	  1.71996E-001	  1.85171E-001	  2.13555E-001	  1.87472E-001
  5.12000E-002	  1.67610E-001	  1.69448E-001	  1.81074E-001	  1.73073E-001
  5.76000E-002	  1.42161E-001	  1.51183E-001	  1.37026E-001	  1.61153E-001
  6.40000E-002	  1.17581E-001	  1.23015E-001	  1.19294E-001	  1.48673E-001
  7.04000E-002	  1.06645E-001	  1.13845E-001	  1.06896E-001	  1.26277E-001
  7.68000E-002	  1.00324E-001	  1.08607E-001	  1.19521E-001	  1.02894E-001
  8.32000E-002	  8.34217E-002	  9.25742E-002	  1.04733E-001	  9.34814E-002
  8.96000E-002	  7.58368E-002	  9.16010E-002	  8.33181E-002	  9.23117E-002
  9.60000E-002	  6.79988E-002	  6.29126E-002	  6.80416E-002	  8.46204E-002
  1.02400E-001	  5.85129E-002	  6.08070E-002	  6.11569E-002	  7.95388E-002
  1.15200E-001	  4.88663E-002	  5.92133E-002	  5.28620E-002	  6.21695E-002
  1.28000E-001	  4.62720E-002	  4.73961E-002	  3.26504E-002	  3.76636E-002
  1.40800E-001	  3.74265E-002	  3.29669E-002	  2.26792E-002	  2.88877E-002
  1.53600E-001	  3.03323E-002	  1.22451E-002	  2.54673E-002	  3.11672E-002
  1.66400E-001	  1.22931E-002	  2.34027E-002	  1.72252E-002	  1.62175E-002
  1.79200E-001	  1.45877E-002	  1.77054E-002	  1.40441E-002	  1.59272E-002
  1.92000E-001	  1.42131E-002	  1.51517E-002	  1.80271E-002	  2.24586E-002
  2.04800E-001	  8.59794E-003	  1.23471E-002	  1.44742E-002	  1.28711E-002
  2.30400E-001	  8.18888E-003	  8.36107E-003	  6.37783E-003	  1.43768E-002
  2.56000E-001	 -2.02989E-003	  7.16369E-003	  2.48225E-003	  6.18009E-003
  2.81600E-001	  5.89822E-003	  1.57887E-003	  1.32044E-002	 -1.92594E-003
  3.07200E-001	  2.72402E-003	  2.71840E-003	  5.69896E-003	 -6.02754E-003
  3.32800E-001	  4.97239E-003	  6.00656E-003	 -3.15895E-003	  1.04416E-003
  3.58400E-001	 -4.43346E-004	 -5.58645E-003	  7.78218E-004	  4.22619E-003
  3.84000E-001	  4.71545E-003	 -4.43251E-003	  2.62115E-004	  2.81978E-004
  4.09600E-001	  5.38249E-003	 -2.15492E-004	 -3.13813E-003	  3.87717E-003
  4.60800E-001	  4.73872E-003	  1.46389E-003	 -5.39483E-003	 -2.75051E-004
  5.12000E-001	 -6.99675E-003	  1.42437E-003	 -1.47306E-002	  7.75764E-003
  5.63200E-001	 -3.67473E-003	  5.54754E-003	 -2.31118E-002	  5.84472E-003
  6.14400E-001	  4.97133E-003	 -1.24900E-003	 -5.79874E-003	  4.06489E-003
  6.65600E-001	 -2.48645E-003	 -2.74017E-003	 -5.29406E-003	  8.42832E-003
  7.16800E-001	  2.75467E-003	 -4.42582E-003	 -2.93136E-003	 -4.01506E-003
  7.68000E-001	  4.24771E-003	  5.10162E-003	 -2.23340E-003	 -5.58877E-003
  8.19200E-001	  2.44297E-003	  4.25939E-003	 -6.44163E-003	 -4.12288E-003
  9.21600E-001	  2.10994E-003	  5.56138E-003	  1.07225E-003	  1.43932E-003
  1.02400E+000	 -3.73234E-003	  6.11391E-003	  4.03701E-003	 -7.36815E-003
  1.12640E+000	 -4.07481E-004	 -3.88142E-003	 -1.52290E-003	  7.18729E-004
  1.22880E+000	 -3.89422E-003	 -1.22150E-004	  1.86214E-003	  3.21672E-003
  1.33120E+000	 -8.64088E-004	  9.13375E-003	  3.23985E-003	  3.33792E-003
  1.43360E+000	 -5.34304E-003	  1.88797E-003	  3.54094E-003	  5.26936E-003
  1.53600E+000	  6.51109E-004	 -6.86563E-003	 -2.31382E-003	  9.15542E-004
  1.63840E+000	  1.25738E-003	 -3.54227E-003	 -5.27229E-003	 -1.61929E-003
  1.84320E+000	  5.00344E-004	 -6.80080E-004	  8.00086E-005	 -3.23268E-003
  2.04800E+000	 -6.44367E-003	  2.89577E-003	  2.34431E-003	  1.34018E-003
  2.25280E+000	 -3.40730E-004	 -2.11365E-003	 -4.02415E-003	  3.19530E-003
  2.45760E+000	 -9.64107E-003	  3.77368E-003	 -6.57812E-003	 -3.50921E-003
  2.66240E+000	 -4.05801E-003	  9.54530E-004	 -7.46851E-003	  1.70280E-003
  2.86720E+000	 -4.53003E-003	  2.88043E-003	 -3.13889E-004	  3.93326E-003
  3.07200E+000	 -2.07504E-003	 -4.09337E-003	  8.65948E-004	  5.14710E-003
  3.27680E+000	 -3.50784E-003	 -1.01408E-004	  7.42801E-004	 -6.24685E-004
  3.68640E+000	  2.83098E-003	  2.68514E-003	 -7.95859E-004	 -8.25883E-004
  4.09600E+000	  3.80030E-004	  8.84952E-003	 -7.35002E-004	  4.83360E-003
  4.50560E+000	  2.77002E-003	 -1.04927E-003	  2.83241E-004	  1.26557E-003
  4.91520E+000	  1.52012E-003	 -2.53025E-003	 -3.93920E-003	 -6.55549E-003
  5.32480E+000	  1.00617E-003	  5.70147E-004	 -2.45396E-003	  5.58004E-004
  5.73440E+000	  1.76073E-003	 -2.36704E-003	 -2.13926E-003	 -9.01034E-004
  6.14400E+000	 -3.78132E-004	  4.79026E-003	  4.43854E-003	 -6.13953E-003
  6.55360E+000	  9.64730E-004	  2.59816E-003	 -2.48078E-003	 -4.86934E-003
  7.37280E+000	  7.81933E-004	 -5.51465E-004	 -2.67974E-003	 -3.65486E-003
  8.19200E+000	  2.70648E-004	 -7.76623E-004	  6.01183E-004	 -5.36855E-004
  9.01120E+000	  1.63550E-003	 -2.19851E-003	 -6.76584E-005	 -1.77703E-003
  9.83040E+000	 -3.79349E-003	  6.21452E-004	  1.37849E-003	 -1.26844E-003
  1.06496E+001	  2.85794E-004	 -4.84376E-005	  2.08755E-003	 -9.59920E-004
  1.14688E+001	  6.37015E-004	 -1.27830E-003	  3.00492E-003	 -1.29015E-003
  1.22880E+001	 -3.32276E-003	  1.14262E-003	  2.67996E-003	 -1.44319E-003
  1.31072E+001	  8.37107E-004	 -5.09162E-004	 -5.34454E-004	 -8.02011E-004
  1.47456E+001	 -7.76663E-004	 -3.73686E-004	  2.60709E-004	  9.11245E-004
  1.63840E+001	 -1.24993E-003	 -1.91066E-003	 -7.61667E-004	  1.02465E-003
  1.80224E+001	 -1.52472E-004	  2.97152E-003	 -1.28179E-003	  3.72706E-003
  1.96608E+001	  2.46593E-003	 -1.38298E-003	 -1.30670E-003	 -2.26376E-004
  2.12992E+001	 -6.36648E-004	 -1.19606E-003	  1.71824E-003	 -1.21432E-003
  2.29376E+001	  9.75677E-004	 -2.43034E-003	 -7.86455E-004	 -3.01407E-005
  2.45760E+001	 -1.09254E-003	  2.02388E-003	 -2.11564E-003	 -7.18092E-004
  2.62144E+001	  5.66241E-005	  1.92248E-003	 -1.81414E-004	 -1.59721E-003
  2.94912E+001	  5.01858E-004	  2.40525E-003	 -4.80036E-004	  8.00330E-005
  3.27680E+001	 -5.69023E-004	  6.31054E-004	 -2.53118E-004	 -1.09879E-003
  3.60448E+001	  2.54727E-003	 -2.20039E-003	  1.99362E-004	  4.01245E-005
  3.93216E+001	 -2.78818E-003	 -6.65833E-004	 -1.04411E-003	 -2.86562E-004
  4.25984E+001	  1.78888E-003	 -1.36077E-004	 -1.41137E-003	 -9.99507E-005
  4.58752E+001	  4.19815E-004	 -6.92195E-004	 -8.20984E-004	  2.49846E-003
  4.91520E+001	  2.02815E-004	 -1.24646E-003	  1.15145E-004	 -7.50066E-004
  5.24288E+001	  4.35252E-004	  8.02803E-005	  1.93937E-004	  5.25571E-004
  5.89824E+001	  1.07120E-003	 -1.11647E-004	 -6.68881E-005	 -2.44743E-004
  6.55360E+001	  6.83385E-004	  6.19883E-004	  1.06396E-004	 -1.23385E-003
  7.20896E+001	 -9.59551E-004	 -7.00477E-005	  8.73410E-004	 -1.15846E-003
  7.86432E+001	 -4.35015E-004	  1.30892E-004	 -9.43238E-004	  1.51253E-003
  8.51968E+001	  1.02388E-004	  4.03519E-004	  1.42535E-003	 -1.75507E-004
  9.17504E+001	  1.97755E-004	  2.61424E-003	 -7.70558E-005	 -2.54836E-004
  9.83040E+001	  1.59398E-003	 -5.33267E-005	  9.56352E-005	  1.07894E-004
  1.04858E+002	  8.37569E-004	 -5.99354E-004	 -8.70423E-004	 -3.92513E-004
  1.17965E+002	  3.68417E-004	  2.36446E-004	 -6.13416E-005	 -1.03334E-003
  1.31072E+002	 -8.25364E-004	 -1.08333E-003	  2.30476E-005	 -1.66627E-004
  1.44179E+002	 -5.33731E-005	 -2.82036E-004	  2.61124E-004	 -9.74450E-004
  1.57286E+002	  8.70506E-004	 -2.36101E-004	 -3.20233E-004	  2.91103E-004
  1.70394E+002	 -3.41020E-004	 -1.23059E-004	 -4.93715E-004	 -9.62993E-004
  1.83501E+002	 -6.91931E-004	 -2.76922E-004	 -5.04119E-004	 -2.81885E-004
  1.96608E+002	 -1.14947E-006	 -9.31225E-004	 -1.07878E-004	  1.26047E-004
  2.09715E+002	 -1.10927E-004	 -2.56468E-004	  1.16813E-003	  3.49931E-004
  2.35930E+002	  1.83270E-004	 -4.31928E-005	 -8.57416E-005	  7.45834E-004
  2.62144E+002	 -2.75348E-004	 -9.99701E-005	  1.13288E-005	  4.40833E-004
  2.88358E+002	 -4.53172E-005	  2.44869E-004	  1.00026E-004	  2.92797E-004
  3.14573E+002	  2.38448E-004	 -4.40935E-004	 -3.17275E-004	 -3.46739E-004
  3.40787E+002	  7.31821E-004	  1.07369E-004	  6.28104E-004	  1.09113E-004
  3.67002E+002	  4.43485E-005	 -2.88590E-004	 -4.20981E-006	  3.38617E-004
  3.93216E+002	  7.77975E-004	  2.19405E-005	 -6.53647E-004	 -3.01036E-004

"Count Rate"
       0.01311	      57.44934	      61.79810	      60.27222	      56.99158
       0.02621	      56.61011	      49.66736	      58.74634	      56.68640
       0.03932	      59.96704	      68.96973	      52.26135	      59.12781
       0.05243	      57.44934	      62.10327	      65.07874	      54.01611
       0.06554	      56.99158	      64.08691	      57.67822	      66.90979
       0.07864	      60.95886	      66.45203	      64.92615	      62.02698
       0.09175	      52.33765	      70.19043	      57.75452	      57.37305
       0.10486	      59.58557	      59.12781	      57.83081	      54.55017
       0.11796	      54.16870	      49.59106	      60.72998	      59.81445
       0.13107	      53.55835	      64.92615	      51.57471	      54.93164
       0.14418	      61.41663	      55.69458	      63.24768	      54.16870
       0.15729	      63.01880	      60.50110	      54.16870	      53.17688
       0.17039	      58.28857	      66.29944	      61.03516	      56.30493
       0.18350	      59.50928	      59.81445	      62.63733	      55.16052
       0.19661	      53.40576	      61.72180	      61.64551	      61.18774
       0.20972	      57.52563	      57.52563	      64.39209	      62.78992
       0.22282	      52.03247	      59.81445	      57.98340	      56.07605
       0.23593	      55.00793	      57.06787	      57.37305	      56.07605
       0.24904	      53.10059	      66.45203	      55.38940	      54.09241
       0.26214	      58.97522	      59.66187	      62.40845	      60.42480
       0.27525	      52.26135	      55.31311	      57.83081	      55.77087
       0.28836	      57.44934	      62.48474	      58.13599	      56.30493
       0.30147	      54.93164	      58.89893	      59.96704	      57.37305
       0.31457	      57.44934	      64.08691	      62.17957	      52.56653
       0.32768	      63.17139	      50.73547	      57.52563	      63.55286
       0.34079	      55.92346	      63.17139	      57.75452	      57.44934
       0.35389	      56.30493	      57.14417	      54.32129	      62.63733
       0.36700	      57.29675	      58.59375	      58.51746	      61.87439
       0.38011	      64.54468	      59.43298	      55.16052	      60.57739
       0.39322	      57.98340	      60.57739	      58.13599	      54.47388
       0.40632	      55.84717	      61.41663	      50.96436	      59.35669
       0.41943	      65.23132	      58.21228	      56.68640	      61.41663
       0.43254	      57.52563	      64.08691	      58.67004	      57.22046
       0.44564	      59.50928	      57.06787	      58.21228	      58.28857
       0.45875	      59.43298	      61.64551	      53.25317	      67.44385
       0.47186	      54.93164	      57.06787	      57.98340	      49.89624
       0.48497	      62.94250	      66.22314	      59.81445	      57.37305
       0.49807	      58.67004	      55.84717	      53.93982	      52.49023
       0.51118	      57.60193	      58.44116	      62.63733	      54.47388
       0.52429	      57.60193	      55.00793	      62.17957	      49.74365
       0.53740	      62.71362	      62.25586	      55.54199	      56.45752
       0.55050	      56.38123	      54.47388	      61.79810	      56.76270
       0.56361	      57.06787	      52.56653	      60.72998	      59.81445
       0.57672	      61.79810	      56.53381	      57.67822	      53.93982
       0.58982	      64.16321	      62.78992	      59.05151	      56.68640
       0.60293	      54.70276	      56.07605	      57.22046	      58.74634
       0.61604	      58.13599	      51.95618	      53.78723	      63.17139
       0.62915	      55.23682	      52.94800	      51.65100	      57.44934
       0.64225	      57.60193	      60.50110	      60.72998	      59.89075
       0.65536	      52.33765	      64.08691	      66.90979	      61.34033
       0.66847	      53.55835	      62.86621	      59.73816	      55.23682
       0.68157	      60.80627	      61.18774	      50.27771	      58.21228
       0.69468	      66.07056	      61.26404	      54.62646	      60.11963
       0.70779	      53.02429	      52.71912	      55.46570	      55.92346
       0.72090	      63.17139	      62.10327	      67.13867	      55.38940
       0.73400	      64.01062	      63.70544	      55.46570	      57.52563
       0.74711	      56.83899	      63.47656	      61.41663	      54.39758
