ALV-7004/USB-FAST
Date :	"11/11/2025"
Time :	"3:57:06 PM"
Samplename : 	""
SampMemo(0) : 	""
SampMemo(1) : 	""
SampMemo(2) : 	""
SampMemo(3) : 	""
SampMemo(4) : 	""
SampMemo(5) : 	""
SampMemo(6) : 	""
SampMemo(7) : 	""
SampMemo(8) : 	""
SampMemo(9) : 	""
Temperature [K] :	     298.16000
Viscosity [cp]  :	       0.89000
Refractive Index:	       1.33200
Wavelength [nm] :	       0.00000
Angle [°]       :	       0.00000
Duration [s]    :	         1
FloatDur [ms]   :	          944
Stop TP [ms]   :	     67746
Runs            :	         1
Mode            :	"A-CH0+1  A-CH2+3 "
MeanCR0 [kHz]   :	      46.93879
MeanCR1 [kHz]   :	      48.40321
MeanCR2 [kHz]   :	      48.43712
MeanCR3 [kHz]   :	      46.83918

"Correlation"
  3.12500E-006	 -1.00000E+000	 -1.00000E+000	 -1.00000E+000	 -1.00000E+000
  6.25000E-006	 -1.00000E+000	 -1.00000E+000	 -1.00000E+000	 -1.00000E+000
  9.37500E-006	 -1.00000E+000	 -1.00000E+000	 -1.00000E+000	 -1.00000E+000
  1.25000E-005	 -1.00000E+000	 -1.00000E+000	 -1.00000E+000	 -1.00000E+000
  1.56250E-005	 -1.00000E+000	 -1.00000E+000	 -1.00000E+000	 -1.00000E+000
  1.87500E-005	 -1.00000E+000	 -1.00000E+000	 -1.00000E+000	 -1.00000E+000
  2.18750E-005	 -1.00000E+000	  1.02627E+000	  1.45697E+000	 -8.45443E-001
  2.50000E-005	  1.48519E+001	  1.36181E+001	  1.14294E+001	  2.75931E+001
  2.81250E-005	  3.61705E+000	  2.03940E+000	  2.75772E+000	  1.19828E+001
  3.12500E-005	  1.30853E+000	  7.36801E-001	  1.16791E+000	  6.57330E+000
  3.43750E-005	  5.39018E-001	  1.31337E-002	  1.74603E+000	  5.64595E+000
  3.75000E-005	  8.46822E-001	  1.02627E+000	  1.31244E+000	  2.55481E+000
  4.06250E-005	  1.00072E+000	  5.92067E-001	  5.89804E-001	  1.62747E+000
  4.37500E-005	  2.31215E-001	  1.02627E+000	  1.89055E+000	  3.79127E+000
  4.68750E-005	  1.00072E+000	  1.02627E+000	  7.34332E-001	  3.17304E+000
  5.00000E-005	  5.39018E-001	  9.53901E-001	  3.73013E-001	  2.78665E+000
  5.62500E-005	  4.62067E-001	  8.81534E-001	  1.09565E+000	  2.24570E+000
  6.25000E-005	  1.46243E+000	  5.92067E-001	  8.39573E-002	  1.93658E+000
  6.87500E-005	  9.23773E-001	  2.30234E-001	  3.00749E-001	  2.01386E+000
  7.50000E-005	  7.69871E-001	  8.81534E-001	  2.28485E-001	  1.70475E+000
  8.12500E-005	  6.15969E-001	  9.53901E-001	  9.51123E-001	  2.24570E+000
  8.75000E-005	  6.15969E-001	  1.60520E+000	  4.45276E-001	  6.22849E-001
  9.37500E-005	  6.15969E-001	  5.19700E-001	  1.02339E+000	  1.24108E+000
  1.00000E-004	  5.39018E-001	  5.92067E-001	  5.17540E-001	  9.70602E-001
  1.12500E-004	  5.77493E-001	  5.55884E-001	  1.31244E+000	  9.70602E-001
  1.25000E-004	  6.15969E-001	  4.47334E-001	  5.17540E-001	  7.38767E-001
  1.37500E-004	  6.54444E-001	  4.47334E-001	  5.17540E-001	  1.31836E+000
  1.50000E-004	  3.46641E-001	  6.64434E-001	  3.00749E-001	  9.70602E-001
  1.62500E-004	  1.92739E-001	  4.47334E-001	  3.73012E-001	  6.61488E-001
  1.75000E-004	  2.69690E-001	  8.45350E-001	  4.45276E-001	  2.75096E-001
  1.87500E-004	  6.54444E-001	  7.36800E-001	  7.34331E-001	  7.77406E-001
  2.00000E-004	  4.04354E-001	  5.37792E-001	  5.71738E-001	  4.48972E-001
  2.25000E-004	  5.00542E-001	  7.36800E-001	  4.45276E-001	  6.03529E-001
  2.50000E-004	  5.39018E-001	  4.47333E-001	  6.80133E-001	  5.06931E-001
  2.75000E-004	  7.50633E-001	  2.48325E-001	  4.81408E-001	  4.29652E-001
  3.00000E-004	  4.81304E-001	  6.64433E-001	  7.88529E-001	  5.64890E-001
  3.25000E-004	  4.04354E-001	  5.01608E-001	  4.45276E-001	  1.78497E-001
  3.50000E-004	  8.27583E-001	  5.37792E-001	  3.54946E-001	  5.84209E-001
  3.75000E-004	  6.54444E-001	  4.29242E-001	  4.45276E-001	  3.33054E-001
  4.00000E-004	  4.71685E-001	  6.19203E-001	  5.35605E-001	  6.51827E-001
  4.50000E-004	  5.29398E-001	  4.56378E-001	  6.44001E-001	  4.58631E-001
  5.00000E-004	  8.37201E-001	  6.10158E-001	  6.53034E-001	  4.00672E-001
  5.50000E-004	  4.23591E-001	  6.10158E-001	  4.18176E-001	  4.68291E-001
  6.00000E-004	  4.13972E-001	  4.29241E-001	  4.00110E-001	  4.39312E-001
  6.50000E-004	  2.88927E-001	  4.65424E-001	  3.54946E-001	  3.91013E-001
  7.00000E-004	  4.23591E-001	  2.57370E-001	  7.43363E-001	  4.19992E-001
  7.50000E-004	  6.83300E-001	  3.56874E-001	  5.17539E-001	  4.00672E-001
  8.00000E-004	  4.18780E-001	  4.74469E-001	  5.53670E-001	  3.95841E-001
  9.00000E-004	  5.19778E-001	  5.46835E-001	  4.72373E-001	  5.11759E-001
  1.00000E-003	  5.05350E-001	  4.51854E-001	  4.45274E-001	  5.98697E-001
  1.10000E-003	  5.10159E-001	  3.56873E-001	  5.49153E-001	  6.42166E-001
  1.20000E-003	  4.66874E-001	  5.33267E-001	  3.36879E-001	  4.24821E-001
  1.30000E-003	  4.57255E-001	  4.97083E-001	  4.76889E-001	  4.00671E-001
  1.40000E-003	  6.01538E-001	  4.60900E-001	  3.41395E-001	  4.44140E-001
  1.50000E-003	  4.13971E-001	  4.02102E-001	  4.99472E-001	  5.84207E-001
  1.60000E-003	  4.09159E-001	  4.17961E-001	  4.65596E-001	  5.23831E-001
  1.80000E-003	  3.37018E-001	  4.20223E-001	  3.39135E-001	  4.34478E-001
  2.00000E-003	  5.12561E-001	  4.15700E-001	  4.11398E-001	  4.65872E-001
  2.20000E-003	  4.25992E-001	  4.54145E-001	  4.47530E-001	  4.17573E-001
  2.40000E-003	  4.23587E-001	  4.63191E-001	  4.06882E-001	  4.46553E-001
  2.60000E-003	  4.09159E-001	  3.88562E-001	  4.43013E-001	  4.68287E-001
  2.80000E-003	  4.38015E-001	  4.60930E-001	  3.91074E-001	  4.15158E-001
  3.00000E-003	  3.77898E-001	  3.63685E-001	  3.73008E-001	  4.44138E-001
  3.20000E-003	  3.81500E-001	  3.44487E-001	  3.43646E-001	  4.42925E-001
  3.60000E-003	  4.46427E-001	  4.28164E-001	  4.74624E-001	  4.29643E-001
  4.00000E-003	  3.64667E-001	  4.36080E-001	  4.20426E-001	  3.47535E-001
  4.40000E-003	  3.68274E-001	  3.70495E-001	  3.91069E-001	  3.51158E-001
  4.80000E-003	  3.80298E-001	  3.54635E-001	  3.42517E-001	  2.98029E-001
  5.20000E-003	  4.52439E-001	  3.85165E-001	  3.26710E-001	  3.59610E-001
  5.60000E-003	  3.68274E-001	  3.77249E-001	  3.83165E-001	  4.81564E-001
  6.00000E-003	  3.68274E-001	  4.42833E-001	  3.01869E-001	  3.88589E-001
  6.40000E-003	  3.56241E-001	  3.88578E-001	  4.18158E-001	  3.77109E-001
  7.20000E-003	  3.50230E-001	  3.59743E-001	  3.92753E-001	  3.25792E-001
  8.00000E-003	  3.37004E-001	  4.05539E-001	  3.61138E-001	  3.68053E-001
  8.80000E-003	  3.92312E-001	  3.59178E-001	  3.30088E-001	  2.98654E-001
  9.60000E-003	  3.40611E-001	  3.16209E-001	  3.43073E-001	  3.48764E-001
  1.04000E-002	  3.13558E-001	  3.27517E-001	  2.85488E-001	  2.81145E-001
  1.12000E-002	  2.92517E-001	  3.05438E-001	  3.06377E-001	  3.07710E-001
  1.20000E-002	  3.15362E-001	  2.70951E-001	  2.83795E-001	  2.71514E-001
  1.28000E-002	  2.68210E-001	  2.39866E-001	  2.76466E-001	  3.16778E-001
  1.44000E-002	  2.27930E-001	  2.45802E-001	  2.67715E-001	  2.46441E-001
  1.60000E-002	  2.29734E-001	  2.52021E-001	  2.45415E-001	  2.48554E-001
  1.76000E-002	  2.14704E-001	  2.42693E-001	  2.13800E-001	  2.21715E-001
  1.92000E-002	  1.81037E-001	  2.33647E-001	  2.20575E-001	  2.51299E-001
  2.08000E-002	  1.94865E-001	  1.63257E-001	  2.03920E-001	  1.65263E-001
  2.24000E-002	  1.72320E-001	  1.62692E-001	  1.87830E-001	  1.82772E-001
  2.40000E-002	  2.02981E-001	  1.70016E-001	  1.82467E-001	  1.79150E-001
  2.56000E-002	  1.46189E-001	  1.58870E-001	  1.90134E-001	  1.74190E-001
  2.88000E-002	  1.38223E-001	  1.48693E-001	  1.23655E-001	  1.68303E-001
  3.20000E-002	  1.10092E-001	  1.20142E-001	  1.49344E-001	  1.15926E-001
  3.52000E-002	  1.13524E-001	  1.07421E-001	  1.21513E-001	  1.09586E-001
  3.84000E-002	  7.85053E-002	  7.73149E-002	  6.59269E-002	  7.45670E-002
  4.16000E-002	  4.72443E-002	  9.24386E-002	  8.27232E-002	  7.75859E-002
  4.48000E-002	  6.21233E-002	  8.15789E-002	  9.40387E-002	  5.63029E-002
  4.80000E-002	  3.28161E-002	  4.39809E-002	  7.20196E-002	  4.52840E-002
  5.12000E-002	  5.28945E-002	  6.65144E-002	  5.92335E-002	  5.66669E-002
  5.76000E-002	  5.73282E-002	  2.69380E-002	  5.63398E-002	  6.20772E-002
  6.40000E-002	  2.62170E-002	  3.74681E-002	  4.43893E-002	  3.60385E-002
  7.04000E-002	  3.38070E-002	  2.67966E-002	  2.05122E-002	  3.71941E-002
  7.68000E-002	  2.24597E-002	  2.47247E-002	  3.77324E-002	  1.64151E-002
  8.32000E-002	  4.02580E-003	  2.48660E-002	  3.02260E-002	  3.24912E-002
  8.96000E-002	  1.97424E-003	  2.05775E-002	  3.18973E-002	  2.44909E-002
  9.60000E-002	 -3.26336E-003	  1.56304E-002	  4.65479E-003	  1.36226E-002
  1.02400E-001	 -3.10891E-003	  1.74950E-002	  1.34565E-002	  1.33874E-002
  1.15200E-001	  1.58827E-003	  1.00747E-002	  1.62447E-002	  1.96443E-002
  1.28000E-001	  5.72179E-003	  9.22666E-003	  4.40802E-003	 -3.00020E-003
  1.40800E-001	  7.26246E-003	 -2.87127E-003	  9.26543E-003	 -7.35754E-004
  1.53600E-001	  2.18951E-003	 -3.37948E-003	  1.23983E-004	  2.26258E-002
  1.66400E-001	  1.10054E-002	  1.24511E-002	  4.69037E-003	  4.35926E-003
  1.79200E-001	  5.85723E-003	  9.24876E-003	 -1.43117E-002	 -1.56657E-002
  1.92000E-001	  3.78267E-003	  5.25586E-003	 -8.01561E-003	 -6.34388E-003
  2.04800E-001	  4.44968E-003	  3.51680E-003	  5.28245E-003	 -3.46006E-003
  2.30400E-001	 -1.76625E-003	  5.29684E-003	  6.89762E-003	 -5.35122E-003
  2.56000E-001	 -8.80126E-003	 -9.64496E-003	  4.94243E-003	 -4.26746E-003
  2.81600E-001	 -1.55043E-002	 -4.95776E-003	  9.66070E-004	  9.64297E-004
  3.07200E-001	  3.88924E-003	 -1.27771E-003	  1.38793E-002	 -7.26928E-003
  3.32800E-001	  1.65248E-004	  9.33480E-003	  4.22762E-003	 -1.66319E-003
  3.58400E-001	  9.16786E-004	  1.01611E-002	 -1.02968E-002	 -7.73400E-003
  3.84000E-001	  1.89762E-003	 -4.52903E-004	  1.36357E-003	  4.47914E-003
  4.09600E-001	  1.95300E-003	  4.57525E-004	  3.93355E-003	  2.18034E-004
  4.60800E-001	 -1.38809E-003	  3.31767E-003	  5.03698E-004	 -9.48533E-003
  5.12000E-001	  4.14608E-003	  8.37967E-003	  8.86539E-003	  3.01124E-003
  5.63200E-001	  5.64084E-003	  9.77652E-003	 -5.51340E-003	 -1.21723E-003
  6.14400E-001	  3.08374E-003	  6.98281E-003	 -6.66188E-003	 -6.60308E-003
  6.65600E-001	  3.45580E-003	 -2.67489E-004	  4.65781E-003	 -4.99144E-003
  7.16800E-001	  8.42888E-003	  3.12241E-003	  4.04006E-003	 -9.87836E-003
  7.68000E-001	 -3.81470E-003	  7.44218E-003	  1.05082E-003	 -6.70610E-003
  8.19200E-001	 -3.48802E-003	  2.45358E-003	  2.88193E-003	  1.06430E-003
  9.21600E-001	 -1.04466E-003	 -3.92526E-003	  7.71100E-003	  7.07204E-004
  1.02400E+000	  5.95396E-004	  3.25139E-003	  4.01810E-004	  9.22549E-004
  1.12640E+000	  3.08387E-003	 -5.00800E-003	 -5.46323E-003	 -2.37431E-003
  1.22880E+000	  3.37908E-003	 -2.58378E-003	  5.79759E-003	 -1.22221E-004
  1.33120E+000	 -7.08098E-003	  5.29535E-003	  4.45341E-004	 -1.23696E-003
  1.43360E+000	 -4.20057E-003	  4.22430E-003	  1.19532E-003	 -8.99798E-004
  1.53600E+000	 -1.69369E-003	  2.35208E-003	  4.99677E-003	  3.56730E-004
  1.63840E+000	  1.94869E-003	 -1.19273E-003	 -7.30245E-004	 -2.96910E-003
  1.84320E+000	  6.14894E-003	  3.34632E-003	 -1.49969E-003	 -3.95627E-003
  2.04800E+000	  1.42398E-004	  1.07821E-004	 -3.18445E-003	  4.82832E-003
  2.25280E+000	  3.78262E-003	 -6.10913E-004	 -4.39488E-003	  7.39053E-004
  2.45760E+000	 -1.89664E-004	 -6.19399E-003	 -1.78168E-003	 -2.73163E-003
  2.66240E+000	  3.61133E-003	 -3.33582E-003	 -4.82854E-003	 -4.84686E-003
  2.86720E+000	  6.14520E-003	 -5.66137E-003	 -8.73221E-004	  2.72853E-003
  3.07200E+000	  3.99534E-004	 -5.06397E-003	  4.37332E-006	  3.01950E-003
  3.27680E+000	  2.07001E-003	  1.89682E-003	 -1.03201E-003	  2.19945E-003
  3.68640E+000	 -3.19919E-003	 -2.75391E-004	 -3.83826E-003	 -1.55715E-003
  4.09600E+000	  2.59080E-003	  2.28018E-003	  2.83826E-003	 -1.27236E-003
  4.50560E+000	  3.45201E-003	 -1.28231E-003	 -2.29672E-003	  2.70874E-003
  4.91520E+000	  1.71060E-003	 -3.71977E-003	  2.49151E-003	 -1.01388E-005
  5.32480E+000	  8.54285E-005	  2.25652E-003	 -1.28739E-003	 -5.72972E-004
  5.73440E+000	 -1.32166E-003	  5.89768E-003	 -1.19811E-003	 -4.09991E-004
  6.14400E+000	  2.31760E-003	  7.48375E-004	 -4.01484E-004	 -1.25074E-003
  6.55360E+000	 -2.25665E-004	 -2.23133E-003	 -1.78503E-003	 -2.09414E-003
  7.37280E+000	  2.16789E-003	 -3.26938E-004	  1.16550E-004	  2.73342E-003
  8.19200E+000	  2.05991E-003	 -1.18014E-003	 -1.22040E-003	 -4.03610E-003
  9.01120E+000	 -1.24260E-003	 -1.75385E-003	 -7.46269E-004	 -6.46319E-004
  9.83040E+000	 -1.22107E-003	 -9.17838E-004	 -6.82947E-004	 -7.72885E-004
  1.06496E+001	  1.85115E-003	 -8.41725E-005	  2.81312E-003	 -2.39167E-003
  1.14688E+001	  1.85959E-003	 -1.37188E-003	  2.71292E-003	 -2.71298E-003
  1.22880E+001	 -2.92333E-004	 -1.30179E-003	  9.05787E-004	  1.06988E-003
  1.31072E+001	  4.87335E-004	 -8.10853E-004	  5.74703E-006	  7.78441E-004
  1.47456E+001	 -7.07000E-004	 -2.96394E-003	 -1.11411E-003	 -1.10127E-003
  1.63840E+001	 -1.37613E-003	  1.31489E-003	  3.88891E-004	 -8.46170E-004
  1.80224E+001	  1.54421E-003	  9.96403E-004	  1.20125E-006	  1.76459E-003
  1.96608E+001	 -7.77622E-004	 -1.46182E-003	 -1.41714E-003	  1.04424E-003
  2.12992E+001	 -1.08490E-003	 -2.35769E-004	  2.76991E-004	 -5.90502E-004
  2.29376E+001	 -1.93282E-003	  7.51610E-004	  1.29851E-003	 -1.54790E-003
  2.45760E+001	 -6.93708E-004	 -5.57522E-004	  1.70181E-004	 -1.27120E-003
  2.62144E+001	 -4.99377E-004	  4.73541E-004	  1.63456E-003	  5.20491E-005
  2.94912E+001	  3.68244E-004	 -1.16933E-003	  1.62962E-004	  1.94527E-003
  3.27680E+001	  7.17505E-004	  1.27096E-003	 -9.09671E-004	  6.14702E-004
  3.60448E+001	  8.04617E-004	  1.42908E-004	  1.39603E-003	 -2.67514E-004
  3.93216E+001	 -2.45521E-004	 -5.76331E-004	 -1.58770E-003	 -6.29273E-005
  4.25984E+001	 -8.25138E-004	 -1.71960E-003	 -8.81743E-004	 -8.17830E-004
  4.58752E+001	  5.45803E-004	 -2.94754E-003	 -1.06511E-003	 -6.21932E-004
  4.91520E+001	  9.77834E-005	  2.42463E-004	  1.26705E-003	 -4.92987E-004
  5.24288E+001	  3.46411E-004	 -6.60805E-005	 -1.14634E-004	 -5.11951E-004
  5.89824E+001	  3.42858E-004	  4.06566E-004	 -1.50174E-003	 -5.83198E-007
  6.55360E+001	 -1.33363E-004	  1.92185E-004	 -7.16789E-004	  6.83261E-004
  7.20896E+001	  1.79362E-004	 -6.54015E-004	 -3.06908E-004	 -6.94243E-005
  7.86432E+001	  8.72654E-004	  8.44734E-004	 -1.02942E-003	 -4.89927E-004
  8.51968E+001	  7.64005E-004	 -2.48956E-005	 -3.26554E-004	  5.49751E-004
  9.17504E+001	  2.85999E-004	  9.28074E-004	 -8.74583E-004	 -4.83426E-004
  9.83040E+001	  1.17250E-003	 -1.31004E-004	  6.46517E-004	  1.91155E-004
  1.04858E+002	  7.65146E-004	 -1.38367E-004	  1.13857E-004	 -3.81529E-004
  1.17965E+002	 -1.66826E-003	 -7.08084E-004	  1.23792E-004	  3.79299E-005
  1.31072E+002	 -4.57754E-004	  8.77387E-004	  3.87451E-004	  3.46079E-004
  1.44179E+002	 -1.32770E-003	 -1.72111E-004	  3.06729E-004	  1.06675E-004
  1.57286E+002	  3.31400E-004	  9.21389E-004	  7.48649E-005	  4.51796E-004
  1.70394E+002	  8.49126E-005	 -1.05205E-003	 -4.75345E-004	 -2.55799E-004
  1.83501E+002	 -4.01512E-004	 -1.41484E-004	  3.37951E-004	  1.56416E-004
  1.96608E+002	 -1.19979E-003	 -1.12756E-003	  6.02633E-005	 -5.99175E-004
  2.09715E+002	 -4.58389E-004	  1.80975E-004	  1.96701E-004	 -8.54319E-005
  2.35930E+002	 -4.29399E-004	 -2.43154E-005	  9.25074E-005	 -7.45426E-004
  2.62144E+002	  1.08087E-004	 -3.78455E-004	 -5.89995E-005	 -4.16969E-004
  2.88358E+002	 -5.52942E-004	  7.31449E-004	  7.50775E-005	 -9.84109E-005
  3.14573E+002	 -5.45507E-005	 -2.43139E-004	  7.87653E-005	  3.97012E-005
  3.40787E+002	 -2.41339E-004	 -4.80492E-004	  3.01789E-004	  1.13467E-004
  3.67002E+002	  5.70255E-005	  5.48959E-004	 -1.53852E-004	  4.74408E-005
  3.93216E+002	 -3.79091E-004	 -7.26657E-004	 -1.47979E-004	  3.10985E-005

"Count Rate"
       0.01311	      47.07336	      46.76819	      48.44666	      41.80908
       0.02621	      44.47937	      48.21777	      48.75183	      49.97253
       0.03932	      46.84448	      53.71094	      48.06519	      44.40308
       0.05243	      51.11694	      43.94531	      43.94531	      45.70007
       0.06554	      44.40308	      44.17419	      50.88806	      47.91260
       0.07864	      41.35132	      47.91260	      46.00525	      46.46301
       0.09175	      44.55566	      48.59924	      49.43848	      49.97253
       0.10486	      47.14966	      49.97253	      43.10608	      45.92896
       0.11796	      48.37036	      52.26135	      44.93713	      44.78455
       0.13107	      50.27771	      43.64014	      52.33765	      46.38672
       0.14418	      47.53113	      47.14966	      50.73547	      43.94531
       0.15729	      46.31042	      44.63196	      52.71912	      48.52295
       0.17039	      45.47119	      45.47119	      50.58289	      44.02161
       0.18350	      44.40308	      50.88806	      49.81995	      48.21777
       0.19661	      48.29407	      43.71643	      45.70007	      44.86084
       0.20972	      48.14148	      49.59106	      50.27771	      49.20959
       0.22282	      49.81995	      43.86902	      45.47119	      45.77637
       0.23593	      44.40308	      46.46301	      41.58020	      45.24231
       0.24904	      44.40308	      48.82813	      46.99707	      46.61560
       0.26214	      44.40308	      49.28589	      49.36218	      45.47119
       0.27525	      46.00525	      50.12512	      49.89624	      45.70007
       0.28836	      45.54749	      43.64014	      48.59924	      43.10608
       0.30147	      48.06519	      46.00525	      50.04883	      47.53113
       0.31457	      46.46301	      45.47119	      50.20142	      43.71643
       0.32768	      46.38672	      52.10876	      45.85266	      43.33496
       0.34079	      37.07886	      51.04065	      45.85266	      48.29407
       0.35389	      46.76819	      47.22595	      46.84448	      43.02979
       0.36700	      50.43030	      42.87720	      45.31860	      46.00525
       0.38011	      45.24231	      53.93982	      44.17419	      46.76819
       0.39322	      43.33496	      42.49573	      45.08972	      46.38672
       0.40632	      47.91260	      46.84448	      49.05701	      46.84448
       0.41943	      42.49573	      46.08154	      45.54749	      40.05432
       0.43254	      41.80908	      43.86902	      48.82813	      48.67554
       0.44564	      38.75732	      40.66467	      45.47119	      40.89355
       0.45875	      47.91260	      47.76001	      50.73547	      47.60742
       0.47186	      42.72461	      53.40576	      49.97253	      47.07336
       0.48497	      44.25049	      48.59924	      47.22595	      44.40308
       0.49807	      40.20691	      49.51477	      50.73547	      51.80359
       0.51118	      47.91260	      50.50659	      49.43848	      49.66736
       0.52429	      43.64014	      44.86084	      45.92896	      51.72729
       0.53740	      49.81995	      48.67554	      47.53113	      45.77637
       0.55050	      47.14966	      43.79272	      48.14148	      46.15784
       0.56361	      47.68372	      51.57471	      46.92078	      43.64014
       0.57672	      46.31042	      45.92896	      45.31860	      46.99707
       0.58982	      50.27771	      51.80359	      45.08972	      46.08154
       0.60293	      46.23413	      49.89624	      49.36218	      49.36218
       0.61604	      49.51477	      49.81995	      48.29407	      47.53113
       0.62915	      51.26953	      46.76819	      47.60742	      42.80090
       0.64225	      48.75183	      48.52295	      47.14966	      49.66736
       0.65536	      42.72461	      46.99707	      47.60742	      47.14966
       0.66847	      49.05701	      48.52295	      43.71643	      48.82813
       0.68157	      45.92896	      47.45483	      46.46301	      49.05701
       0.69468	      45.31860	      50.20142	      49.05701	      45.16602
       0.70779	      47.98889	      48.29407	      48.82813	      44.40308
       0.72090	      42.03796	      48.75183	      50.04883	      49.36218
       0.73400	      45.85266	      40.96985	      51.11694	      43.41125
       0.74711	      48.06519	      52.94800	      47.83630	      48.37036
