ALV-7004/USB-FAST
Date :	"11/11/2025"
Time :	"3:57:28 PM"
Samplename : 	""
SampMemo(0) : 	""
SampMemo(1) : 	""
SampMemo(2) : 	""
SampMemo(3) : 	""
SampMemo(4) : 	""
SampMemo(5) : 	""
SampMemo(6) : 	""
SampMemo(7) : 	""
SampMemo(8) : 	""
SampMemo(9) : 	""
Temperature [K] :	     298.16000
Viscosity [cp]  :	       0.89000
Refractive Index:	       1.33200
Wavelength [nm] :	       0.00000
Angle [°]       :	       0.00000
Duration [s]    :	         1
FloatDur [ms]   :	          944
Stop TP [ms]   :	     67811
Runs            :	         1
Mode            :	"A-CH0+1  A-CH2+3 "
MeanCR0 [kHz]   :	      49.53066
MeanCR1 [kHz]   :	      51.37868
MeanCR2 [kHz]   :	      51.24516
MeanCR3 [kHz]   :	      50.29466

"Correlation"
  3.12500E-006	 -1.00000E+000	 -1.00000E+000	 -1.00000E+000	 -1.00000E+000
  6.25000E-006	 -1.00000E+000	 -1.00000E+000	 -1.00000E+000	 -1.00000E+000
  9.37500E-006	 -1.00000E+000	 -1.00000E+000	 -1.00000E+000	 -1.00000E+000
  1.25000E-005	 -1.00000E+000	 -1.00000E+000	 -1.00000E+000	 -1.00000E+000
  1.56250E-005	 -1.00000E+000	 -1.00000E+000	 -1.00000E+000	 -1.00000E+000
  1.87500E-005	 -1.00000E+000	 -1.00000E+000	 -1.00000E+000	 -1.00000E+000
  2.18750E-005	 -7.23567E-001	  1.31214E+000	  1.32420E+000	 -7.31902E-001
  2.50000E-005	  1.60006E+001	  1.37720E+001	  1.25579E+001	  2.72843E+001
  2.81250E-005	  2.87006E+000	  2.08285E+000	  1.06596E+000	  7.98129E+000
  3.12500E-005	  1.07324E+000	  2.08285E+000	  1.32420E+000	  5.56840E+000
  3.43750E-005	  1.48789E+000	  2.21131E+000	  1.71157E+000	  4.63006E+000
  3.75000E-005	  1.07324E+000	  7.98332E-001	  9.36837E-001	  4.22791E+000
  4.06250E-005	 -3.24860E-002	  1.56070E-001	  1.06596E+000	  3.69172E+000
  4.37500E-005	  9.35028E-001	  5.41427E-001	  1.45333E+000	  1.94908E+000
  4.68750E-005	  1.07324E+000	  7.98332E-001	  9.36837E-001	  1.54693E+000
  5.00000E-005	  8.65920E-001	  6.05653E-001	  7.43153E-001	  2.55230E+000
  5.62500E-005	  5.20379E-001	  9.26784E-001	  8.07715E-001	  1.74801E+000
  6.25000E-005	  7.27703E-001	  9.26784E-001	  8.72276E-001	  8.76686E-001
  6.87500E-005	  7.96812E-001	  2.84523E-001	  8.72276E-001	  1.41288E+000
  7.50000E-005	  1.34968E+000	  4.77201E-001	  3.55786E-001	  1.74801E+000
  8.12500E-005	  1.74838E-001	  4.77201E-001	  7.43153E-001	  1.07776E+000
  8.75000E-005	  3.82163E-001	  6.05653E-001	  1.62102E-001	  1.14478E+000
  9.37500E-005	  7.96812E-001	  4.77201E-001	  1.62102E-001	  3.40490E-001
  1.00000E-004	  5.54933E-001	  5.73540E-001	  4.52628E-001	  4.74539E-001
  1.12500E-004	  2.43946E-001	  7.66218E-001	  4.84908E-001	  8.09662E-001
  1.25000E-004	  5.20379E-001	  5.73540E-001	  1.29192E+000	  1.27883E+000
  1.37500E-004	  4.16717E-001	  4.45088E-001	  2.58944E-001	  7.42637E-001
  1.50000E-004	  5.54933E-001	  6.37766E-001	  9.04556E-001	  7.09125E-001
  1.62500E-004	  4.51271E-001	  6.37766E-001	  2.91225E-001	  5.41564E-001
  1.75000E-004	  2.09392E-001	  7.01992E-001	  8.07714E-001	  5.41564E-001
  1.87500E-004	  2.09392E-001	  5.73540E-001	  6.78592E-001	  4.41027E-001
  2.00000E-004	  3.99439E-001	  4.45087E-001	  4.52627E-001	  2.56709E-001
  2.25000E-004	  5.72210E-001	  3.80861E-001	  5.81750E-001	  3.57246E-001
  2.50000E-004	  3.47608E-001	  6.05653E-001	  5.49469E-001	  7.76149E-001
  2.75000E-004	  2.09392E-001	  5.09314E-001	  6.62451E-001	  3.23734E-001
  3.00000E-004	  6.58595E-001	  1.88183E-001	  4.52627E-001	  4.74539E-001
  3.25000E-004	  5.20379E-001	  4.77200E-001	  3.55785E-001	  6.58856E-001
  3.50000E-004	  4.68547E-001	  4.12974E-001	  2.42803E-001	  5.41563E-001
  3.75000E-004	  4.51270E-001	  3.48748E-001	  5.81750E-001	  5.41563E-001
  4.00000E-004	  4.25354E-001	  4.85228E-001	  5.89819E-001	  5.16429E-001
  4.50000E-004	  5.03101E-001	  3.56776E-001	  4.84907E-001	  5.49941E-001
  5.00000E-004	  4.08077E-001	  3.88889E-001	  4.36486E-001	  6.00209E-001
  5.50000E-004	  2.43946E-001	  3.72832E-001	  6.30170E-001	  5.33185E-001
  6.00000E-004	  6.32679E-001	  7.10019E-001	  4.36486E-001	  6.00209E-001
  6.50000E-004	  3.99439E-001	  4.69172E-001	  4.84907E-001	  4.32648E-001
  7.00000E-004	  5.03101E-001	  6.05652E-001	  4.36486E-001	  4.74538E-001
  7.50000E-004	  5.20378E-001	  4.04945E-001	  4.36486E-001	  5.91831E-001
  8.00000E-004	  4.38311E-001	  3.96916E-001	  5.65607E-001	  4.24269E-001
  9.00000E-004	  5.33334E-001	  5.45439E-001	  4.68766E-001	  4.24269E-001
  1.00000E-003	  4.03757E-001	  5.29382E-001	  4.56661E-001	  4.61970E-001
  1.10000E-003	  3.56245E-001	  3.76845E-001	  3.59819E-001	  2.77653E-001
  1.20000E-003	  4.94461E-001	  4.77199E-001	  4.48590E-001	  4.15891E-001
  1.30000E-003	  4.77184E-001	  4.21001E-001	  4.88941E-001	  5.45750E-001
  1.40000E-003	  3.82161E-001	  3.72831E-001	  4.04205E-001	  3.32110E-001
  1.50000E-003	  2.52583E-001	  5.05297E-001	  5.17187E-001	  4.36836E-001
  1.60000E-003	  4.25351E-001	  5.41422E-001	  5.43412E-001	  4.03321E-001
  1.80000E-003	  4.23191E-001	  3.98921E-001	  4.46570E-001	  4.82913E-001
  2.00000E-003	  4.53426E-001	  4.29027E-001	  4.44553E-001	  4.55684E-001
  2.20000E-003	  4.05914E-001	  5.03288E-001	  4.20342E-001	  4.78724E-001
  2.40000E-003	  3.64881E-001	  4.61140E-001	  4.74816E-001	  4.85007E-001
  2.60000E-003	  3.41125E-001	  4.39062E-001	  3.96132E-001	  4.34739E-001
  2.80000E-003	  3.86477E-001	  3.58780E-001	  4.52623E-001	  5.56220E-001
  3.00000E-003	  4.23191E-001	  4.45083E-001	  4.24378E-001	  3.71932E-001
  3.20000E-003	  4.63139E-001	  4.68190E-001	  3.97136E-001	  3.93921E-001
  3.60000E-003	  4.89054E-001	  4.52133E-001	  3.39637E-001	  4.15913E-001
  4.00000E-003	  4.72857E-001	  4.33065E-001	  4.58671E-001	  3.91826E-001
  4.40000E-003	  3.82154E-001	  3.74860E-001	  4.30425E-001	  3.98110E-001
  4.80000E-003	  3.60557E-001	  3.90916E-001	  3.03321E-001	  3.39462E-001
  5.20000E-003	  4.53421E-001	  3.47764E-001	  3.39637E-001	  4.54662E-001
  5.60000E-003	  4.18867E-001	  3.76867E-001	  3.97136E-001	  3.36321E-001
  6.00000E-003	  3.84372E-001	  3.75863E-001	  3.44680E-001	  3.93921E-001
  6.40000E-003	  4.02720E-001	  3.48786E-001	  3.44167E-001	  3.50450E-001
  7.20000E-003	  3.23352E-001	  3.90964E-001	  3.61316E-001	  3.42595E-001
  8.00000E-003	  3.70325E-001	  3.55309E-001	  3.57785E-001	  3.84486E-001
  8.80000E-003	  3.39549E-001	  3.30220E-001	  3.61344E-001	  3.84486E-001
  9.60000E-003	  2.86097E-001	  3.07640E-001	  3.89114E-001	  3.71947E-001
  1.04000E-002	  3.17952E-001	  2.99110E-001	  3.56328E-001	  3.50478E-001
  1.12000E-002	  2.96356E-001	  3.10149E-001	  3.51789E-001	  3.05445E-001
  1.20000E-002	  2.85017E-001	  3.26206E-001	  2.97313E-001	  3.10681E-001
  1.28000E-002	  2.83920E-001	  2.89083E-001	  3.01835E-001	  3.22183E-001
  1.44000E-002	  2.83380E-001	  2.72524E-001	  3.24281E-001	  3.47580E-001
  1.60000E-002	  2.68019E-001	  2.75033E-001	  2.73085E-001	  2.77412E-001
  1.76000E-002	  2.50472E-001	  2.81557E-001	  2.66780E-001	  2.73223E-001
  1.92000E-002	  2.53711E-001	  2.32131E-001	  2.57953E-001	  2.81601E-001
  2.08000E-002	  2.32654E-001	  2.26084E-001	  2.47613E-001	  2.52016E-001
  2.24000E-002	  2.52362E-001	  2.52427E-001	  2.27942E-001	  2.44161E-001
  2.40000E-002	  1.95399E-001	  2.57696E-001	  2.26177E-001	  2.15885E-001
  2.56000E-002	  1.94287E-001	  2.22438E-001	  2.39131E-001	  2.18758E-001
  2.88000E-002	  1.99011E-001	  2.10020E-001	  2.01303E-001	  1.83020E-001
  3.20000E-002	  1.76335E-001	  2.21686E-001	  1.83902E-001	  2.06976E-001
  3.52000E-002	  1.48554E-001	  1.62853E-001	  1.54798E-001	  1.48853E-001
  3.84000E-002	  1.48284E-001	  1.62728E-001	  1.45340E-001	  1.44533E-001
  4.16000E-002	  1.12919E-001	  1.34879E-001	  1.42062E-001	  1.48067E-001
  4.48000E-002	  1.40320E-001	  1.12300E-001	  1.26048E-001	  1.45973E-001
  4.80000E-002	  1.51389E-001	  1.11524E-001	  9.98194E-002	  1.33143E-001
  5.12000E-002	  1.07618E-001	  1.02564E-001	  1.03061E-001	  1.13166E-001
  5.76000E-002	  8.26476E-002	  7.92316E-002	  7.39334E-002	  9.54055E-002
  6.40000E-002	  7.87333E-002	  6.71265E-002	  5.88653E-002	  7.67517E-002
  7.04000E-002	  6.07366E-002	  7.67227E-002	  6.68722E-002	  6.20250E-002
  7.68000E-002	  5.79020E-002	  6.34887E-002	  4.73908E-002	  6.22868E-002
  8.32000E-002	  3.66418E-002	  4.90219E-002	  3.01374E-002	  4.90000E-002
  8.96000E-002	  3.51338E-002	  4.58447E-002	  2.44212E-002	  4.14730E-002
  9.60000E-002	  3.98808E-002	  3.56835E-002	  4.93256E-002	  4.30439E-002
  1.02400E-001	  2.81360E-002	  3.60870E-002	  4.22488E-002	  3.20991E-002
  1.15200E-001	  2.77530E-002	  2.33222E-002	  2.13162E-002	  1.84194E-002
  1.28000E-001	  1.73250E-002	  2.52244E-002	  6.02655E-003	  2.79424E-002
  1.40800E-001	  1.57388E-002	  2.23705E-002	  1.48115E-002	  1.05520E-002
  1.53600E-001	  1.87761E-002	  2.85801E-002	  1.13121E-002	  1.68902E-002
  1.66400E-001	  1.13395E-002	  1.41223E-002	  1.09654E-002	 -4.61345E-003
  1.79200E-001	  1.42298E-002	  2.49735E-002	  4.40802E-003	  1.03655E-002
  1.92000E-001	  7.53531E-003	  1.90671E-002	  1.31091E-002	  2.21552E-003
  2.04800E-001	  6.90495E-003	  9.92832E-003	  5.62151E-003	  1.06292E-002
  2.30400E-001	  1.46149E-002	  1.72959E-002	  1.21101E-004	  9.60136E-003
  2.56000E-001	  1.04869E-002	  7.83174E-003	  1.07185E-002	  1.13870E-002
  2.81600E-001	  6.38535E-003	  5.03957E-003	 -7.73955E-003	  1.78415E-003
  3.07200E-001	  1.44414E-002	  1.15494E-002	  9.01062E-003	  1.18766E-002
  3.32800E-001	  2.93895E-003	  6.57683E-003	  2.56839E-003	  1.46154E-003
  3.58400E-001	  1.12197E-002	  1.67198E-003	 -6.30175E-003	  1.08241E-002
  3.84000E-001	  6.64500E-003	  5.37909E-003	 -3.23869E-003	  5.59594E-003
  4.09600E-001	  6.58768E-003	  1.97037E-003	  4.85716E-003	  5.00110E-003
  4.60800E-001	  3.90725E-003	 -5.58274E-003	  8.53920E-003	  9.29547E-003
  5.12000E-001	 -7.84205E-003	 -6.70722E-004	  7.39056E-003	  6.18289E-003
  5.63200E-001	 -4.41742E-003	 -2.04919E-004	  1.07098E-002	  4.95670E-004
  6.14400E-001	  3.63705E-003	 -7.45148E-004	  1.56864E-002	 -2.14418E-003
  6.65600E-001	  1.35081E-003	  4.56406E-003	  7.84880E-003	 -2.58744E-003
  7.16800E-001	  2.18825E-003	  1.37128E-003	  3.35299E-003	 -1.80030E-003
  7.68000E-001	 -1.44223E-003	 -6.24121E-003	  3.08788E-003	  4.08173E-003
  8.19200E-001	 -3.57657E-003	 -7.66353E-003	 -4.94486E-003	 -4.40966E-003
  9.21600E-001	 -3.60549E-003	 -6.02014E-004	 -4.91902E-003	 -1.84006E-003
  1.02400E+000	  1.06861E-003	  5.24455E-004	  6.23100E-003	  2.70833E-003
  1.12640E+000	 -3.39526E-003	  1.07260E-002	  2.63495E-003	  5.15830E-003
  1.22880E+000	 -5.98044E-004	  4.04792E-003	 -9.26316E-005	  6.84153E-003
  1.33120E+000	  5.24080E-003	  6.18088E-003	 -5.86488E-003	  2.46984E-003
  1.43360E+000	  3.51847E-003	  3.20590E-003	 -4.34636E-004	 -1.32545E-003
  1.53600E+000	 -3.61930E-003	 -5.70060E-003	 -1.60353E-003	 -9.02754E-003
  1.63840E+000	  5.25121E-003	 -9.27495E-004	  2.65662E-003	 -3.00993E-003
  1.84320E+000	 -2.21299E-003	 -5.82683E-004	 -2.93297E-003	 -6.28713E-004
  2.04800E+000	  5.25084E-004	  6.14136E-004	  2.48429E-003	 -2.39123E-003
  2.25280E+000	  3.19016E-003	  8.11527E-004	 -3.22110E-003	 -1.47728E-003
  2.45760E+000	 -3.72328E-005	 -6.63692E-004	 -1.83617E-003	  2.03499E-006
  2.66240E+000	 -2.51620E-004	 -5.43740E-003	  2.38735E-003	  1.76307E-003
  2.86720E+000	  4.27332E-003	 -3.09672E-003	  1.24204E-003	  4.75452E-003
  3.07200E+000	  5.07727E-003	  1.20621E-004	 -8.25459E-004	 -3.95637E-003
  3.27680E+000	  1.44402E-003	 -9.60028E-004	 -1.50587E-003	 -1.70513E-003
  3.68640E+000	  2.49351E-003	 -2.79885E-003	 -4.19160E-004	 -1.47892E-003
  4.09600E+000	  4.42387E-004	  1.48171E-004	  1.80829E-003	 -7.12494E-004
  4.50560E+000	 -2.44672E-004	 -1.10830E-003	 -2.83735E-004	  2.88108E-003
  4.91520E+000	  4.77295E-003	 -1.60854E-003	  3.33285E-004	  1.39499E-003
  5.32480E+000	  3.67733E-003	 -2.46870E-003	  4.87582E-004	  9.09653E-004
  5.73440E+000	 -2.72211E-003	 -4.73695E-004	  4.02938E-003	 -1.92051E-003
  6.14400E+000	 -2.31260E-003	  1.28142E-003	  1.72345E-003	  5.32073E-003
  6.55360E+000	 -3.67414E-003	  6.93208E-005	  1.86324E-003	 -1.73190E-003
  7.37280E+000	  2.67864E-003	  8.69315E-004	  2.19999E-004	  3.11643E-003
  8.19200E+000	  1.60941E-003	  6.51441E-004	 -5.83512E-004	  2.31072E-004
  9.01120E+000	  1.59979E-003	 -1.20413E-003	  1.46965E-003	 -1.12005E-003
  9.83040E+000	 -9.16503E-004	  5.57576E-004	  8.66250E-004	  4.45695E-003
  1.06496E+001	  1.83613E-004	  1.79105E-003	  3.53871E-003	  2.22145E-003
  1.14688E+001	  1.41746E-003	  1.76491E-003	  9.33216E-004	 -1.43228E-003
  1.22880E+001	  2.82269E-004	 -2.52820E-003	  1.03181E-003	 -2.14692E-004
  1.31072E+001	 -1.38577E-003	  1.57699E-003	 -8.15638E-004	  2.08119E-003
  1.47456E+001	  1.31590E-003	 -1.65307E-004	  8.01038E-004	  6.24117E-005
  1.63840E+001	  1.71410E-003	 -1.57293E-005	 -4.29831E-004	 -2.45657E-003
  1.80224E+001	  3.97782E-003	 -7.53880E-004	 -1.10161E-003	 -6.88296E-004
  1.96608E+001	  6.39644E-004	 -8.53984E-004	 -2.88653E-004	  1.13282E-003
  2.12992E+001	 -3.58650E-004	  1.97408E-003	  7.94636E-005	 -1.08616E-004
  2.29376E+001	 -2.13828E-003	  1.85402E-004	 -3.00692E-003	 -1.66699E-003
  2.45760E+001	 -2.76459E-003	  1.82876E-003	 -1.49976E-003	 -2.02386E-003
  2.62144E+001	 -1.31456E-003	  1.57637E-003	  7.87710E-004	 -1.31178E-003
  2.94912E+001	 -1.37247E-004	  2.34219E-004	 -7.84193E-004	 -9.94388E-004
  3.27680E+001	  2.20551E-004	  3.12211E-004	 -1.40448E-003	 -1.23903E-003
  3.60448E+001	 -4.47153E-004	 -5.98628E-005	  6.44703E-004	  3.95102E-004
  3.93216E+001	 -6.27057E-004	  5.57427E-004	  2.18091E-004	  1.52754E-003
  4.25984E+001	 -1.13361E-003	 -1.50425E-004	 -9.13762E-004	 -3.25369E-004
  4.58752E+001	 -6.82502E-004	 -3.83375E-004	 -1.09452E-003	  1.51559E-003
  4.91520E+001	  1.05459E-003	 -3.51231E-004	 -1.14437E-003	  2.29512E-003
  5.24288E+001	  5.97289E-004	  1.57826E-004	  9.09771E-004	  3.51456E-004
  5.89824E+001	 -1.85922E-004	  3.92742E-004	 -1.18615E-003	 -1.93488E-004
  6.55360E+001	  1.88905E-003	  1.00035E-003	  1.10348E-003	 -5.79237E-004
  7.20896E+001	  1.76806E-003	 -3.48369E-004	 -8.79068E-005	  9.44551E-004
  7.86432E+001	  1.76888E-003	 -4.76436E-004	 -3.14887E-004	 -2.23228E-004
  8.51968E+001	  9.50582E-004	  2.78463E-004	 -1.37585E-003	  4.66815E-004
  9.17504E+001	 -6.75592E-005	  8.54599E-004	 -4.66527E-004	  6.81340E-004
  9.83040E+001	  8.93200E-004	 -1.44820E-004	  2.53281E-004	  3.06139E-004
  1.04858E+002	 -8.53507E-004	  9.52233E-005	  1.87285E-004	 -2.27286E-004
  1.17965E+002	 -9.14974E-004	  5.99351E-004	 -6.48975E-004	  3.19373E-004
  1.31072E+002	 -1.12593E-004	 -4.21583E-005	 -5.00915E-004	 -1.51247E-004
  1.44179E+002	  4.68158E-004	  8.24749E-004	 -3.30532E-004	 -1.19075E-003
  1.57286E+002	  3.99007E-004	 -5.64787E-004	  1.00502E-003	 -1.62297E-003
  1.70394E+002	  3.11995E-004	  6.30442E-004	  2.93590E-004	  3.30587E-005
  1.83501E+002	 -8.02495E-004	 -2.67785E-004	 -8.47880E-004	 -1.48586E-004
  1.96608E+002	 -1.08384E-003	  1.99811E-004	  2.84240E-004	 -8.03023E-004
  2.09715E+002	  5.25674E-004	 -7.93866E-005	 -2.49673E-004	 -1.38569E-003
  2.35930E+002	  2.49675E-004	  3.29635E-004	 -1.76296E-004	 -8.06575E-004
  2.62144E+002	 -9.58047E-004	  1.69492E-004	 -2.00737E-004	 -6.66760E-004
  2.88358E+002	  4.18069E-004	  3.13098E-004	 -2.72027E-004	  3.01193E-004
  3.14573E+002	  3.97532E-004	 -4.40158E-005	  5.45306E-004	 -2.14663E-004
  3.40787E+002	 -4.68254E-004	 -3.42544E-004	 -3.84156E-004	  4.49873E-005
  3.67002E+002	  2.65620E-005	 -2.38363E-004	  2.87121E-004	  1.17760E-003
  3.93216E+002	 -1.39777E-004	 -6.25487E-004	  1.72367E-004	  5.79313E-004

"Count Rate"
       0.01311	      44.70825	      56.91528	      48.59924	      52.18506
       0.02621	      46.61560	      51.34583	      47.45483	      53.25317
       0.03932	      49.89624	      49.28589	      50.96436	      47.98889
       0.05243	      47.07336	      49.36218	      52.79541	      48.06519
       0.06554	      50.04883	      51.26953	      54.09241	      48.29407
       0.07864	      48.44666	      44.70825	      46.61560	      54.16870
       0.09175	      47.60742	      53.32947	      43.41125	      53.25317
       0.10486	      49.05701	      47.07336	      53.55835	      48.44666
       0.11796	      47.14966	      48.67554	      46.23413	      46.31042
       0.13107	      42.57202	      45.70007	      52.49023	      53.32947
       0.14418	      49.66736	      47.53113	      44.09790	      48.52295
       0.15729	      53.71094	      45.39490	      54.39758	      46.84448
       0.17039	      44.47937	      46.61560	      48.52295	      50.35400
       0.18350	      52.56653	      54.93164	      56.30493	      50.04883
       0.19661	      49.51477	      49.59106	      52.03247	      45.24231
       0.20972	      49.51477	      50.04883	      52.10876	      53.32947
       0.22282	      45.47119	      45.47119	      53.40576	      46.23413
       0.23593	      44.02161	      53.78723	      47.45483	      40.05432
       0.24904	      44.78455	      45.47119	      46.84448	      45.47119
       0.26214	      46.99707	      47.53113	      53.55835	      53.32947
       0.27525	      54.47388	      48.90442	      51.34583	      49.20959
       0.28836	      52.26135	      50.58289	      50.65918	      44.32678
       0.30147	      45.92896	      56.83899	      48.90442	      45.24231
       0.31457	      39.44397	      55.77087	      46.31042	      49.13330
       0.32768	      50.43030	      48.90442	      46.76819	      47.83630
       0.34079	      52.71912	      53.10059	      41.42761	      56.22864
       0.35389	      48.90442	      53.63464	      45.39490	      49.74365
       0.36700	      49.13330	      47.37854	      57.14417	      45.62378
       0.38011	      40.89355	      52.79541	      48.21777	      55.38940
       0.39322	      46.84448	      48.59924	      55.84717	      49.66736
       0.40632	      48.90442	      48.44666	      55.23682	      46.31042
       0.41943	      45.54749	      52.26135	      48.75183	      50.65918
       0.43254	      45.54749	      44.93713	      49.05701	      53.32947
       0.44564	      47.14966	      48.75183	      52.03247	      54.09241
       0.45875	      45.70007	      54.16870	      53.17688	      56.30493
       0.47186	      42.49573	      51.87988	      49.43848	      52.10876
       0.48497	      49.81995	      56.07605	      46.99707	      52.94800
       0.49807	      54.01611	      46.46301	      50.43030	      48.52295
       0.51118	      45.77637	      52.10876	      47.14966	      45.54749
       0.52429	      50.88806	      50.12512	      59.05151	      52.26135
       0.53740	      46.31042	      52.33765	      47.68372	      48.67554
       0.55050	      53.40576	      56.22864	      53.78723	      52.79541
       0.56361	      49.20959	      51.49841	      55.38940	      53.02429
       0.57672	      56.30493	      51.65100	      48.21777	      49.89624
       0.58982	      51.04065	      50.73547	      49.81995	      44.09790
       0.60293	      47.98889	      55.54199	      55.38940	      47.30225
       0.61604	      50.50659	      53.25317	      52.71912	      51.65100
       0.62915	      54.16870	      51.95618	      47.91260	      46.53931
       0.64225	      57.52563	      49.81995	      48.14148	      49.28589
       0.65536	      55.08423	      55.16052	      52.41394	      46.15784
       0.66847	      50.65918	      51.11694	      55.54199	      48.75183
       0.68157	      44.78455	      49.13330	      49.97253	      45.16602
       0.69468	      46.38672	      49.89624	      50.96436	      48.37036
       0.70779	      46.00525	      46.92078	      46.99707	      45.85266
       0.72090	      53.93982	      52.41394	      52.18506	      52.79541
       0.73400	      44.02161	      50.58289	      49.43848	      49.20959
       0.74711	      55.23682	      58.89893	      50.58289	      47.68372
