ALV-7004/USB-FAST
Date :	"11/11/2025"
Time :	"3:59:14 PM"
Samplename : 	""
SampMemo(0) : 	""
SampMemo(1) : 	""
SampMemo(2) : 	""
SampMemo(3) : 	""
SampMemo(4) : 	""
SampMemo(5) : 	""
SampMemo(6) : 	""
SampMemo(7) : 	""
SampMemo(8) : 	""
SampMemo(9) : 	""
Temperature [K] :	     298.16000
Viscosity [cp]  :	       0.89000
Refractive Index:	       1.33200
Wavelength [nm] :	       0.00000
Angle [°]       :	       0.00000
Duration [s]    :	         1
FloatDur [ms]   :	          944
Stop TP [ms]   :	     68280
Runs            :	         1
Mode            :	"A-CH0+1  A-CH2+3 "
MeanCR0 [kHz]   :	      54.49507
MeanCR1 [kHz]   :	      57.06257
MeanCR2 [kHz]   :	      56.93542
MeanCR3 [kHz]   :	      54.69640

"Correlation"
  3.12500E-006	 -1.00000E+000	 -1.00000E+000	 -1.00000E+000	 -1.00000E+000
  6.25000E-006	 -1.00000E+000	 -1.00000E+000	 -1.00000E+000	 -1.00000E+000
  9.37500E-006	 -1.00000E+000	 -1.00000E+000	 -1.00000E+000	 -1.00000E+000
  1.25000E-005	 -1.00000E+000	 -1.00000E+000	 -1.00000E+000	 -1.00000E+000
  1.56250E-005	 -1.00000E+000	 -1.00000E+000	 -1.00000E+000	 -1.00000E+000
  1.87500E-005	 -1.00000E+000	 -1.00000E+000	 -1.00000E+000	 -1.00000E+000
  2.18750E-005	 -1.00000E+000	  3.53805E-001	  1.19665E+000	 -7.73316E-001
  2.50000E-005	  1.12173E+001	  1.36836E+001	  1.25983E+001	  2.33685E+001
  2.81250E-005	  3.56723E+000	  2.64486E+000	  3.28871E+000	  8.74739E+000
  3.12500E-005	  2.08288E+000	  1.49933E+000	  1.19665E+000	  5.34714E+000
  3.43750E-005	  1.62616E+000	  1.18692E+000	  8.82847E-001	  3.53367E+000
  3.75000E-005	  1.05525E+000	  4.57944E-001	  9.87450E-001	  3.87370E+000
  4.06250E-005	  1.05525E+000	  1.08278E+000	  1.51046E+000	  3.30699E+000
  4.37500E-005	  1.28362E+000	  7.70361E-001	  4.64437E-001	  2.17357E+000
  4.68750E-005	  1.62616E+000	  7.70361E-001	  3.59834E-001	  2.40025E+000
  5.00000E-005	  1.05525E+000	  2.49666E-001	  8.82847E-001	  2.79695E+000
  5.62500E-005	  4.27260E-001	  9.26569E-001	  4.64437E-001	  2.11690E+000
  6.25000E-005	  5.41441E-001	  1.45528E-001	  5.16738E-001	  1.77687E+000
  6.87500E-005	  9.98164E-001	  3.01736E-001	  5.16738E-001	  1.04015E+000
  7.50000E-005	  7.12712E-001	  6.14153E-001	  7.78244E-001	  7.00127E-001
  8.12500E-005	  6.55622E-001	  7.18291E-001	  5.69039E-001	  1.55019E+000
  8.75000E-005	  1.41808E-001	  8.74500E-001	  5.69039E-001	  1.04015E+000
  9.37500E-005	  4.27260E-001	  5.10014E-001	  5.16738E-001	  4.73443E-001
  1.00000E-004	  1.70353E-001	  6.14152E-001	  6.47491E-001	  8.70139E-001
  1.12500E-004	  5.69986E-001	  6.92257E-001	  4.90587E-001	  8.41804E-001
  1.25000E-004	  1.51198E+000	  7.70361E-001	  6.21340E-001	  6.43456E-001
  1.37500E-004	  3.98715E-001	  6.92257E-001	  5.95190E-001	  8.41804E-001
  1.50000E-004	  7.69802E-001	  3.79840E-001	  3.59834E-001	  8.13468E-001
  1.62500E-004	  4.27260E-001	  4.05875E-001	  7.52093E-001	  4.16772E-001
  1.75000E-004	  5.41441E-001	  6.14152E-001	  9.83273E-002	  5.30114E-001
  1.87500E-004	  4.84350E-001	  5.10014E-001	  7.25943E-001	  6.71791E-001
  2.00000E-004	  5.41440E-001	  4.70961E-001	  5.95189E-001	  7.99300E-001
  2.25000E-004	  8.98255E-001	  8.74499E-001	  3.07532E-001	  4.59275E-001
  2.50000E-004	  5.84258E-001	  4.96996E-001	  4.64436E-001	  5.44281E-001
  2.75000E-004	  5.12895E-001	  5.88117E-001	  3.07532E-001	  6.43455E-001
  3.00000E-004	  5.98531E-001	  3.53805E-001	  5.29813E-001	  4.02604E-001
  3.25000E-004	  3.98714E-001	  5.49065E-001	  4.77511E-001	  3.60101E-001
  3.50000E-004	  8.12620E-001	  2.62683E-001	  5.03662E-001	  5.30113E-001
  3.75000E-004	  5.55713E-001	  3.14753E-001	  3.99059E-001	  4.45107E-001
  4.00000E-004	  5.62849E-001	  3.73330E-001	  3.85984E-001	  3.10513E-001
  4.50000E-004	  4.48668E-001	  4.90487E-001	  4.44822E-001	  5.58448E-001
  5.00000E-004	  4.98622E-001	  5.03504E-001	  4.90586E-001	  5.37197E-001
  5.50000E-004	  5.98530E-001	  2.95226E-001	  6.01726E-001	  4.73442E-001
  6.00000E-004	  3.91577E-001	  5.42556E-001	  6.54028E-001	  3.74268E-001
  6.50000E-004	  3.20215E-001	  5.62082E-001	  4.57898E-001	  4.66358E-001
  7.00000E-004	  5.27167E-001	  5.03504E-001	  6.54028E-001	  2.53842E-001
  7.50000E-004	  4.91486E-001	  4.83978E-001	  5.10199E-001	  5.08861E-001
  8.00000E-004	  5.02189E-001	  3.40786E-001	  5.98456E-001	  5.44279E-001
  9.00000E-004	  5.55711E-001	  4.83977E-001	  4.05595E-001	  6.18660E-001
  1.00000E-003	  4.62939E-001	  4.77468E-001	  4.87316E-001	  5.72615E-001
  1.10000E-003	  5.30734E-001	  4.77468E-001	  4.97122E-001	  5.47821E-001
  1.20000E-003	  4.73644E-001	  3.76584E-001	  4.84047E-001	  4.62815E-001
  1.30000E-003	  4.52235E-001	  5.06757E-001	  5.06929E-001	  5.26570E-001
  1.40000E-003	  4.84348E-001	  3.76584E-001	  4.97122E-001	  5.37195E-001
  1.50000E-003	  4.45098E-001	  5.19774E-001	  5.46155E-001	  6.36369E-001
  1.60000E-003	  5.23595E-001	  5.06754E-001	  5.10195E-001	  4.94690E-001
  1.80000E-003	  4.18335E-001	  5.31162E-001	  4.12131E-001	  4.36248E-001
  2.00000E-003	  4.34392E-001	  4.64448E-001	  4.07227E-001	  5.08857E-001
  2.20000E-003	  4.54016E-001	  4.15633E-001	  3.41851E-001	  4.20309E-001
  2.40000E-003	  5.69981E-001	  4.66075E-001	  4.07227E-001	  5.01774E-001
  2.60000E-003	  3.32700E-001	  4.18887E-001	  4.28475E-001	  4.92919E-001
  2.80000E-003	  4.12983E-001	  3.57055E-001	  4.51356E-001	  4.34477E-001
  3.00000E-003	  4.32608E-001	  4.74211E-001	  3.95786E-001	  4.98232E-001
  3.20000E-003	  4.54011E-001	  4.33554E-001	  3.83524E-001	  4.28302E-001
  3.60000E-003	  4.17438E-001	  4.48198E-001	  4.97932E-001	  5.00027E-001
  4.00000E-003	  4.19222E-001	  4.46571E-001	  4.51351E-001	  4.61065E-001
  4.40000E-003	  4.12978E-001	  4.50639E-001	  4.48900E-001	  4.30073E-001
  4.80000E-003	  3.96921E-001	  3.93688E-001	  4.29287E-001	  4.40699E-001
  5.20000E-003	  4.53119E-001	  4.09146E-001	  3.61459E-001	  3.65432E-001
  5.60000E-003	  4.85233E-001	  4.05892E-001	  3.92513E-001	  4.41584E-001
  6.00000E-003	  4.14762E-001	  3.66839E-001	  4.03954E-001	  4.20332E-001
  6.40000E-003	  4.00088E-001	  3.94924E-001	  4.36250E-001	  4.31862E-001
  7.20000E-003	  4.03211E-001	  4.03900E-001	  4.15820E-001	  4.31004E-001
  8.00000E-003	  3.88938E-001	  3.46947E-001	  3.43905E-001	  3.94255E-001
  8.80000E-003	  4.29080E-001	  4.15291E-001	  3.93347E-001	  4.02667E-001
  9.60000E-003	  3.74665E-001	  3.61567E-001	  3.67604E-001	  3.69876E-001
  1.04000E-002	  3.68420E-001	  3.98586E-001	  3.87626E-001	  3.80060E-001
  1.12000E-002	  3.80909E-001	  3.69703E-001	  3.54120E-001	  3.67220E-001
  1.20000E-002	  3.70204E-001	  3.69703E-001	  3.66379E-001	  3.44197E-001
  1.28000E-002	  3.74084E-001	  3.77642E-001	  3.68224E-001	  3.67892E-001
  1.44000E-002	  3.31485E-001	  3.04824E-001	  3.43887E-001	  3.50182E-001
  1.60000E-002	  3.85235E-001	  3.57505E-001	  3.35919E-001	  3.35128E-001
  1.76000E-002	  3.57107E-001	  3.41233E-001	  3.27952E-001	  3.07260E-001
  1.92000E-002	  3.22092E-001	  3.12147E-001	  3.00167E-001	  2.98183E-001
  2.08000E-002	  2.98452E-001	  2.94654E-001	  2.68296E-001	  3.14812E-001
  2.24000E-002	  2.95998E-001	  2.81816E-001	  3.12220E-001	  3.03718E-001
  2.40000E-002	  2.61876E-001	  2.94223E-001	  2.83006E-001	  2.72724E-001
  2.56000E-002	  2.74529E-001	  2.99728E-001	  2.46676E-001	  2.88986E-001
  2.88000E-002	  2.59138E-001	  2.38606E-001	  2.33090E-001	  2.43603E-001
  3.20000E-002	  2.61902E-001	  2.17453E-001	  2.43611E-001	  2.28106E-001
  3.52000E-002	  2.15730E-001	  2.06978E-001	  1.99277E-001	  2.34858E-001
  3.84000E-002	  2.03216E-001	  2.22334E-001	  1.97438E-001	  1.90361E-001
  4.16000E-002	  1.80777E-001	  1.70162E-001	  1.93841E-001	  1.84052E-001
  4.48000E-002	  1.60012E-001	  1.45042E-001	  1.71776E-001	  1.89254E-001
  4.80000E-002	  1.66926E-001	  1.83971E-001	  1.57475E-001	  1.56246E-001
  5.12000E-002	  1.56394E-001	  1.38645E-001	  1.38582E-001	  1.50915E-001
  5.76000E-002	  1.27784E-001	  1.14594E-001	  1.17210E-001	  1.25181E-001
  6.40000E-002	  1.00345E-001	  1.03438E-001	  1.05901E-001	  1.07526E-001
  7.04000E-002	  8.37604E-002	  8.96582E-002	  1.01815E-001	  7.54271E-002
  7.68000E-002	  8.43180E-002	  5.91498E-002	  5.75295E-002	  7.85816E-002
  8.32000E-002	  8.39066E-002	  5.86921E-002	  5.83467E-002	  5.00799E-002
  8.96000E-002	  6.41296E-002	  5.25396E-002	  4.82332E-002	  6.30855E-002
  9.60000E-002	  5.26207E-002	  4.18617E-002	  6.44053E-002	  4.66487E-002
  1.02400E-001	  4.86636E-002	  3.84965E-002	  4.89125E-002	  4.25262E-002
  1.15200E-001	  4.12446E-002	  2.45892E-002	  2.98931E-002	  5.27504E-002
  1.28000E-001	  3.12475E-002	  1.71143E-002	  3.22882E-002	  3.51501E-002
  1.40800E-001	  2.46656E-002	  1.45464E-002	  2.08362E-002	  2.87343E-002
  1.53600E-001	  8.93580E-003	  7.96145E-003	  1.60209E-002	  8.14415E-003
  1.66400E-001	  1.39083E-002	  1.21631E-002	  1.84611E-002	  1.06072E-002
  1.79200E-001	  7.15617E-003	  5.22234E-003	  1.06391E-003	  2.01828E-002
  1.92000E-001	  5.38803E-003	  3.45449E-003	  1.89464E-002	  3.55010E-003
  2.04800E-001	  4.97822E-003	  2.16361E-003	  1.53533E-002	  1.21497E-002
  2.30400E-001	  9.50555E-003	 -2.16344E-003	  1.25485E-002	  1.40640E-002
  2.56000E-001	 -4.76815E-003	  1.40861E-003	  2.00047E-003	  1.63948E-002
  2.81600E-001	 -3.25641E-003	 -4.40652E-003	  6.05348E-003	  2.07405E-003
  3.07200E-001	 -7.02760E-003	 -5.37142E-003	  1.05325E-002	 -3.01304E-003
  3.32800E-001	 -1.76540E-005	  7.69572E-003	  8.16151E-003	 -1.98237E-004
  3.58400E-001	 -9.21402E-003	  3.48831E-003	  3.05211E-003	 -7.41682E-003
  3.84000E-001	  4.20822E-003	  1.19733E-002	 -2.14633E-003	 -7.25683E-003
  4.09600E-001	  4.28045E-003	  9.08993E-003	 -8.17512E-003	 -4.54208E-003
  4.60800E-001	  1.02880E-004	  3.47527E-003	 -9.71553E-003	  1.06524E-003
  5.12000E-001	 -1.25718E-002	  3.32177E-003	 -4.89616E-003	  2.10279E-003
  5.63200E-001	 -4.37994E-003	 -2.19222E-003	  1.68094E-003	  1.72999E-003
  6.14400E-001	 -7.45648E-003	 -2.30142E-003	  5.69495E-003	 -2.90390E-003
  6.65600E-001	 -6.04410E-003	 -3.76298E-003	  7.40236E-003	 -9.19521E-003
  7.16800E-001	 -7.34539E-003	  2.20301E-003	  1.80164E-003	 -1.27539E-002
  7.68000E-001	 -5.33166E-003	  3.30050E-003	 -2.08720E-003	 -7.72738E-005
  8.19200E-001	 -6.61767E-003	  6.26622E-003	  8.36604E-004	 -2.71420E-003
  9.21600E-001	 -7.76446E-003	  3.81637E-003	  8.04069E-004	 -5.14007E-003
  1.02400E+000	 -6.56519E-004	 -3.52834E-003	  1.08809E-003	 -1.24419E-002
  1.12640E+000	  4.17963E-003	  1.61626E-003	  9.86254E-004	 -2.54362E-003
  1.22880E+000	  1.70739E-003	 -3.29018E-003	 -4.63175E-003	 -9.06479E-003
  1.33120E+000	 -1.09326E-004	 -1.69346E-004	  6.31980E-004	 -6.35738E-003
  1.43360E+000	  2.21894E-004	  2.27628E-003	 -3.83370E-004	  4.06035E-003
  1.53600E+000	 -4.30278E-003	 -8.01541E-004	  2.81239E-003	  9.01608E-003
  1.63840E+000	 -1.13468E-003	 -2.61487E-003	  3.19708E-003	  3.16641E-003
  1.84320E+000	  2.02349E-003	  1.97082E-003	 -7.50862E-004	  1.94088E-003
  2.04800E+000	  1.75194E-003	  4.73496E-003	 -5.92858E-004	  2.40792E-004
  2.25280E+000	 -2.82038E-004	 -2.90141E-003	  2.85278E-003	 -4.84548E-003
  2.45760E+000	 -2.39102E-003	  2.40051E-004	  3.51393E-004	  1.15881E-005
  2.66240E+000	  6.31402E-003	  3.48381E-004	 -5.64569E-003	  4.13317E-003
  2.86720E+000	 -2.54975E-003	  3.58409E-003	 -1.57641E-003	  1.65951E-003
  3.07200E+000	  1.06619E-003	 -4.14683E-003	  1.69774E-004	  9.22806E-003
  3.27680E+000	  7.71657E-004	 -3.57509E-003	 -2.73967E-003	 -4.90493E-004
  3.68640E+000	 -2.24279E-004	 -2.51623E-003	 -6.32917E-003	  2.30532E-003
  4.09600E+000	 -3.65469E-003	  1.18858E-003	 -9.89003E-004	  2.33674E-003
  4.50560E+000	  2.43663E-003	 -7.87078E-003	 -2.42371E-003	 -3.00894E-003
  4.91520E+000	 -3.17711E-003	 -4.16601E-004	 -2.20961E-003	  1.19938E-003
  5.32480E+000	 -2.70995E-003	 -4.85757E-003	 -3.54937E-004	 -1.79530E-003
  5.73440E+000	  2.52394E-003	 -1.52421E-005	  1.87092E-003	 -8.47627E-004
  6.14400E+000	  7.61338E-003	 -3.60256E-003	  1.92384E-004	  1.49417E-004
  6.55360E+000	  6.34156E-004	 -1.01200E-003	 -2.89049E-003	  1.81622E-003
  7.37280E+000	  7.90184E-004	  8.78978E-004	  2.34635E-003	  3.91818E-003
  8.19200E+000	  2.09732E-003	  1.73568E-003	 -1.21073E-003	 -9.88493E-004
  9.01120E+000	 -3.44806E-003	  1.33170E-003	 -1.52863E-004	 -3.86705E-004
  9.83040E+000	 -1.57368E-003	  2.82597E-003	  1.74393E-003	  8.56132E-004
  1.06496E+001	  4.94945E-004	  1.47960E-003	  1.11757E-003	 -1.43586E-003
  1.14688E+001	  1.36159E-003	  6.73873E-004	  6.23961E-004	  3.85037E-004
  1.22880E+001	 -5.20518E-004	 -7.98163E-004	  1.18795E-003	 -6.81647E-004
  1.31072E+001	 -7.42950E-004	 -1.07376E-003	  1.08161E-003	  6.39867E-004
  1.47456E+001	 -4.52284E-004	  3.35039E-003	 -1.60015E-004	  1.14982E-003
  1.63840E+001	  1.70892E-003	  2.30580E-003	  8.16479E-004	  1.07380E-003
  1.80224E+001	 -7.98166E-004	  1.37691E-003	  6.16517E-004	  8.34626E-004
  1.96608E+001	 -1.12201E-003	 -1.72779E-003	 -6.04677E-004	  3.59652E-003
  2.12992E+001	 -9.08918E-004	 -1.99475E-003	 -4.15505E-003	  9.31155E-004
  2.29376E+001	 -3.61859E-004	  1.07893E-003	 -1.56423E-003	  3.17336E-004
  2.45760E+001	  2.30400E-003	  7.36058E-004	  3.45326E-003	  3.80578E-004
  2.62144E+001	  4.72407E-004	 -6.51428E-004	  1.69480E-003	 -6.72138E-004
  2.94912E+001	 -6.29887E-004	  1.36905E-004	 -3.67749E-004	 -1.37182E-003
  3.27680E+001	 -1.11174E-003	 -5.74580E-004	 -2.53062E-003	 -1.95914E-003
  3.60448E+001	 -1.30985E-003	 -1.48530E-003	  1.59454E-003	  9.50195E-004
  3.93216E+001	 -3.02797E-004	  1.27405E-003	  1.21639E-003	 -1.78348E-003
  4.25984E+001	 -2.27814E-004	 -9.76707E-004	 -5.32936E-004	 -1.62678E-003
  4.58752E+001	 -3.10334E-004	  4.48167E-005	  5.71608E-004	 -1.18831E-003
  4.91520E+001	  5.45989E-005	  3.78616E-005	 -4.43831E-004	  6.20823E-005
  5.24288E+001	  6.41569E-005	  5.25738E-005	  2.22072E-004	 -5.86326E-004
  5.89824E+001	  6.69876E-004	 -3.98501E-004	 -1.55914E-003	  1.32061E-004
  6.55360E+001	 -8.84989E-004	  4.25285E-004	  1.19192E-003	  2.45710E-004
  7.20896E+001	 -1.67401E-003	  5.65774E-004	 -1.49941E-003	 -9.55298E-004
  7.86432E+001	  4.97010E-004	 -8.86956E-004	  1.83296E-003	  3.73694E-004
  8.51968E+001	  1.24339E-003	 -2.83857E-004	 -6.62832E-004	  1.79823E-003
  9.17504E+001	  5.94603E-004	 -1.18371E-003	  6.16973E-004	 -7.41645E-004
  9.83040E+001	 -1.03516E-003	 -7.57603E-005	 -1.66833E-003	  1.24296E-004
  1.04858E+002	  3.78337E-004	 -1.99200E-005	  7.96204E-005	  2.56245E-004
  1.17965E+002	 -4.36921E-005	 -3.97306E-005	 -1.91492E-005	 -2.87298E-004
  1.31072E+002	  4.33265E-004	  3.94283E-004	 -5.74966E-004	 -1.05111E-003
  1.44179E+002	 -5.56130E-004	  1.48460E-004	 -9.91293E-004	 -2.01244E-004
  1.57286E+002	 -1.00497E-003	 -4.77720E-004	  1.40897E-004	  4.44327E-005
  1.70394E+002	  8.60574E-004	 -3.11900E-004	  9.05478E-006	  2.97503E-004
  1.83501E+002	 -5.62612E-004	 -1.74843E-004	  2.42612E-004	  2.96161E-005
  1.96608E+002	  7.05046E-004	 -2.20579E-004	  2.43612E-004	  1.89698E-004
  2.09715E+002	  1.07370E-003	  6.63081E-005	 -7.37634E-004	 -3.10738E-004
  2.35930E+002	 -1.92031E-004	 -4.44524E-004	  8.83432E-005	 -6.35858E-004
  2.62144E+002	 -1.16913E-004	 -3.21907E-004	 -2.01384E-004	  3.47893E-004
  2.88358E+002	 -4.61113E-004	 -7.70849E-004	  3.72665E-004	  1.72492E-004
  3.14573E+002	  8.03082E-004	 -7.28270E-004	 -2.15042E-004	 -7.16040E-004
  3.40787E+002	 -9.99702E-005	  2.17147E-004	  9.04066E-004	  8.76784E-004
  3.67002E+002	 -5.82483E-004	  5.10207E-004	  1.21134E-003	  4.96478E-004
  3.93216E+002	 -6.39883E-005	  1.30357E-004	 -1.17748E-003	 -5.51659E-004

"Count Rate"
       0.01311	      52.03247	      54.01611	      53.63464	      54.77905
       0.02621	      48.75183	      59.43298	      56.07605	      55.92346
       0.03932	      53.40576	      49.81995	      54.47388	      55.61829
       0.05243	      53.32947	      55.84717	      54.39758	      46.15784
       0.06554	      52.41394	      56.30493	      54.24500	      48.21777
       0.07864	      51.04065	      58.82263	      52.18506	      53.48206
       0.09175	      51.80359	      53.78723	      51.72729	      50.65918
       0.10486	      54.09241	      58.44116	      57.90710	      55.61829
       0.11796	      52.26135	      55.23682	      55.46570	      49.66736
       0.13107	      55.61829	      59.28040	      56.61011	      53.71094
       0.14418	      60.04333	      60.72998	      55.69458	      60.65369
       0.15729	      50.96436	      60.04333	      53.93982	      51.95618
       0.17039	      55.16052	      60.27222	      59.28040	      53.48206
       0.18350	      47.53113	      55.38940	      54.24500	      54.55017
       0.19661	      55.69458	      56.30493	      56.76270	      52.10876
       0.20972	      56.45752	      56.07605	      58.82263	      53.55835
       0.22282	      53.40576	      53.25317	      56.38123	      56.15234
       0.23593	      50.96436	      52.33765	      56.68640	      53.17688
       0.24904	      57.83081	      53.17688	      62.33215	      58.05969
       0.26214	      51.04065	      56.61011	      52.79541	      54.62646
       0.27525	      47.91260	      56.38123	      47.45483	      55.38940
       0.28836	      52.10876	      58.21228	      52.64282	      52.94800
       0.30147	      57.75452	      56.99158	      56.91528	      55.77087
       0.31457	      51.34583	      53.86353	      50.88806	      53.93982
       0.32768	      54.01611	      57.98340	      58.44116	      56.07605
       0.34079	      55.61829	      53.78723	      53.32947	      58.44116
       0.35389	      50.04883	      54.62646	      54.62646	      52.18506
       0.36700	      52.41394	      56.91528	      53.78723	      47.30225
       0.38011	      53.25317	      55.69458	      51.87988	      47.14966
       0.39322	      49.81995	      53.86353	      55.46570	      49.43848
       0.40632	      48.75183	      55.00793	      62.17957	      56.15234
       0.41943	      60.04333	      53.02429	      62.48474	      59.73816
       0.43254	      56.07605	      56.76270	      52.41394	      54.47388
       0.44564	      56.99158	      53.78723	      50.96436	      55.08423
       0.45875	      51.11694	      53.86353	      59.73816	      47.91260
       0.47186	      59.66187	      50.96436	      55.08423	      50.35400
       0.48497	      48.21777	      54.32129	      54.32129	      53.40576
       0.49807	      53.25317	      64.31580	      57.22046	      61.49292
       0.51118	      56.99158	      63.70544	      57.83081	      54.93164
       0.52429	      54.01611	      53.93982	      58.89893	      53.25317
       0.53740	      48.90442	      61.18774	      58.59375	      52.49023
       0.55050	      57.06787	      50.43030	      60.04333	      56.45752
       0.56361	      54.24500	      54.77905	      59.89075	      56.91528
       0.57672	      53.78723	      57.44934	      55.54199	      50.27771
       0.58982	      52.64282	      57.98340	      58.74634	      56.45752
       0.60293	      50.35400	      56.45752	      58.67004	      58.74634
       0.61604	      54.85535	      55.08423	      54.09241	      58.59375
       0.62915	      50.81177	      56.61011	      54.47388	      54.01611
       0.64225	      62.86621	      63.24768	      57.60193	      55.46570
       0.65536	      55.46570	      62.25586	      55.77087	      54.85535
       0.66847	      60.65369	      55.61829	      58.44116	      52.71912
       0.68157	      50.20142	      58.13599	      52.33765	      52.64282
       0.69468	      52.03247	      60.27222	      54.09241	      52.87170
       0.70779	      50.27771	      60.72998	      54.55017	      56.22864
       0.72090	      57.75452	      56.45752	      55.61829	      50.96436
       0.73400	      57.83081	      52.33765	      50.04883	      53.93982
       0.74711	      54.01611	      51.34583	      65.23132	      55.92346
