ALV-7004/USB-FAST
Date :	"11/11/2025"
Time :	"4:00:12 PM"
Samplename : 	""
SampMemo(0) : 	""
SampMemo(1) : 	""
SampMemo(2) : 	""
SampMemo(3) : 	""
SampMemo(4) : 	""
SampMemo(5) : 	""
SampMemo(6) : 	""
SampMemo(7) : 	""
SampMemo(8) : 	""
SampMemo(9) : 	""
Temperature [K] :	     298.16000
Viscosity [cp]  :	       0.89000
Refractive Index:	       1.33200
Wavelength [nm] :	       0.00000
Angle [°]       :	       0.00000
Duration [s]    :	         1
FloatDur [ms]   :	          944
Stop TP [ms]   :	     68528
Runs            :	         1
Mode            :	"A-CH0+1  A-CH2+3 "
MeanCR0 [kHz]   :	      54.99310
MeanCR1 [kHz]   :	      57.54047
MeanCR2 [kHz]   :	      55.53139
MeanCR3 [kHz]   :	      54.82991

"Correlation"
  3.12500E-006	 -1.00000E+000	 -1.00000E+000	 -1.00000E+000	 -1.00000E+000
  6.25000E-006	 -1.00000E+000	 -1.00000E+000	 -1.00000E+000	 -1.00000E+000
  9.37500E-006	 -1.00000E+000	 -1.00000E+000	 -1.00000E+000	 -1.00000E+000
  1.25000E-005	 -1.00000E+000	 -1.00000E+000	 -1.00000E+000	 -1.00000E+000
  1.56250E-005	 -1.00000E+000	 -1.00000E+000	 -1.00000E+000	 -1.00000E+000
  1.87500E-005	 -1.00000E+000	 -1.00000E+000	 -1.00000E+000	 -1.00000E+000
  2.18750E-005	 -1.00000E+000	  1.26558E-001	  9.79260E-001	 -8.87210E-001
  2.50000E-005	  1.27910E+001	  1.32356E+001	  1.07656E+001	  2.27988E+001
  2.81250E-005	  3.37276E+000	  1.25312E+000	  1.63901E+000	  8.69998E+000
  3.12500E-005	  1.46669E+000	  7.41044E-001	  2.09548E-001	  5.99301E+000
  3.43750E-005	  1.69093E+000	  1.45794E+000	  1.19918E+000	  2.72209E+000
  3.75000E-005	  6.81831E-001	  7.41044E-001	  8.69301E-001	  2.72209E+000
  4.06250E-005	  1.69093E+000	  1.15070E+000	  1.08922E+000	  4.18836E+000
  4.37500E-005	  1.46669E+000	  4.33801E-001	  1.08922E+000	  1.81976E+000
  4.68750E-005	  5.69709E-001	  4.33801E-001	  7.59342E-001	  1.48139E+000
  5.00000E-005	  1.07426E+000	  8.43458E-001	  5.39424E-001	  2.32732E+000
  5.62500E-005	  1.52275E+000	  8.43458E-001	  9.24281E-001	  2.04534E+000
  6.25000E-005	  6.81831E-001	  9.45872E-001	  9.24281E-001	  1.36860E+000
  6.87500E-005	  6.25770E-001	  7.41044E-001	  7.59342E-001	  1.76337E+000
  7.50000E-005	  9.06075E-001	  6.89836E-001	  1.08922E+000	  1.31220E+000
  8.12500E-005	  7.37892E-001	  8.94665E-001	  3.19507E-001	  1.25581E+000
  8.75000E-005	  4.01526E-001	  1.15070E+000	  9.79260E-001	  8.04647E-001
  9.37500E-005	  1.13032E+000	  8.43458E-001	  4.29466E-001	  9.17438E-001
  1.00000E-004	  5.69709E-001	  8.43458E-001	  4.29465E-001	  1.19941E+000
  1.12500E-004	  6.81831E-001	  4.85008E-001	  1.82058E-001	  1.19941E+000
  1.25000E-004	  4.29556E-001	  5.61818E-001	  2.64527E-001	  1.14302E+000
  1.37500E-004	  3.73495E-001	  2.28972E-001	  5.66914E-001	  5.50869E-001
  1.50000E-004	  9.31901E-002	  6.89836E-001	  6.49383E-001	  4.66276E-001
  1.62500E-004	  8.21983E-001	  5.36215E-001	  5.11935E-001	  2.68893E-001
  1.75000E-004	  4.01526E-001	  5.10611E-001	  8.14321E-001	  3.81683E-001
  1.87500E-004	  1.77282E-001	  8.43458E-001	  4.84445E-001	  7.48252E-001
  2.00000E-004	  4.29556E-001	  5.49016E-001	  4.43210E-001	  8.89240E-001
  2.25000E-004	  5.27663E-001	  5.49016E-001	  7.04362E-001	  7.62350E-001
  2.50000E-004	  6.11754E-001	  7.41043E-001	  7.45597E-001	  5.08572E-001
  2.75000E-004	  5.27663E-001	  2.80179E-001	  5.25679E-001	  5.08572E-001
  3.00000E-004	  5.83724E-001	  3.05782E-001	  5.80658E-001	  5.50868E-001
  3.25000E-004	  8.21983E-001	  4.59404E-001	  5.94403E-001	  6.07264E-001
  3.50000E-004	  5.83724E-001	  6.89836E-001	  6.76872E-001	  7.48252E-001
  3.75000E-004	  4.29556E-001	  4.33800E-001	  4.43210E-001	  7.90548E-001
  4.00000E-004	  2.54365E-001	  4.97808E-001	  2.71399E-001	  6.49559E-001
  4.50000E-004	  5.34670E-001	  4.46601E-001	  5.05061E-001	  5.57917E-001
  5.00000E-004	  3.73494E-001	  3.24984E-001	  3.46995E-001	  5.50868E-001
  5.50000E-004	  4.50578E-001	  5.23412E-001	  3.40123E-001	  4.66275E-001
  6.00000E-004	  4.78609E-001	  4.14597E-001	  3.88230E-001	  5.43818E-001
  6.50000E-004	  5.41677E-001	  4.08196E-001	  5.73785E-001	  5.64966E-001
  7.00000E-004	  4.22548E-001	  5.81020E-001	  4.84444E-001	  6.28411E-001
  7.50000E-004	  4.43571E-001	  6.70632E-001	  5.25678E-001	  4.23978E-001
  8.00000E-004	  4.01524E-001	  4.81805E-001	  5.73784E-001	  4.83897E-001
  9.00000E-004	  4.85615E-001	  4.01794E-001	  5.66912E-001	  3.78156E-001
  1.00000E-003	  4.82111E-001	  5.29812E-001	  4.32899E-001	  4.38076E-001
  1.10000E-003	  6.32775E-001	  4.65803E-001	  4.50081E-001	  4.48650E-001
  1.20000E-003	  3.87508E-001	  4.65803E-001	  4.81006E-001	  4.34551E-001
  1.30000E-003	  4.15539E-001	  4.97807E-001	  3.81356E-001	  5.01521E-001
  1.40000E-003	  4.71600E-001	  5.26611E-001	  4.15718E-001	  4.31027E-001
  1.50000E-003	  3.62982E-001	  4.97807E-001	  5.73784E-001	  3.92255E-001
  1.60000E-003	  3.64731E-001	  4.11393E-001	  4.65541E-001	  4.06351E-001
  1.80000E-003	  4.43567E-001	  4.62600E-001	  5.22238E-001	  4.55697E-001
  2.00000E-003	  4.31304E-001	  4.57799E-001	  3.55582E-001	  5.42082E-001
  2.20000E-003	  4.45319E-001	  4.73801E-001	  4.93031E-001	  3.94042E-001
  2.40000E-003	  5.20651E-001	  5.04205E-001	  5.27393E-001	  4.69824E-001
  2.60000E-003	  4.66342E-001	  3.96991E-001	  4.56950E-001	  5.12121E-001
  2.80000E-003	  4.54078E-001	  3.93790E-001	  4.87876E-001	  5.20933E-001
  3.00000E-003	  3.66483E-001	  3.77788E-001	  3.74482E-001	  5.08597E-001
  3.20000E-003	  4.46190E-001	  3.83384E-001	  4.52650E-001	  4.47790E-001
  3.60000E-003	  3.97137E-001	  4.53794E-001	  4.19147E-001	  4.34572E-001
  4.00000E-003	  3.96261E-001	  4.12188E-001	  4.63818E-001	  4.63651E-001
  4.40000E-003	  4.48818E-001	  4.19389E-001	  4.07121E-001	  4.60126E-001
  4.80000E-003	  3.90129E-001	  4.19389E-001	  4.06262E-001	  4.21354E-001
  5.20000E-003	  4.02392E-001	  4.31391E-001	  4.16570E-001	  3.66720E-001
  5.60000E-003	  3.76990E-001	  4.28990E-001	  3.65027E-001	  4.44265E-001
  6.00000E-003	  4.20787E-001	  3.72183E-001	  3.58181E-001	  4.28403E-001
  6.40000E-003	  4.00631E-001	  4.06178E-001	  4.14897E-001	  4.07245E-001
  7.20000E-003	  3.79171E-001	  4.12979E-001	  4.44535E-001	  4.19141E-001
  8.00000E-003	  3.70411E-001	  4.09778E-001	  3.54761E-001	  4.31919E-001
  8.80000E-003	  3.97565E-001	  3.81400E-001	  3.86118E-001	  3.87859E-001
  9.60000E-003	  3.66907E-001	  4.01003E-001	  4.00722E-001	  4.44255E-001
  1.04000E-002	  3.65182E-001	  4.02603E-001	  3.69795E-001	  4.12092E-001
  1.12000E-002	  3.40217E-001	  3.98202E-001	  4.05017E-001	  3.95350E-001
  1.20000E-002	  3.35399E-001	  3.74224E-001	  3.68936E-001	  4.13854E-001
  1.28000E-002	  3.39130E-001	  3.89233E-001	  3.73454E-001	  3.89850E-001
  1.44000E-002	  3.42852E-001	  3.79432E-001	  3.49614E-001	  3.76412E-001
  1.60000E-002	  3.68693E-001	  3.27623E-001	  3.96649E-001	  3.60771E-001
  1.76000E-002	  3.18763E-001	  3.69830E-001	  3.55843E-001	  3.65397E-001
  1.92000E-002	  3.25771E-001	  3.46026E-001	  3.52381E-001	  3.72447E-001
  2.08000E-002	  2.99711E-001	  3.41826E-001	  3.05562E-001	  3.62974E-001
  2.24000E-002	  2.78688E-001	  3.16821E-001	  3.27253E-001	  3.32353E-001
  2.40000E-002	  2.87667E-001	  3.22222E-001	  3.27682E-001	  3.17152E-001
  2.56000E-002	  2.86452E-001	  3.15510E-001	  2.97919E-001	  3.15490E-001
  2.88000E-002	  2.84372E-001	  2.91482E-001	  3.07072E-001	  3.16422E-001
  3.20000E-002	  2.97402E-001	  2.96183E-001	  2.78208E-001	  2.95909E-001
  3.52000E-002	  2.65648E-001	  2.70579E-001	  2.85535E-001	  2.91197E-001
  3.84000E-002	  2.44163E-001	  2.61278E-001	  2.72862E-001	  2.75996E-001
  4.16000E-002	  2.46572E-001	  2.49276E-001	  2.71788E-001	  2.59474E-001
  4.48000E-002	  2.27849E-001	  2.43475E-001	  2.47385E-001	  2.42841E-001
  4.80000E-002	  2.13615E-001	  2.21772E-001	  2.28185E-001	  2.42841E-001
  5.12000E-002	  2.11319E-001	  2.25929E-001	  2.31928E-001	  2.35551E-001
  5.76000E-002	  1.91498E-001	  1.96176E-001	  2.17166E-001	  2.15119E-001
  6.40000E-002	  1.60945E-001	  1.86925E-001	  1.95816E-001	  1.79595E-001
  7.04000E-002	  1.74196E-001	  1.65923E-001	  1.70315E-001	  1.80885E-001
  7.68000E-002	  1.40906E-001	  1.67373E-001	  1.67684E-001	  1.64825E-001
  8.32000E-002	  1.41563E-001	  1.54400E-001	  1.59275E-001	  1.54889E-001
  8.96000E-002	  1.21523E-001	  1.19347E-001	  1.55592E-001	  1.31371E-001
  9.60000E-002	  1.29210E-001	  1.26798E-001	  1.40587E-001	  1.26580E-001
  1.02400E-001	  1.11214E-001	  1.17948E-001	  1.33259E-001	  1.18590E-001
  1.15200E-001	  9.26688E-002	  1.12017E-001	  1.14787E-001	  1.13649E-001
  1.28000E-001	  8.35693E-002	  9.47632E-002	  1.08604E-001	  9.12860E-002
  1.40800E-001	  6.76391E-002	  7.88347E-002	  9.13891E-002	  7.91281E-002
  1.53600E-001	  6.65507E-002	  6.70715E-002	  7.54424E-002	  7.91423E-002
  1.66400E-001	  6.09514E-002	  5.98392E-002	  7.00034E-002	  6.38205E-002
  1.79200E-001	  5.69194E-002	  5.17370E-002	  4.41017E-002	  6.29666E-002
  1.92000E-001	  4.35919E-002	  4.48658E-002	  5.04662E-002	  4.52202E-002
  2.04800E-001	  3.55674E-002	  4.09815E-002	  3.48872E-002	  5.08965E-002
  2.30400E-001	  3.15075E-002	  3.14310E-002	  3.30206E-002	  4.14673E-002
  2.56000E-001	  2.41868E-002	  2.40277E-002	  2.71326E-002	  3.21961E-002
  2.81600E-001	  2.25922E-002	  3.38010E-002	  2.54674E-002	  3.58175E-002
  3.07200E-001	  1.57957E-002	  3.08182E-002	  1.69999E-002	  2.68792E-002
  3.32800E-001	  1.07577E-002	  2.28526E-002	  1.15671E-002	  2.07909E-002
  3.58400E-001	  1.06888E-003	  1.63685E-002	  8.08308E-003	  1.63556E-002
  3.84000E-001	  1.17969E-002	  1.25417E-002	  8.71601E-003	  2.40141E-002
  4.09600E-001	  7.92797E-003	  1.29395E-002	  6.24612E-003	  1.72081E-002
  4.60800E-001	  3.53006E-003	  1.05864E-002	  4.14897E-003	  9.28266E-003
  5.12000E-001	  5.42421E-003	  5.66204E-003	  3.46841E-003	  1.34844E-002
  5.63200E-001	  1.12719E-002	 -8.09180E-003	  3.43283E-003	  1.30825E-002
  6.14400E-001	  8.64558E-003	 -7.00441E-003	  5.24987E-003	  7.84901E-003
  6.65600E-001	 -4.82072E-003	 -1.06484E-002	  7.22793E-003	  3.85324E-003
  7.16800E-001	 -8.21813E-003	 -7.07856E-003	  6.87279E-003	 -3.66969E-003
  7.68000E-001	  8.41491E-004	 -5.91109E-003	  1.12018E-002	 -2.96942E-003
  8.19200E-001	  2.74847E-003	 -1.42564E-003	  6.45626E-003	  3.05793E-003
  9.21600E-001	  1.29993E-003	  3.40435E-003	  6.00026E-003	  3.77947E-003
  1.02400E+000	 -8.09647E-004	 -9.99772E-004	  6.97199E-004	  1.49022E-003
  1.12640E+000	 -3.70132E-003	 -6.38785E-003	  5.44320E-003	  5.15947E-003
  1.22880E+000	 -4.33248E-003	 -6.14135E-003	  3.86903E-003	  9.28422E-004
  1.33120E+000	 -8.56735E-003	 -4.59079E-003	  3.22893E-003	  3.26682E-003
  1.43360E+000	 -3.02792E-004	 -1.56702E-004	  1.01262E-002	 -1.78483E-003
  1.53600E+000	 -3.49251E-003	 -3.97017E-003	  1.33005E-002	 -1.41482E-003
  1.63840E+000	 -1.44060E-003	  1.01323E-003	  4.12935E-003	 -5.71448E-004
  1.84320E+000	  7.38773E-003	  6.90432E-003	 -4.91338E-003	 -2.39415E-003
  2.04800E+000	  4.29935E-003	  3.67988E-003	  1.64958E-003	 -4.12439E-003
  2.25280E+000	  3.14604E-003	  6.77877E-003	  1.34792E-003	 -2.55069E-003
  2.45760E+000	  3.03819E-003	  9.60259E-003	 -1.25457E-003	 -2.33092E-003
  2.66240E+000	 -9.50696E-004	  4.33891E-003	 -5.08634E-003	  9.19783E-003
  2.86720E+000	  1.01779E-003	 -1.67531E-003	  1.84919E-003	  3.66016E-003
  3.07200E+000	 -4.16471E-003	 -1.33173E-003	 -9.09435E-004	 -1.39703E-003
  3.27680E+000	 -2.21635E-003	 -4.83354E-003	  7.31937E-004	  6.35015E-005
  3.68640E+000	  4.11773E-004	 -2.23983E-003	 -4.31971E-004	  1.97576E-003
  4.09600E+000	 -5.06469E-003	 -3.99183E-004	  3.60404E-003	  2.94650E-003
  4.50560E+000	 -2.38540E-003	 -2.11297E-003	  8.90652E-003	  3.41706E-003
  4.91520E+000	 -2.60512E-003	 -3.62161E-003	  2.56387E-003	 -1.82176E-003
  5.32480E+000	  2.11862E-003	  5.90494E-004	 -1.89322E-003	 -2.36218E-003
  5.73440E+000	  2.56996E-003	  1.46262E-003	 -4.44845E-003	 -1.17974E-003
  6.14400E+000	  8.05019E-003	  2.42608E-003	  5.30685E-003	 -4.78242E-003
  6.55360E+000	  2.38605E-003	  3.93191E-003	 -2.56218E-003	 -1.02053E-003
  7.37280E+000	  3.84638E-004	 -2.05532E-003	 -5.53497E-003	  3.29426E-003
  8.19200E+000	 -1.59503E-003	  1.15860E-003	  6.85531E-004	 -2.68689E-003
  9.01120E+000	  1.60676E-003	  4.90115E-003	  3.49076E-003	 -5.48097E-004
  9.83040E+000	  1.07339E-004	  2.14079E-003	  3.06039E-003	 -2.49200E-003
  1.06496E+001	  1.62724E-003	 -4.22692E-004	  1.34110E-003	  5.50015E-003
  1.14688E+001	  1.22943E-003	 -2.17687E-003	 -6.03767E-003	  2.14020E-003
  1.22880E+001	  3.67724E-003	  4.14510E-003	 -2.44150E-003	  8.45386E-004
  1.31072E+001	  3.47371E-003	  2.22510E-003	 -2.05473E-003	 -2.56238E-003
  1.47456E+001	 -2.05599E-003	 -4.97683E-004	 -2.38592E-003	 -7.88129E-004
  1.63840E+001	  9.97559E-004	  3.80607E-003	 -5.92159E-003	 -2.71992E-003
  1.80224E+001	  3.67582E-003	 -1.74211E-003	  1.16707E-003	 -3.69245E-003
  1.96608E+001	 -4.75904E-003	 -1.41438E-003	  1.18166E-003	 -2.04846E-003
  2.12992E+001	 -3.35249E-004	  1.63561E-003	  7.44543E-004	 -2.78281E-003
  2.29376E+001	  1.69460E-003	  3.54881E-003	 -1.13945E-003	  5.42043E-005
  2.45760E+001	  5.00124E-004	  5.88332E-004	  1.21313E-004	  8.81973E-004
  2.62144E+001	  5.62236E-005	  4.80695E-003	 -2.15252E-003	  2.09993E-003
  2.94912E+001	  5.05821E-004	  1.07559E-003	  1.89491E-004	 -4.92415E-004
  3.27680E+001	 -7.53785E-004	  6.57745E-004	 -1.19672E-003	 -1.21246E-003
  3.60448E+001	  4.47276E-004	  1.82588E-003	  8.59869E-004	 -1.48740E-004
  3.93216E+001	 -1.08691E-003	 -3.28165E-004	 -1.06827E-003	  3.32209E-005
  4.25984E+001	 -3.09865E-003	 -1.27913E-003	 -3.53786E-003	  7.62037E-004
  4.58752E+001	 -2.22109E-003	  2.12509E-003	 -1.96521E-003	  6.24553E-004
  4.91520E+001	 -2.35853E-003	 -6.20194E-004	 -1.25043E-004	 -8.43064E-004
  5.24288E+001	 -1.35200E-003	 -1.51041E-003	  2.86530E-003	 -7.04545E-004
  5.89824E+001	  1.06951E-003	  2.60376E-004	  7.55167E-004	 -2.41391E-003
  6.55360E+001	  2.70151E-004	 -3.21098E-004	 -1.36251E-003	 -1.28838E-003
  7.20896E+001	  1.65261E-003	 -1.63308E-003	  2.71119E-003	  3.36624E-003
  7.86432E+001	 -2.13205E-004	 -1.03541E-003	  1.51219E-004	 -7.67042E-004
  8.51968E+001	  1.88156E-003	  8.89170E-004	  1.31962E-004	  1.84152E-003
  9.17504E+001	 -4.84367E-004	 -1.57756E-003	 -3.18067E-003	 -3.49338E-003
  9.83040E+001	  3.72670E-004	 -1.62460E-003	 -1.10588E-003	  2.51769E-003
  1.04858E+002	  5.86858E-004	 -5.14977E-004	 -1.87044E-004	  9.30508E-004
  1.17965E+002	 -5.93511E-004	  9.89254E-005	 -1.25745E-004	  1.10449E-003
  1.31072E+002	  6.83497E-004	  2.40819E-005	 -2.23079E-003	 -1.40744E-003
  1.44179E+002	  5.69686E-005	 -6.55428E-004	  1.36184E-003	 -2.28800E-004
  1.57286E+002	 -1.05241E-003	  5.77135E-004	 -1.83362E-003	 -1.02595E-003
  1.70394E+002	 -1.45779E-003	 -4.96343E-004	  1.19333E-003	  1.11579E-004
  1.83501E+002	 -1.48421E-003	  6.80225E-004	 -4.50050E-004	  1.06284E-003
  1.96608E+002	  2.08357E-004	  6.37994E-004	 -1.57772E-004	  1.08172E-004
  2.09715E+002	 -8.03763E-004	  4.97741E-004	 -2.23493E-004	 -3.21980E-004
  2.35930E+002	  8.43661E-005	 -6.98340E-004	  2.94643E-004	  3.62235E-004
  2.62144E+002	 -2.37086E-004	 -1.68218E-003	 -2.18817E-004	 -4.93700E-004
  2.88358E+002	 -1.65959E-004	 -2.17629E-003	  1.29022E-003	 -7.26807E-004
  3.14573E+002	  5.46332E-004	 -8.38610E-004	 -4.76325E-004	 -9.88001E-004
  3.40787E+002	  2.35050E-003	 -2.14101E-003	  4.53070E-004	 -5.83160E-005
  3.67002E+002	 -1.03229E-003	  1.72652E-004	 -2.67263E-004	  1.52181E-004
  3.93216E+002	  7.72058E-005	  6.55887E-004	 -2.48418E-004	  3.79312E-004

"Count Rate"
       0.01311	      55.99976	      54.39758	      59.05151	      46.08154
       0.02621	      54.01611	      54.77905	      59.81445	      52.94800
       0.03932	      51.95618	      65.38391	      55.84717	      51.04065
       0.05243	      52.03247	      50.04883	      59.58557	      50.50659
       0.06554	      50.27771	      69.58008	      50.88806	      52.87170
       0.07864	      51.11694	      54.39758	      45.54749	      57.67822
       0.09175	      51.42212	      71.18225	      46.00525	      55.23682
       0.10486	      49.89624	      54.93164	      62.02698	      53.25317
       0.11796	      58.13599	      58.74634	      58.82263	      46.38672
       0.13107	      58.44116	      57.29675	      51.49841	      59.66187
       0.14418	      54.85535	      60.88257	      50.58289	      52.79541
       0.15729	      54.55017	      51.95618	      57.75452	      54.16870
       0.17039	      51.65100	      60.19592	      63.70544	      57.83081
       0.18350	      52.49023	      52.26135	      60.80627	      60.42480
       0.19661	      60.50110	      56.07605	      53.93982	      51.42212
       0.20972	      67.59644	      49.59106	      49.05701	      61.26404
       0.22282	      55.00793	      65.15503	      51.11694	      52.03247
       0.23593	      53.02429	      56.91528	      52.71912	      48.52295
       0.24904	      55.00793	      52.26135	      59.28040	      53.25317
       0.26214	      50.58289	      50.81177	      53.71094	      51.19324
       0.27525	      61.56921	      50.81177	      58.51746	      55.99976
       0.28836	      52.56653	      55.69458	      52.94800	      53.63464
       0.30147	      49.13330	      52.26135	      51.80359	      52.71912
       0.31457	      62.10327	      57.29675	      50.58289	      56.83899
       0.32768	      53.17688	      50.73547	      60.95886	      57.14417
       0.34079	      62.48474	      53.78723	      55.16052	      51.42212
       0.35389	      55.77087	      58.89893	      60.80627	      57.60193
       0.36700	      51.49841	      58.74634	      48.75183	      55.77087
       0.38011	      50.20142	      56.07605	      49.13330	      55.23682
       0.39322	      47.83630	      63.40027	      60.50110	      59.66187
       0.40632	      47.60742	      51.80359	      51.57471	      43.71643
       0.41943	      48.75183	      56.15234	      51.72729	      46.46301
       0.43254	      55.00793	      53.10059	      55.00793	      49.81995
       0.44564	      57.90710	      51.19324	      62.17957	      53.40576
       0.45875	      52.56653	      50.50659	      55.00793	      50.27771
       0.47186	      58.59375	      56.53381	      62.78992	      60.80627
       0.48497	      56.15234	      51.65100	      43.64014	      48.82813
       0.49807	      48.06519	      62.94250	      68.89343	      46.08154
       0.51118	      52.71912	      58.44116	      54.93164	      51.95618
       0.52429	      52.94800	      53.10059	      54.39758	      48.90442
       0.53740	      64.84985	      63.40027	      51.19324	      51.42212
       0.55050	      58.13599	      66.90979	      61.87439	      61.49292
       0.56361	      54.77905	      63.24768	      49.43848	      62.56104
       0.57672	      55.69458	      61.18774	      55.99976	      50.43030
       0.58982	      48.52295	      64.23950	      49.36218	      54.62646
       0.60293	      56.30493	      59.66187	      42.41943	      50.96436
       0.61604	      64.01062	      54.93164	      54.55017	      54.70276
       0.62915	      60.50110	      56.91528	      55.23682	      56.53381
       0.64225	      50.96436	      53.63464	      53.93982	      46.76819
       0.65536	      51.95618	      61.18774	      45.70007	      55.99976
       0.66847	      55.38940	      54.70276	      54.85535	      61.56921
       0.68157	      57.98340	      57.29675	      59.12781	      54.93164
       0.69468	      50.50659	      50.88806	      55.23682	      59.96704
       0.70779	      50.81177	      54.16870	      51.80359	      51.57471
       0.72090	      55.00793	      54.93164	      55.69458	      56.45752
       0.73400	      48.90442	      52.41394	      55.99976	      54.93164
       0.74711	      54.39758	      60.95886	      50.58289	      51.87988
