ALV-7004/USB-FAST
Date :	"11/11/2025"
Time :	"3:59:45 PM"
Samplename : 	""
SampMemo(0) : 	""
SampMemo(1) : 	""
SampMemo(2) : 	""
SampMemo(3) : 	""
SampMemo(4) : 	""
SampMemo(5) : 	""
SampMemo(6) : 	""
SampMemo(7) : 	""
SampMemo(8) : 	""
SampMemo(9) : 	""
Temperature [K] :	     298.16000
Viscosity [cp]  :	       0.89000
Refractive Index:	       1.33200
Wavelength [nm] :	       0.00000
Angle [°]       :	       0.00000
Duration [s]    :	         1
FloatDur [ms]   :	          944
Stop TP [ms]   :	     68413
Runs            :	         1
Mode            :	"A-CH0+1  A-CH2+3 "
MeanCR0 [kHz]   :	      56.92588
MeanCR1 [kHz]   :	      58.02579
MeanCR2 [kHz]   :	      58.25573
MeanCR3 [kHz]   :	      57.05727

"Correlation"
  3.12500E-006	 -1.00000E+000	 -1.00000E+000	 -1.00000E+000	 -1.00000E+000
  6.25000E-006	 -1.00000E+000	 -1.00000E+000	 -1.00000E+000	 -1.00000E+000
  9.37500E-006	 -1.00000E+000	 -1.00000E+000	 -1.00000E+000	 -1.00000E+000
  1.25000E-005	 -1.00000E+000	 -1.00000E+000	 -1.00000E+000	 -1.00000E+000
  1.56250E-005	 -1.00000E+000	 -1.00000E+000	 -1.00000E+000	 -1.00000E+000
  1.87500E-005	 -1.00000E+000	 -1.00000E+000	 -1.00000E+000	 -1.00000E+000
  2.18750E-005	 -7.90725E-001	  2.08500E-001	  4.98724E-001	 -5.83383E-001
  2.50000E-005	  1.06148E+001	  1.38041E+001	  1.21888E+001	  2.52469E+001
  2.81250E-005	  4.33652E+000	  3.02833E+000	  1.99745E+000	  8.79051E+000
  3.12500E-005	  1.19739E+000	  2.08500E-001	  1.99745E+000	  4.41603E+000
  3.43750E-005	  7.78840E-001	  1.41700E+000	  1.09821E+000	  5.97834E+000
  3.75000E-005	  6.74203E-001	  3.09209E-001	  1.39796E+000	  2.74956E+000
  4.06250E-005	  1.09275E+000	  8.12750E-001	  1.19813E+000	  3.06202E+000
  4.37500E-005	  9.88116E-001	  1.01417E+000	  1.19813E+000	  2.95787E+000
  4.68750E-005	  3.60290E-001	  1.01417E+000	  2.98894E-001	  2.22878E+000
  5.00000E-005	  7.78840E-001	  9.63813E-001	  3.48851E-001	  2.54125E+000
  5.62500E-005	  1.14507E+000	  9.13459E-001	  1.14817E+000	  2.33294E+000
  6.25000E-005	  5.69565E-001	  1.36665E+000	  3.48851E-001	  1.23932E+000
  6.87500E-005	  6.21884E-001	  4.60271E-001	  2.98894E-001	  1.34347E+000
  7.50000E-005	  7.26521E-001	  9.63813E-001	  7.98468E-001	  1.49970E+000
  8.12500E-005	  8.83478E-001	  4.09917E-001	  4.98724E-001	  1.39555E+000
  8.75000E-005	  9.35797E-001	  5.60979E-001	  1.09821E+000	  7.70624E-001
  9.37500E-005	  1.14507E+000	  4.09917E-001	  7.98468E-001	  1.18724E+000
  1.00000E-004	  5.17246E-001	  6.36510E-001	  2.23957E-001	  1.49970E+000
  1.12500E-004	  7.00362E-001	  6.11333E-001	  2.98894E-001	  9.00817E-001
  1.25000E-004	  3.34130E-001	  6.36510E-001	  4.73745E-001	  7.96662E-001
  1.37500E-004	  5.95724E-001	  6.11333E-001	  4.73745E-001	  4.32122E-001
  1.50000E-004	  2.81811E-001	  3.34385E-001	  3.73830E-001	  7.18547E-001
  1.62500E-004	  5.69565E-001	  4.60271E-001	  1.98979E-001	  3.80045E-001
  1.75000E-004	  4.12608E-001	  5.86156E-001	  4.23787E-001	  5.36276E-001
  1.87500E-004	  4.12608E-001	  7.37219E-001	  5.98638E-001	  9.52894E-001
  2.00000E-004	  4.12608E-001	  4.09916E-001	  4.48766E-001	  5.75334E-001
  2.25000E-004	  5.43405E-001	  5.35802E-001	  4.73744E-001	  3.93064E-001
  2.50000E-004	  3.47209E-001	  5.23213E-001	  6.98553E-001	  4.32122E-001
  2.75000E-004	  6.74202E-001	  5.73567E-001	  3.86319E-001	  3.54006E-001
  3.00000E-004	  5.43405E-001	  5.35802E-001	  5.23702E-001	  5.62315E-001
  3.25000E-004	  3.86449E-001	  5.73567E-001	  4.11298E-001	  6.66469E-001
  3.50000E-004	  2.68731E-001	  3.34385E-001	  5.11212E-001	  4.06083E-001
  3.75000E-004	  3.34130E-001	  1.70734E-001	  3.98808E-001	  7.83643E-001
  4.00000E-004	  4.25687E-001	  4.09916E-001	  4.23786E-001	  4.38631E-001
  4.50000E-004	  5.89183E-001	  4.98036E-001	  2.61425E-001	  5.16747E-001
  5.00000E-004	  6.48042E-001	  4.22504E-001	  5.11212E-001	  4.45140E-001
  5.50000E-004	  5.56484E-001	  5.73567E-001	  4.55010E-001	  6.53449E-001
  6.00000E-004	  4.91086E-001	  5.60978E-001	  6.98552E-001	  5.55804E-001
  6.50000E-004	  4.91086E-001	  6.17627E-001	  5.17456E-001	  5.81843E-001
  7.00000E-004	  4.97625E-001	  5.79861E-001	  4.42520E-001	  3.60515E-001
  7.50000E-004	  4.78006E-001	  3.40679E-001	  4.73744E-001	  4.84198E-001
  8.00000E-004	  4.81274E-001	  4.03620E-001	  5.36189E-001	  4.80970E-001
  9.00000E-004	  6.15341E-001	  4.72857E-001	  5.23700E-001	  5.49322E-001
  1.00000E-003	  4.35496E-001	  3.87885E-001	  5.17455E-001	  3.96343E-001
  1.10000E-003	  4.68195E-001	  4.03620E-001	  4.86232E-001	  5.49293E-001
  1.20000E-003	  3.73367E-001	  5.32653E-001	  4.39397E-001	  5.20000E-001
  1.30000E-003	  4.68195E-001	  4.79152E-001	  4.67498E-001	  5.26510E-001
  1.40000E-003	  3.57017E-001	  5.01181E-001	  4.45641E-001	  5.20000E-001
  1.50000E-003	  4.15876E-001	  4.25650E-001	  3.73828E-001	  4.48394E-001
  1.60000E-003	  4.94352E-001	  4.60266E-001	  4.53445E-001	  5.11889E-001
  1.80000E-003	  4.35493E-001	  4.25648E-001	  4.40956E-001	  3.75184E-001
  2.00000E-003	  3.40666E-001	  4.72855E-001	  4.05049E-001	  4.02850E-001
  2.20000E-003	  3.88079E-001	  4.85443E-001	  5.23697E-001	  3.81694E-001
  2.40000E-003	  3.76635E-001	  3.87882E-001	  4.81546E-001	  4.01223E-001
  2.60000E-003	  3.58675E-001	  3.61132E-001	  3.14501E-001	  4.63065E-001
  2.80000E-003	  4.12630E-001	  5.04326E-001	  4.95596E-001	  4.15843E-001
  3.00000E-003	  3.73390E-001	  4.06765E-001	  3.81631E-001	  4.53274E-001
  3.20000E-003	  3.99571E-001	  3.68995E-001	  4.44854E-001	  4.39463E-001
  3.60000E-003	  3.30083E-001	  3.86304E-001	  3.76943E-001	  4.45159E-001
  4.00000E-003	  4.61702E-001	  3.49326E-001	  4.31584E-001	  4.26443E-001
  4.40000E-003	  3.82404E-001	  3.84731E-001	  3.91774E-001	  3.96336E-001
  4.80000E-003	  3.88126E-001	  3.91812E-001	  4.15192E-001	  3.93081E-001
  5.20000E-003	  4.48622E-001	  4.23283E-001	  3.64454E-001	  4.31326E-001
  5.60000E-003	  3.53791E-001	  3.76076E-001	  3.69918E-001	  4.42718E-001
  6.00000E-003	  4.05294E-001	  3.23362E-001	  3.93335E-001	  4.28858E-001
  6.40000E-003	  3.66913E-001	  3.42653E-001	  3.66786E-001	  3.67465E-001
  7.20000E-003	  3.41953E-001	  4.00482E-001	  3.72641E-001	  4.57382E-001
  8.00000E-003	  4.01223E-001	  3.54455E-001	  4.17914E-001	  3.80485E-001
  8.80000E-003	  3.76289E-001	  3.99302E-001	  3.91765E-001	  4.18323E-001
  9.60000E-003	  3.74245E-001	  3.87500E-001	  3.35954E-001	  4.09779E-001
  1.04000E-002	  3.32960E-001	  3.68617E-001	  3.78105E-001	  4.11813E-001
  1.12000E-002	  3.57077E-001	  3.97335E-001	  4.22988E-001	  3.07249E-001
  1.20000E-002	  3.37866E-001	  3.90647E-001	  3.71079E-001	  4.00828E-001
  1.28000E-002	  3.71825E-001	  3.90115E-001	  3.73818E-001	  3.58521E-001
  1.44000E-002	  3.23182E-001	  3.38578E-001	  3.81233E-001	  3.67446E-001
  1.60000E-002	  3.42573E-001	  3.51757E-001	  3.60938E-001	  3.47129E-001
  1.76000E-002	  3.38077E-001	  3.39561E-001	  3.57621E-001	  3.47536E-001
  1.92000E-002	  3.26836E-001	  3.30513E-001	  3.59767E-001	  3.30065E-001
  2.08000E-002	  3.07191E-001	  3.04745E-001	  3.37131E-001	  3.51629E-001
  2.24000E-002	  3.05556E-001	  2.96286E-001	  3.67378E-001	  3.00974E-001
  2.40000E-002	  3.08850E-001	  3.14383E-001	  3.47864E-001	  3.01177E-001
  2.56000E-002	  2.88551E-001	  3.02295E-001	  3.22603E-001	  3.19370E-001
  2.88000E-002	  2.96523E-001	  3.02023E-001	  3.07771E-001	  2.92209E-001
  3.20000E-002	  2.93048E-001	  2.81072E-001	  3.15773E-001	  2.99761E-001
  3.52000E-002	  2.80887E-001	  2.93419E-001	  2.79082E-001	  3.00066E-001
  3.84000E-002	  2.61470E-001	  2.56337E-001	  2.68716E-001	  2.81247E-001
  4.16000E-002	  2.53885E-001	  2.53977E-001	  2.80230E-001	  2.69830E-001
  4.48000E-002	  2.23534E-001	  2.35266E-001	  2.54762E-001	  2.42567E-001
  4.80000E-002	  2.24635E-001	  2.29660E-001	  2.44224E-001	  2.31479E-001
  5.12000E-002	  2.42929E-001	  2.31910E-001	  2.31598E-001	  2.38740E-001
  5.76000E-002	  2.04659E-001	  2.06165E-001	  2.23551E-001	  2.12419E-001
  6.40000E-002	  1.95104E-001	  1.89688E-001	  2.07112E-001	  1.97639E-001
  7.04000E-002	  1.82075E-001	  1.77442E-001	  1.89325E-001	  1.87799E-001
  7.68000E-002	  1.65265E-001	  1.64240E-001	  1.73489E-001	  1.82712E-001
  8.32000E-002	  1.67207E-001	  1.56370E-001	  1.72757E-001	  1.68571E-001
  8.96000E-002	  1.43039E-001	  1.36509E-001	  1.42045E-001	  1.42782E-001
  9.60000E-002	  1.29346E-001	  1.29013E-001	  1.43801E-001	  1.22893E-001
  1.02400E-001	  1.28685E-001	  1.30581E-001	  1.34287E-001	  1.25852E-001
  1.15200E-001	  1.17669E-001	  1.14476E-001	  1.23432E-001	  1.00515E-001
  1.28000E-001	  9.92748E-002	  9.80681E-002	  1.10987E-001	  9.41607E-002
  1.40800E-001	  8.81615E-002	  1.00975E-001	  9.14905E-002	  8.28154E-002
  1.53600E-001	  8.94389E-002	  8.91993E-002	  7.24181E-002	  6.45510E-002
  1.66400E-001	  7.77945E-002	  6.77106E-002	  6.86020E-002	  6.44916E-002
  1.79200E-001	  6.91595E-002	  7.26636E-002	  6.94316E-002	  5.94806E-002
  1.92000E-001	  6.97614E-002	  6.41356E-002	  4.91365E-002	  3.39554E-002
  2.04800E-001	  5.90861E-002	  5.54146E-002	  5.31896E-002	  3.56559E-002
  2.30400E-001	  4.41158E-002	  4.85095E-002	  4.08809E-002	  2.86647E-002
  2.56000E-001	  3.98602E-002	  4.61604E-002	  3.08026E-002	  2.49811E-002
  2.81600E-001	  4.05758E-002	  3.48814E-002	  2.06429E-002	  8.51698E-003
  3.07200E-001	  2.50955E-002	  3.10566E-002	  2.53709E-002	  1.39056E-002
  3.32800E-001	  2.07128E-002	  3.32022E-002	  1.12468E-002	  1.63801E-002
  3.58400E-001	  2.37411E-002	  1.82535E-002	  9.75820E-003	  4.80684E-003
  3.84000E-001	  9.60304E-003	  1.44470E-002	  5.26204E-003	  1.11950E-002
  4.09600E-001	  1.61509E-002	  1.02766E-002	  2.91492E-003	  9.18149E-003
  4.60800E-001	  3.52610E-003	  2.96257E-003	 -1.36913E-003	  1.39824E-002
  5.12000E-001	  4.58465E-003	  7.09632E-003	 -1.90644E-003	  1.47210E-002
  5.63200E-001	  5.02774E-003	  4.18097E-003	 -2.35775E-003	  6.13275E-003
  6.14400E-001	 -4.17792E-004	  6.42607E-003	 -3.19942E-003	 -7.93047E-003
  6.65600E-001	  1.22059E-003	  1.16484E-002	 -4.38307E-003	 -8.38184E-003
  7.16800E-001	 -1.66396E-003	  1.26577E-002	 -1.89895E-003	 -9.06942E-003
  7.68000E-001	  8.00680E-004	  1.39069E-002	 -7.81865E-004	 -4.68193E-004
  8.19200E-001	 -9.99442E-004	  4.48456E-003	  7.75196E-003	 -1.98925E-003
  9.21600E-001	 -4.62420E-003	  4.74293E-003	  9.70364E-003	 -3.38428E-004
  1.02400E+000	 -1.04196E-002	 -8.24735E-003	  4.82619E-003	  3.93566E-003
  1.12640E+000	 -3.47844E-003	 -1.01632E-002	 -1.15713E-003	 -2.89398E-003
  1.22880E+000	 -1.03181E-002	 -3.86814E-003	 -3.42033E-003	 -6.39818E-003
  1.33120E+000	 -7.30717E-003	 -9.73108E-004	  3.04541E-003	  3.24586E-004
  1.43360E+000	  4.04274E-003	 -5.50958E-003	  5.73938E-003	 -4.58726E-003
  1.53600E+000	  1.18354E-003	 -3.52901E-003	  7.92305E-003	 -8.84631E-003
  1.63840E+000	 -6.88471E-003	  1.97887E-003	  1.02629E-002	 -1.08028E-002
  1.84320E+000	  2.05989E-003	  3.49488E-003	  5.30282E-003	 -5.64296E-003
  2.04800E+000	 -4.24061E-003	 -3.45214E-005	 -5.77321E-003	  1.57421E-003
  2.25280E+000	 -5.57894E-003	 -7.60953E-003	 -3.72294E-003	  4.88241E-003
  2.45760E+000	 -2.04051E-003	 -3.14261E-003	 -6.10763E-003	  3.82656E-003
  2.66240E+000	  1.34675E-003	  2.84593E-003	  2.14061E-003	 -4.12927E-004
  2.86720E+000	  6.89700E-003	 -6.91954E-003	  1.96622E-003	  3.24571E-003
  3.07200E+000	  4.25442E-003	  1.47482E-003	 -2.32523E-003	 -4.94457E-003
  3.27680E+000	 -6.25241E-004	  6.03276E-003	 -2.82870E-003	  1.11381E-003
  3.68640E+000	 -1.20809E-003	  3.45961E-003	 -1.08875E-003	 -6.74276E-003
  4.09600E+000	 -4.24465E-003	 -2.69522E-003	  1.60913E-003	 -1.23449E-003
  4.50560E+000	  3.40896E-004	 -2.49020E-003	  2.87305E-003	 -1.85826E-003
  4.91520E+000	 -6.24345E-003	  2.25276E-003	  4.59316E-004	 -2.15027E-003
  5.32480E+000	  1.51493E-003	  3.02881E-003	 -1.31666E-003	  8.07613E-003
  5.73440E+000	 -5.54124E-004	  1.52440E-003	 -6.85621E-004	 -1.67907E-003
  6.14400E+000	  7.86744E-003	 -6.90365E-003	  3.54564E-003	 -5.99600E-003
  6.55360E+000	  2.78615E-003	 -3.00966E-003	  3.39868E-003	  7.43982E-004
  7.37280E+000	 -1.19543E-003	  1.07527E-003	 -1.38999E-003	 -1.76765E-003
  8.19200E+000	 -9.90040E-003	 -7.65619E-004	 -1.40003E-003	  1.32989E-003
  9.01120E+000	 -1.25453E-003	  1.99786E-004	  1.14507E-003	  3.60565E-003
  9.83040E+000	  6.00231E-003	 -2.46152E-003	 -3.95189E-003	  5.31749E-003
  1.06496E+001	  4.19257E-003	  2.54942E-003	  1.29433E-003	 -5.44236E-003
  1.14688E+001	 -1.77460E-003	 -8.89304E-003	  2.88847E-004	 -8.62957E-004
  1.22880E+001	  1.85706E-003	 -4.10286E-003	 -7.16246E-004	 -2.56019E-003
  1.31072E+001	  2.63596E-004	 -2.05648E-003	  2.39223E-003	  1.16480E-003
  1.47456E+001	 -3.97534E-003	 -8.14197E-004	 -2.65161E-003	  1.21354E-003
  1.63840E+001	  1.28648E-003	  3.18078E-003	  4.98448E-003	  6.74311E-004
  1.80224E+001	  3.62748E-003	 -8.83271E-004	  6.90675E-003	  3.33737E-003
  1.96608E+001	 -4.08391E-003	 -4.11607E-005	  9.61888E-004	  1.33539E-003
  2.12992E+001	  3.15969E-003	  3.21101E-004	  1.81944E-003	 -1.08374E-003
  2.29376E+001	  1.69415E-003	 -7.83753E-004	 -3.83798E-003	  1.73418E-003
  2.45760E+001	  9.15470E-005	 -1.06086E-003	 -4.00064E-004	  1.91172E-003
  2.62144E+001	 -2.39440E-003	 -6.63390E-004	  3.05926E-003	  3.01095E-003
  2.94912E+001	  2.11367E-003	  1.31278E-003	 -7.62708E-005	 -1.44585E-003
  3.27680E+001	  1.86848E-003	 -2.41985E-003	  4.77111E-003	 -3.42917E-004
  3.60448E+001	 -3.11561E-003	  2.29036E-003	  3.98073E-003	  2.42939E-004
  3.93216E+001	  5.84958E-004	  9.61589E-004	 -1.22996E-003	  8.22262E-004
  4.25984E+001	 -1.39280E-003	 -2.73138E-003	  8.85232E-004	  2.34469E-003
  4.58752E+001	  1.01613E-003	  1.81696E-003	  8.97901E-004	  2.01977E-004
  4.91520E+001	  9.98843E-004	  2.18265E-004	  2.35062E-003	 -3.46486E-004
  5.24288E+001	 -1.76316E-003	 -1.03024E-003	  1.25523E-003	 -2.62045E-004
  5.89824E+001	 -3.13679E-004	 -9.00885E-004	  4.05462E-004	 -6.55652E-004
  6.55360E+001	 -1.49871E-004	  4.64215E-004	  1.38179E-003	  6.21835E-004
  7.20896E+001	  7.57083E-005	  1.06600E-003	 -5.61419E-004	 -1.62433E-003
  7.86432E+001	 -4.39660E-005	  5.96364E-004	  1.23116E-003	 -1.48644E-003
  8.51968E+001	  2.94872E-003	  2.56595E-004	  6.74341E-004	 -1.35511E-003
  9.17504E+001	 -1.26742E-003	  7.93842E-004	 -1.02999E-003	 -6.74922E-004
  9.83040E+001	  2.83617E-004	 -7.97760E-004	 -2.65431E-004	 -1.72119E-003
  1.04858E+002	  2.51167E-004	  1.42923E-003	 -4.24219E-004	 -6.74996E-004
  1.17965E+002	 -1.34161E-003	 -3.93661E-004	 -2.55332E-003	 -1.18956E-003
  1.31072E+002	 -6.38825E-004	  6.79698E-004	 -2.37281E-003	  3.03616E-004
  1.44179E+002	 -8.81822E-004	 -1.01924E-003	 -2.06041E-003	 -5.25486E-004
  1.57286E+002	 -1.01795E-003	 -9.02620E-004	 -1.84738E-003	 -8.73015E-004
  1.70394E+002	 -2.40116E-004	  5.83905E-005	 -1.31220E-003	  9.33067E-004
  1.83501E+002	 -1.42152E-003	  7.06901E-004	 -1.65215E-003	 -4.09859E-004
  1.96608E+002	  4.57213E-004	 -1.73465E-003	 -1.03455E-003	  3.59360E-004
  2.09715E+002	 -1.56528E-003	  2.00042E-004	 -1.43794E-003	  4.10725E-005
  2.35930E+002	 -3.80987E-004	 -3.06647E-004	 -7.11852E-004	  3.12840E-004
  2.62144E+002	  2.64331E-004	 -1.76007E-003	  2.20428E-005	  9.63066E-005
  2.88358E+002	 -1.23857E-004	  7.70950E-005	  9.31637E-004	  8.78175E-004
  3.14573E+002	 -4.90307E-004	  4.22438E-004	  1.35883E-003	  3.01560E-004
  3.40787E+002	  1.23116E-003	 -3.35337E-004	  2.31793E-003	  9.76287E-004
  3.67002E+002	  1.43798E-003	 -5.68147E-004	  6.98822E-004	 -6.78952E-005
  3.93216E+002	  3.91896E-004	 -8.72353E-004	  2.09040E-003	 -1.26442E-003

"Count Rate"
       0.01311	      69.35120	      57.52563	      53.71094	      59.58557
       0.02621	      50.58289	      53.55835	      63.24768	      52.03247
       0.03932	      52.87170	      50.50659	      67.06238	      56.07605
       0.05243	      57.29675	      62.86621	      53.32947	      50.35400
       0.06554	      59.35669	      49.43848	      51.11694	      60.04333
       0.07864	      58.89893	      58.21228	      50.88806	      56.15234
       0.09175	      53.93982	      57.60193	      58.28857	      57.06787
       0.10486	      53.63464	      54.70276	      61.49292	      64.92615
       0.11796	      54.16870	      46.23413	      55.61829	      54.70276
       0.13107	      63.93433	      54.77905	      52.71912	      54.24500
       0.14418	      59.35669	      63.09509	      58.97522	      58.89893
       0.15729	      56.83899	      55.23682	      49.74365	      62.40845
       0.17039	      60.27222	      58.67004	      54.62646	      53.78723
       0.18350	      49.74365	      60.11963	      57.52563	      54.85535
       0.19661	      54.70276	      61.79810	      55.31311	      54.62646
       0.20972	      57.83081	      53.25317	      58.59375	      57.60193
       0.22282	      59.43298	      52.71912	      54.01611	      50.27771
       0.23593	      49.43848	      61.03516	      58.74634	      60.57739
       0.24904	      56.91528	      51.95618	      56.45752	      56.22864
       0.26214	      54.55017	      60.27222	      51.87988	      52.41394
       0.27525	      55.23682	      61.79810	      52.56653	      63.01880
       0.28836	      55.38940	      55.99976	      60.11963	      55.54199
       0.30147	      56.15234	      57.06787	      51.57471	      51.49841
       0.31457	      49.36218	      54.16870	      54.85535	      58.59375
       0.32768	      53.48206	      52.41394	      44.40308	      44.86084
       0.34079	      55.99976	      48.67554	      54.47388	      59.12781
       0.35389	      58.28857	      52.71912	      54.16870	      57.83081
       0.36700	      57.29675	      58.59375	      57.06787	      55.92346
       0.38011	      53.32947	      52.26135	      58.51746	      61.03516
       0.39322	      54.77905	      60.72998	      58.59375	      52.87170
       0.40632	      56.99158	      62.10327	      64.16321	      58.89893
       0.41943	      60.27222	      55.77087	      68.28308	      56.30493
       0.43254	      55.61829	      55.54199	      63.62915	      63.62915
       0.44564	      56.61011	      57.67822	      68.96973	      55.38940
       0.45875	      65.15503	      65.61279	      58.36487	      52.49023
       0.47186	      58.59375	      55.31311	      56.99158	      55.23682
       0.48497	      61.49292	      58.74634	      58.28857	      59.12781
       0.49807	      53.78723	      60.57739	      62.78992	      52.41394
       0.51118	      45.08972	      60.95886	      57.29675	      60.72998
       0.52429	      54.62646	      71.25854	      60.19592	      54.55017
       0.53740	      54.70276	      52.49023	      53.93982	      54.09241
       0.55050	      57.67822	      54.70276	      51.49841	      56.15234
       0.56361	      61.34033	      60.27222	      54.55017	      55.00793
       0.57672	      55.61829	      60.04333	      48.98071	      53.32947
       0.58982	      56.91528	      67.82532	      55.77087	      54.39758
       0.60293	      54.77905	      60.72998	      57.75452	      56.53381
       0.61604	      49.81995	      54.39758	      53.63464	      55.16052
       0.62915	      57.29675	      57.98340	      53.17688	      54.09241
       0.64225	      54.32129	      55.23682	      52.18506	      51.34583
       0.65536	      55.99976	      53.93982	      56.07605	      54.39758
       0.66847	      46.08154	      58.59375	      54.24500	      56.83899
       0.68157	      50.73547	      60.80627	      57.60193	      54.62646
       0.69468	      53.17688	      64.46838	      61.41663	      60.27222
       0.70779	      50.65918	      61.95068	      55.46570	      56.38123
       0.72090	      59.12781	      50.58289	      58.74634	      57.37305
       0.73400	      56.38123	      62.33215	      57.83081	      68.81714
       0.74711	      60.42480	      56.91528	      53.10059	      58.82263
