ALV-7004/USB-FAST
Date :	"11/11/2025"
Time :	"3:59:25 PM"
Samplename : 	""
SampMemo(0) : 	""
SampMemo(1) : 	""
SampMemo(2) : 	""
SampMemo(3) : 	""
SampMemo(4) : 	""
SampMemo(5) : 	""
SampMemo(6) : 	""
SampMemo(7) : 	""
SampMemo(8) : 	""
SampMemo(9) : 	""
Temperature [K] :	     298.16000
Viscosity [cp]  :	       0.89000
Refractive Index:	       1.33200
Wavelength [nm] :	       0.00000
Angle [°]       :	       0.00000
Duration [s]    :	         1
FloatDur [ms]   :	          944
Stop TP [ms]   :	     68317
Runs            :	         1
Mode            :	"A-CH0+1  A-CH2+3 "
MeanCR0 [kHz]   :	      55.84929
MeanCR1 [kHz]   :	      58.38924
MeanCR2 [kHz]   :	      58.79614
MeanCR3 [kHz]   :	      57.06681

"Correlation"
  3.12500E-006	 -1.00000E+000	 -1.00000E+000	 -1.00000E+000	 -1.00000E+000
  6.25000E-006	 -1.00000E+000	 -1.00000E+000	 -1.00000E+000	 -1.00000E+000
  9.37500E-006	 -1.00000E+000	 -1.00000E+000	 -1.00000E+000	 -1.00000E+000
  1.25000E-005	 -1.00000E+000	 -1.00000E+000	 -1.00000E+000	 -1.00000E+000
  1.56250E-005	 -1.00000E+000	 -1.00000E+000	 -1.00000E+000	 -1.00000E+000
  1.87500E-005	 -1.00000E+000	 -1.00000E+000	 -1.00000E+000	 -1.00000E+000
  2.18750E-005	 -8.91289E-001	  5.91336E-001	  6.67473E-001	 -5.83514E-001
  2.50000E-005	  1.18279E+001	  1.05372E+001	  1.29283E+001	  2.29479E+001
  2.81250E-005	  3.78327E+000	  1.88430E+000	  1.84451E+000	  9.51627E+000
  3.12500E-005	  2.04390E+000	  6.90794E-001	  2.13877E+000	  6.08026E+000
  3.43750E-005	  1.28292E+000	  1.08863E+000	  8.63646E-001	  2.54013E+000
  3.75000E-005	  8.48082E-001	  4.91877E-001	  1.05982E+000	  3.78959E+000
  4.06250E-005	  9.56792E-001	  1.58592E+000	  6.67473E-001	  2.95662E+000
  4.37500E-005	  8.48082E-001	  8.89711E-001	  2.75126E-001	  2.22777E+000
  4.68750E-005	  1.28292E+000	  7.90253E-001	  3.73213E-001	  2.43601E+000
  5.00000E-005	  4.13239E-001	  5.41607E-001	  5.69386E-001	  2.54013E+000
  5.62500E-005	  1.22857E+000	  5.41607E-001	  1.01078E+000	  1.60304E+000
  6.25000E-005	  9.02437E-001	  1.28755E+000	  5.20343E-001	  2.33189E+000
  6.87500E-005	  6.30660E-001	  1.03890E+000	  7.16516E-001	  7.70065E-001
  7.50000E-005	  5.76305E-001	  8.89711E-001	  4.22256E-001	  6.65944E-001
  8.12500E-005	  5.21950E-001	  9.40434E-002	  7.16516E-001	  5.61822E-001
  8.75000E-005	  7.93726E-001	  3.92419E-001	  2.75126E-001	  7.18004E-001
  9.37500E-005	  4.67594E-001	  9.39441E-001	  4.22256E-001	  5.61822E-001
  1.00000E-004	  6.03482E-001	  3.17825E-001	  8.63646E-001	  2.75488E-001
  1.12500E-004	  4.67594E-001	  5.16742E-001	  5.44864E-001	  7.96095E-001
  1.25000E-004	  6.30660E-001	  4.67013E-001	  7.16516E-001	  6.65943E-001
  1.37500E-004	  9.83970E-001	  4.67013E-001	  7.90081E-001	  9.00217E-001
  1.50000E-004	  6.57838E-001	  9.40433E-002	  8.39124E-001	  4.05640E-001
  1.62500E-004	  6.57838E-001	  6.16200E-001	  3.48691E-001	  1.10846E+000
  1.75000E-004	  6.03482E-001	  1.36214E+000	  4.22256E-001	  1.71366E-001
  1.87500E-004	  8.20904E-001	  7.15659E-001	  6.18429E-001	  3.79609E-001
  2.00000E-004	  4.54005E-001	  6.65929E-001	  5.93907E-001	  4.83730E-001
  2.25000E-004	  5.21949E-001	  5.91335E-001	  8.02341E-001	  5.74837E-001
  2.50000E-004	  5.08360E-001	  4.91877E-001	  6.79733E-001	  4.83730E-001
  2.75000E-004	  7.52959E-001	  4.42148E-001	  5.44864E-001	  4.96746E-001
  3.00000E-004	  4.67594E-001	  3.30257E-001	  3.73213E-001	  7.04989E-001
  3.25000E-004	  5.21949E-001	  6.28632E-001	  5.44864E-001	  4.70715E-001
  3.50000E-004	  3.45294E-001	  4.42148E-001	  5.69386E-001	  3.79609E-001
  3.75000E-004	  5.21949E-001	  9.64305E-001	  6.30690E-001	  3.79609E-001
  4.00000E-004	  3.99649E-001	  7.03225E-001	  6.67472E-001	  3.99131E-001
  4.50000E-004	  5.76304E-001	  4.29715E-001	  6.00037E-001	  5.16268E-001
  5.00000E-004	  4.54004E-001	  5.91335E-001	  5.01951E-001	  5.48806E-001
  5.50000E-004	  4.13238E-001	  3.79986E-001	  5.81646E-001	  3.53578E-001
  6.00000E-004	  3.99649E-001	  4.73228E-001	  3.85473E-001	  5.81344E-001
  6.50000E-004	  6.85014E-001	  6.22415E-001	  5.93907E-001	  5.74836E-001
  7.00000E-004	  3.52088E-001	  6.03767E-001	  4.09994E-001	  4.51192E-001
  7.50000E-004	  4.13238E-001	  4.98092E-001	  3.85473E-001	  5.48806E-001
  8.00000E-004	  4.20031E-001	  5.38496E-001	  5.93905E-001	  4.44683E-001
  9.00000E-004	  5.01564E-001	  4.98091E-001	  4.59036E-001	  3.53577E-001
  1.00000E-003	  4.54003E-001	  4.88767E-001	  4.95819E-001	  4.96744E-001
  1.10000E-003	  4.43812E-001	  4.70118E-001	  6.12297E-001	  3.86115E-001
  1.20000E-003	  4.23428E-001	  3.61336E-001	  5.54058E-001	  5.29282E-001
  1.30000E-003	  5.15153E-001	  5.07415E-001	  4.19189E-001	  6.95225E-001
  1.40000E-003	  4.54003E-001	  4.98091E-001	  5.66319E-001	  4.60979E-001
  1.50000E-003	  4.60798E-001	  3.92417E-001	  4.46776E-001	  4.64233E-001
  1.60000E-003	  4.59096E-001	  5.05859E-001	  4.72880E-001	  5.19574E-001
  1.80000E-003	  4.79480E-001	  3.87752E-001	  4.40695E-001	  5.06559E-001
  2.00000E-003	  3.92851E-001	  4.03293E-001	  4.31499E-001	  4.78900E-001
  2.20000E-003	  4.57398E-001	  5.82006E-001	  3.76323E-001	  5.01678E-001
  2.40000E-003	  4.62494E-001	  4.21941E-001	  4.23836E-001	  4.41480E-001
  2.60000E-003	  4.50603E-001	  4.46805E-001	  3.31876E-001	  5.04932E-001
  2.80000E-003	  4.65891E-001	  4.76332E-001	  4.26901E-001	  4.18703E-001
  3.00000E-003	  4.62494E-001	  4.35927E-001	  4.57554E-001	  4.30092E-001
  3.20000E-003	  4.14928E-001	  4.42915E-001	  3.70237E-001	  4.07336E-001
  3.60000E-003	  4.03887E-001	  5.05077E-001	  4.34585E-001	  4.85403E-001
  4.00000E-003	  4.63338E-001	  5.12847E-001	  4.19258E-001	  4.66693E-001
  4.40000E-003	  3.39341E-001	  4.00957E-001	  4.51445E-001	  4.69947E-001
  4.80000E-003	  4.27668E-001	  5.10516E-001	  3.87813E-001	  3.86159E-001
  5.20000E-003	  4.23421E-001	  4.07173E-001	  4.61381E-001	  4.52864E-001
  5.60000E-003	  3.80956E-001	  3.79977E-001	  3.52563E-001	  4.43102E-001
  6.00000E-003	  3.57176E-001	  4.10281E-001	  4.23831E-001	  4.13004E-001
  6.40000E-003	  3.66084E-001	  3.94731E-001	  3.91686E-001	  4.37018E-001
  7.20000E-003	  3.57167E-001	  4.07552E-001	  3.80574E-001	  4.07733E-001
  8.00000E-003	  4.01754E-001	  3.71421E-001	  3.98225E-001	  4.02039E-001
  8.80000E-003	  3.69481E-001	  3.76860E-001	  3.87496E-001	  4.13834E-001
  9.60000E-003	  3.42729E-001	  3.59377E-001	  4.66814E-001	  3.80888E-001
  1.04000E-002	  3.49523E-001	  3.50442E-001	  4.12760E-001	  3.47103E-001
  1.12000E-002	  3.43153E-001	  3.46557E-001	  3.76334E-001	  3.68660E-001
  1.20000E-002	  3.58016E-001	  3.65593E-001	  4.09670E-001	  3.73134E-001
  1.28000E-002	  3.56299E-001	  3.72762E-001	  3.36323E-001	  4.00825E-001
  1.44000E-002	  3.16595E-001	  3.37603E-001	  3.89010E-001	  3.52016E-001
  1.60000E-002	  3.39526E-001	  3.11791E-001	  3.35174E-001	  3.49982E-001
  1.76000E-002	  2.93240E-001	  3.37069E-001	  3.21954E-001	  3.54050E-001
  1.92000E-002	  2.99397E-001	  3.64653E-001	  3.27893E-001	  3.54253E-001
  2.08000E-002	  3.13623E-001	  3.30852E-001	  3.45328E-001	  3.35543E-001
  2.24000E-002	  3.01945E-001	  3.31047E-001	  3.15057E-001	  3.24764E-001
  2.40000E-002	  2.68611E-001	  3.23471E-001	  3.14626E-001	  3.27383E-001
  2.56000E-002	  2.62385E-001	  3.29092E-001	  3.01706E-001	  3.21117E-001
  2.88000E-002	  2.68755E-001	  2.91795E-001	  3.01611E-001	  2.93434E-001
  3.20000E-002	  2.53361E-001	  2.59646E-001	  2.60037E-001	  2.78995E-001
  3.52000E-002	  2.49858E-001	  2.80626E-001	  2.64252E-001	  2.80113E-001
  3.84000E-002	  2.28519E-001	  2.55081E-001	  2.65880E-001	  2.70758E-001
  4.16000E-002	  2.11215E-001	  2.39152E-001	  2.28809E-001	  2.62420E-001
  4.48000E-002	  2.04420E-001	  2.41872E-001	  2.17049E-001	  2.51540E-001
  4.80000E-002	  2.11427E-001	  1.94376E-001	  1.97220E-001	  2.23780E-001
  5.12000E-002	  1.90590E-001	  2.04575E-001	  1.96997E-001	  2.16330E-001
  5.76000E-002	  1.67793E-001	  1.93745E-001	  1.80253E-001	  1.96835E-001
  6.40000E-002	  1.51176E-001	  1.69214E-001	  1.62674E-001	  1.79701E-001
  7.04000E-002	  1.41174E-001	  1.53452E-001	  1.60683E-001	  1.65058E-001
  7.68000E-002	  1.23686E-001	  1.42233E-001	  1.41763E-001	  1.56822E-001
  8.32000E-002	  1.10468E-001	  1.37376E-001	  1.23649E-001	  1.40633E-001
  8.96000E-002	  1.19864E-001	  1.30625E-001	  1.34447E-001	  1.41111E-001
  9.60000E-002	  9.28962E-002	  1.10665E-001	  1.05466E-001	  1.32379E-001
  1.02400E-001	  9.22664E-002	  1.01749E-001	  1.09789E-001	  1.19074E-001
  1.15200E-001	  7.01997E-002	  9.66206E-002	  9.35880E-002	  1.06285E-001
  1.28000E-001	  6.61046E-002	  7.93061E-002	  7.73758E-002	  9.54834E-002
  1.40800E-001	  5.79003E-002	  6.13651E-002	  6.72195E-002	  9.46443E-002
  1.53600E-001	  5.43290E-002	  5.42449E-002	  6.50829E-002	  6.75147E-002
  1.66400E-001	  4.43264E-002	  5.20438E-002	  5.41360E-002	  7.49591E-002
  1.79200E-001	  3.88905E-002	  4.57538E-002	  5.07346E-002	  7.26431E-002
  1.92000E-001	  3.49878E-002	  4.96638E-002	  3.64528E-002	  6.55118E-002
  2.04800E-001	  2.73622E-002	  3.91854E-002	  4.32548E-002	  5.27108E-002
  2.30400E-001	  2.13071E-002	  2.74733E-002	  2.72549E-002	  4.94987E-002
  2.56000E-001	  1.21730E-002	  2.22578E-002	  1.73208E-002	  3.69885E-002
  2.81600E-001	 -1.05333E-003	  1.48991E-002	  1.68225E-002	  3.25305E-002
  3.07200E-001	 -7.80050E-003	  1.39278E-002	  1.93553E-002	  2.18214E-002
  3.32800E-001	 -2.85140E-003	  8.13631E-003	  1.51854E-002	  8.56870E-003
  3.58400E-001	 -8.76835E-004	  8.96198E-003	  5.85902E-003	  1.32232E-002
  3.84000E-001	 -7.04239E-004	  1.48838E-003	  1.22879E-002	  1.44885E-002
  4.09600E-001	 -2.98645E-005	  2.88616E-003	  2.44040E-003	  3.31213E-003
  4.60800E-001	 -9.52479E-004	 -3.96691E-006	  6.53871E-003	  2.95542E-003
  5.12000E-001	  2.11207E-004	 -8.60756E-003	  5.24980E-003	  9.00092E-003
  5.63200E-001	 -1.31405E-003	 -1.64402E-003	  4.49461E-003	  3.56453E-003
  6.14400E-001	 -4.67447E-004	  1.02768E-002	  2.80489E-003	 -1.16728E-003
  6.65600E-001	  3.88744E-003	  7.36223E-003	 -1.15624E-003	 -4.70140E-003
  7.16800E-001	  1.35626E-003	  1.67741E-003	  4.12214E-003	  2.23107E-003
  7.68000E-001	 -1.15555E-002	  2.35152E-003	  7.41035E-003	 -1.61624E-003
  8.19200E-001	 -7.92510E-003	  3.22596E-003	 -2.62379E-003	 -1.82313E-003
  9.21600E-001	 -2.19750E-003	  1.83430E-003	 -7.76510E-003	  2.86749E-004
  1.02400E+000	  6.63373E-004	 -2.35532E-004	 -6.59312E-003	 -3.55876E-003
  1.12640E+000	 -2.74870E-003	  2.38108E-003	  1.86152E-003	  1.97750E-003
  1.22880E+000	 -2.29951E-004	 -1.02622E-003	  1.27688E-003	  7.58625E-003
  1.33120E+000	  1.55368E-003	 -2.02980E-003	  5.44587E-003	  6.87878E-003
  1.43360E+000	 -2.03630E-003	 -8.59845E-003	  5.85005E-003	  1.52708E-003
  1.53600E+000	 -1.36960E-003	 -5.88366E-003	 -3.16114E-004	  3.58959E-003
  1.63840E+000	  3.42543E-004	  6.12325E-004	 -3.64789E-003	  3.32895E-003
  1.84320E+000	 -6.24848E-003	  6.01837E-003	 -4.14321E-003	  7.55932E-003
  2.04800E+000	  1.40458E-003	  2.92411E-003	  6.07052E-003	  3.46603E-003
  2.25280E+000	  4.56128E-003	  2.21154E-003	 -1.40284E-003	  1.99901E-003
  2.45760E+000	  2.30853E-003	 -9.59040E-003	  1.48140E-003	 -2.87920E-003
  2.66240E+000	 -5.94185E-003	 -7.53018E-003	  1.28720E-003	 -2.28767E-003
  2.86720E+000	  1.13784E-003	 -3.46718E-003	  7.05380E-004	 -4.14855E-003
  3.07200E+000	  9.36413E-003	 -2.63832E-004	 -2.34648E-003	 -7.44841E-003
  3.27680E+000	  7.12115E-003	 -4.78932E-005	 -3.99322E-003	 -3.90273E-003
  3.68640E+000	 -8.67121E-004	 -9.31206E-004	 -1.27103E-003	 -4.60672E-003
  4.09600E+000	  1.96563E-004	 -8.16852E-004	  8.07815E-003	  3.04270E-004
  4.50560E+000	  2.18798E-003	 -3.28520E-003	  2.09859E-003	 -2.27446E-003
  4.91520E+000	  4.15559E-003	  3.70907E-003	 -3.38018E-003	 -6.43531E-003
  5.32480E+000	  2.30667E-003	  6.27181E-003	 -3.18582E-004	  4.41545E-003
  5.73440E+000	  2.88800E-003	  2.63696E-003	 -9.22427E-003	 -2.63445E-003
  6.14400E+000	  8.45237E-004	 -8.21511E-003	  4.47096E-004	 -2.35361E-003
  6.55360E+000	 -4.76534E-004	  4.99170E-004	  5.51060E-003	  4.55699E-003
  7.37280E+000	  2.54901E-004	  4.79470E-004	  4.23185E-003	 -1.71004E-003
  8.19200E+000	  2.16065E-003	 -1.85561E-003	  1.38286E-003	  4.97577E-003
  9.01120E+000	 -1.25965E-003	 -8.91187E-004	 -1.59166E-003	  7.04562E-003
  9.83040E+000	 -7.33928E-004	  1.26647E-003	  3.73310E-003	 -2.51331E-003
  1.06496E+001	 -1.01924E-003	  1.25203E-003	  3.09568E-003	 -4.70480E-003
  1.14688E+001	 -4.42614E-003	 -1.63507E-003	 -4.91092E-004	 -5.13013E-003
  1.22880E+001	  1.73098E-003	 -3.14175E-003	 -2.24185E-003	 -1.75563E-003
  1.31072E+001	  1.56581E-003	 -2.84645E-003	  1.45755E-003	 -6.48877E-004
  1.47456E+001	 -2.05691E-003	  9.38674E-004	 -5.29257E-004	  1.40906E-003
  1.63840E+001	  1.51526E-003	 -1.91915E-003	  1.70863E-003	 -3.88496E-003
  1.80224E+001	  3.54961E-004	 -1.13827E-003	  2.51231E-003	 -2.38562E-003
  1.96608E+001	  6.61301E-004	 -1.60459E-003	 -1.07752E-003	 -3.43424E-003
  2.12992E+001	  1.85944E-003	  1.89578E-003	 -1.76693E-003	 -1.29378E-003
  2.29376E+001	 -3.17190E-004	 -3.09373E-004	  1.84052E-003	  1.61016E-004
  2.45760E+001	 -4.67600E-004	 -2.06306E-003	  1.96586E-003	  2.21028E-003
  2.62144E+001	 -8.29039E-004	 -5.50249E-004	  1.53382E-003	  1.50624E-003
  2.94912E+001	 -1.50177E-003	  8.75142E-004	 -1.03676E-003	 -2.52610E-003
  3.27680E+001	 -2.80751E-003	 -1.01904E-003	  1.69900E-003	 -1.43357E-003
  3.60448E+001	  2.42245E-003	 -4.80592E-004	  3.90146E-004	  1.86123E-003
  3.93216E+001	  1.88646E-003	 -1.67739E-003	  1.78547E-003	  3.70536E-004
  4.25984E+001	  3.09100E-003	  8.88372E-004	 -2.37433E-003	 -2.89465E-003
  4.58752E+001	  1.67247E-003	 -1.18584E-003	 -5.68596E-004	  9.81030E-004
  4.91520E+001	  7.59839E-004	  2.67160E-004	 -1.95789E-003	 -1.95058E-003
  5.24288E+001	  4.88889E-004	  3.05299E-004	 -2.89068E-003	 -2.80922E-003
  5.89824E+001	  5.96405E-004	 -3.97712E-004	 -3.41387E-004	 -6.40158E-004
  6.55360E+001	  4.94591E-004	 -4.65061E-004	 -1.05249E-004	 -1.88486E-003
  7.20896E+001	 -1.20828E-003	  1.73804E-003	 -1.24852E-003	  2.48381E-003
  7.86432E+001	 -3.81589E-004	 -1.73065E-003	 -1.27607E-004	 -5.40751E-005
  8.51968E+001	  1.70417E-003	 -1.55855E-003	 -2.29835E-003	  9.31989E-004
  9.17504E+001	 -6.36721E-004	  1.59579E-003	 -8.22140E-004	  1.63464E-003
  9.83040E+001	 -1.26610E-003	 -2.99697E-004	  1.61388E-003	  2.18152E-003
  1.04858E+002	  3.52908E-004	 -3.45370E-004	 -9.00764E-004	  1.34047E-003
  1.17965E+002	 -6.38340E-004	  1.82310E-004	  9.91218E-004	  3.51916E-004
  1.31072E+002	 -9.31510E-004	 -1.47458E-003	  1.32532E-004	 -1.45978E-003
  1.44179E+002	  2.31116E-003	  8.51777E-004	 -7.09550E-004	  6.53423E-004
  1.57286E+002	 -3.58083E-004	  6.61643E-004	 -1.26317E-003	 -1.77010E-003
  1.70394E+002	 -5.56740E-004	  1.97449E-004	  9.19742E-004	 -8.23003E-004
  1.83501E+002	 -1.20531E-004	  3.45068E-004	  3.81886E-004	  2.41921E-003
  1.96608E+002	  1.26656E-004	 -2.67540E-004	  1.11583E-003	  5.02454E-004
  2.09715E+002	 -1.47561E-003	 -1.48719E-004	 -5.99306E-004	  6.69991E-004
  2.35930E+002	  2.16438E-003	  1.61077E-004	  1.18296E-003	 -4.86369E-005
  2.62144E+002	 -1.89379E-003	  8.90480E-004	  1.17208E-003	  1.45088E-004
  2.88358E+002	  8.63586E-005	 -4.62478E-004	 -8.17108E-004	 -2.06782E-004
  3.14573E+002	 -1.78608E-003	 -1.49028E-003	 -1.81611E-003	  5.49777E-004
  3.40787E+002	  7.94089E-004	  6.76201E-004	  2.09420E-004	  1.21134E-003
  3.67002E+002	 -1.20070E-003	  3.89365E-004	  3.18721E-004	 -9.35849E-004
  3.93216E+002	 -3.86966E-004	 -9.44272E-004	 -2.26292E-004	 -1.50574E-003

"Count Rate"
       0.01311	      57.37305	      55.99976	      60.11963	      54.47388
       0.02621	      55.92346	      58.89893	      58.51746	      58.89893
       0.03932	      55.31311	      57.06787	      59.89075	      56.76270
       0.05243	      52.18506	      57.90710	      61.03516	      58.05969
       0.06554	      56.07605	      62.25586	      62.48474	      52.26135
       0.07864	      62.63733	      59.89075	      62.94250	      59.28040
       0.09175	      64.54468	      60.34851	      67.82532	      55.16052
       0.10486	      57.44934	      59.05151	      61.18774	      61.95068
       0.11796	      49.89624	      53.25317	      56.07605	      48.59924
       0.13107	      62.71362	      60.19592	      63.70544	      56.07605
       0.14418	      53.32947	      55.00793	      47.68372	      49.28589
       0.15729	      53.55835	      51.42212	      59.12781	      56.61011
       0.17039	      55.38940	      52.64282	      58.89893	      56.15234
       0.18350	      57.29675	      55.77087	      57.98340	      56.45752
       0.19661	      46.61560	      56.45752	      64.62097	      56.83899
       0.20972	      54.70276	      55.00793	      47.91260	      53.71094
       0.22282	      60.95886	      54.85535	      54.47388	      62.48474
       0.23593	      59.20410	      47.60742	      56.83899	      48.44666
       0.24904	      51.95618	      67.67273	      56.15234	      49.28589
       0.26214	      48.37036	      56.53381	      60.27222	      49.89624
       0.27525	      53.71094	      70.87708	      62.33215	      67.67273
       0.28836	      56.53381	      57.75452	      60.27222	      56.45752
       0.30147	      53.78723	      54.39758	      67.36755	      57.06787
       0.31457	      53.17688	      52.41394	      55.61829	      58.05969
       0.32768	      55.84717	      55.54199	      60.04333	      51.42212
       0.34079	      52.49023	      59.12781	      51.57471	      51.95618
       0.35389	      49.81995	      53.48206	      60.80627	      51.80359
       0.36700	      53.10059	      58.05969	      55.69458	      59.50928
       0.38011	      52.49023	      54.16870	      58.28857	      56.99158
       0.39322	      56.76270	      57.98340	      51.19324	      55.16052
       0.40632	      50.81177	      58.28857	      50.20142	      80.71899
       0.41943	      55.61829	      57.75452	      57.98340	      52.49023
       0.43254	      49.66736	      57.90710	      60.72998	      47.60742
       0.44564	      54.01611	      56.38123	      49.97253	      64.01062
       0.45875	      53.63464	      63.70544	      55.38940	      49.59106
       0.47186	      60.65369	      46.76819	      71.86890	      54.01611
       0.48497	      48.82813	      59.96704	      51.80359	      60.34851
       0.49807	      45.39490	      63.17139	      53.40576	      60.57739
       0.51118	      52.64282	      61.11145	      59.58557	      56.15234
       0.52429	      48.14148	      56.30493	      53.02429	      54.70276
       0.53740	      57.75452	      55.16052	      65.15503	      47.30225
       0.55050	      45.54749	      72.25037	      62.63733	      65.99426
       0.56361	      56.68640	      51.65100	      59.43298	      64.69727
       0.57672	      57.90710	      52.33765	      51.80359	      51.87988
       0.58982	      47.91260	      57.75452	      57.44934	      55.54199
       0.60293	      54.55017	      61.79810	      55.46570	      56.15234
       0.61604	      67.74902	      64.16321	      53.55835	      50.73547
       0.62915	      51.57471	      58.89893	      49.43848	      60.57739
       0.64225	      57.37305	      55.69458	      51.49841	      62.56104
       0.65536	      62.56104	      64.92615	      53.10059	      56.38123
       0.66847	      51.34583	      54.01611	      58.21228	      61.49292
       0.68157	      61.11145	      57.37305	      64.16321	      50.73547
       0.69468	      57.98340	      63.47656	      63.09509	      59.28040
       0.70779	      56.07605	      59.58557	      64.01062	      55.61829
       0.72090	      53.93982	      54.32129	      54.39758	      56.22864
       0.73400	      47.83630	      54.01611	      62.63733	      65.84167
       0.74711	      53.78723	      57.90710	      54.24500	      57.44934
