ALV-7004/USB-FAST
Date :	"11/11/2025"
Time :	"4:00:29 PM"
Samplename : 	""
SampMemo(0) : 	""
SampMemo(1) : 	""
SampMemo(2) : 	""
SampMemo(3) : 	""
SampMemo(4) : 	""
SampMemo(5) : 	""
SampMemo(6) : 	""
SampMemo(7) : 	""
SampMemo(8) : 	""
SampMemo(9) : 	""
Temperature [K] :	     298.16000
Viscosity [cp]  :	       0.89000
Refractive Index:	       1.33200
Wavelength [nm] :	       0.00000
Angle [°]       :	       0.00000
Duration [s]    :	         1
FloatDur [ms]   :	          944
Stop TP [ms]   :	     68598
Runs            :	         1
Mode            :	"A-CH0+1  A-CH2+3 "
MeanCR0 [kHz]   :	      55.10436
MeanCR1 [kHz]   :	      55.76875
MeanCR2 [kHz]   :	      55.47523
MeanCR3 [kHz]   :	      54.65402

"Correlation"
  3.12500E-006	 -1.00000E+000	 -1.00000E+000	 -1.00000E+000	 -1.00000E+000
  6.25000E-006	 -1.00000E+000	 -1.00000E+000	 -1.00000E+000	 -1.00000E+000
  9.37500E-006	 -1.00000E+000	 -1.00000E+000	 -1.00000E+000	 -1.00000E+000
  1.25000E-005	 -1.00000E+000	 -1.00000E+000	 -1.00000E+000	 -1.00000E+000
  1.56250E-005	 -1.00000E+000	 -1.00000E+000	 -1.00000E+000	 -1.00000E+000
  1.87500E-005	 -1.00000E+000	 -1.00000E+000	 -1.00000E+000	 -1.00000E+000
  2.18750E-005	 -1.00000E+000	  3.08299E-001	  5.42543E-001	 -6.59447E-001
  2.50000E-005	  1.18420E+001	  1.38274E+001	  1.16709E+001	  2.64713E+001
  2.81250E-005	  2.90844E+000	  1.94367E+000	  2.74618E+000	  9.55714E+000
  3.12500E-005	  1.56840E+000	  1.18050E+000	  1.75454E+000	  5.47051E+000
  3.43750E-005	  8.98386E-001	  1.61660E+000	  5.42543E-001	  4.67588E+000
  3.75000E-005	  1.12173E+000	  4.17323E-001	  1.01816E-001	  3.42719E+000
  4.06250E-005	  1.01006E+000	  3.08299E-001	  4.32361E-001	  3.08664E+000
  4.37500E-005	  3.40037E-001	  9.02489E-002	  1.86472E+000	  2.40553E+000
  4.68750E-005	  2.28367E-001	  1.39855E+000	  8.73088E-001	  2.29201E+000
  5.00000E-005	  7.86716E-001	  7.98910E-001	  1.25872E+000	  1.89470E+000
  5.62500E-005	  3.40037E-001	  6.89886E-001	  5.97634E-001	  2.34877E+000
  6.25000E-005	  7.30881E-001	  3.62811E-001	  1.20363E+000	  2.29201E+000
  6.87500E-005	  7.86716E-001	  5.80861E-001	  1.14854E+000	  1.55415E+000
  7.50000E-005	  7.30881E-001	  2.53786E-001	  4.87452E-001	  7.59523E-001
  8.12500E-005	  3.95872E-001	  5.80861E-001	  1.56907E-001	  1.49739E+000
  8.75000E-005	  8.42551E-001	  5.26348E-001	  3.77270E-001	  7.02765E-001
  9.37500E-005	  5.63377E-001	  3.08299E-001	  5.97634E-001	  1.32711E+000
  1.00000E-004	  6.19211E-001	  3.90067E-001	  3.22179E-001	  7.59523E-001
  1.12500E-004	  5.91294E-001	  6.89885E-001	  4.04816E-001	  5.60867E-001
  1.25000E-004	  1.72532E-001	  7.71654E-001	  6.25179E-001	  3.90591E-001
  1.37500E-004	  7.86716E-001	  8.80679E-001	  7.35361E-001	  9.01420E-001
  1.50000E-004	  3.95872E-001	  5.80861E-001	  4.32361E-001	  4.47350E-001
  1.62500E-004	  7.86716E-001	  1.01696E+000	  8.73088E-001	  3.05453E-001
  1.75000E-004	  5.63376E-001	  3.90067E-001	  8.73088E-001	  7.31144E-001
  1.87500E-004	  4.23789E-001	  4.17323E-001	  6.80270E-001	  5.60867E-001
  2.00000E-004	  2.98160E-001	  3.76439E-001	  4.73679E-001	  3.62211E-001
  2.25000E-004	  2.84202E-001	  3.35554E-001	  6.66497E-001	  7.16954E-001
  2.50000E-004	  6.05252E-001	  2.81042E-001	  4.46133E-001	  4.61539E-001
  2.75000E-004	  8.14633E-001	  6.49001E-001	  4.18588E-001	  2.91263E-001
  3.00000E-004	  7.16922E-001	  8.26166E-001	  7.49133E-001	  5.75057E-001
  3.25000E-004	  5.21500E-001	  5.80860E-001	  7.90451E-001	  4.18970E-001
  3.50000E-004	  4.23789E-001	  4.30951E-001	  5.70088E-001	  4.18970E-001
  3.75000E-004	  5.49417E-001	  7.03513E-001	  4.73679E-001	  8.16282E-001
  4.00000E-004	  6.82024E-001	  4.99091E-001	  3.15292E-001	  5.04108E-001
  4.50000E-004	  4.65664E-001	  5.94488E-001	  4.39247E-001	  4.89918E-001
  5.00000E-004	  5.49417E-001	  6.14930E-001	  5.83860E-001	  5.82151E-001
  5.50000E-004	  3.12119E-001	  2.87855E-001	  4.11701E-001	  6.31815E-001
  6.00000E-004	  6.89004E-001	  4.51393E-001	  5.35655E-001	  4.47349E-001
  6.50000E-004	  3.60974E-001	  4.37765E-001	  6.38951E-001	  5.11202E-001
  7.00000E-004	  5.35458E-001	  5.26347E-001	  3.97928E-001	  4.75728E-001
  7.50000E-004	  5.14520E-001	  4.85463E-001	  4.04815E-001	  4.61539E-001
  8.00000E-004	  4.79622E-001	  4.58233E-001	  4.80563E-001	  5.60865E-001
  9.00000E-004	  4.09828E-001	  5.74074E-001	  4.32359E-001	  5.04106E-001
  1.00000E-003	  4.65663E-001	  4.17348E-001	  4.11700E-001	  4.89917E-001
  1.10000E-003	  4.41235E-001	  5.22968E-001	  3.73825E-001	  4.43800E-001
  1.20000E-003	  4.58684E-001	  4.85490E-001	  3.32507E-001	  4.75727E-001
  1.30000E-003	  4.06339E-001	  5.43410E-001	  5.49427E-001	  5.36033E-001
  1.40000E-003	  4.34256E-001	  4.37791E-001	  4.77120E-001	  4.40253E-001
  1.50000E-003	  4.23787E-001	  6.25180E-001	  7.00926E-001	  4.11873E-001
  1.60000E-003	  4.48240E-001	  4.48037E-001	  5.27044E-001	  4.57987E-001
  1.80000E-003	  4.49985E-001	  4.59962E-001	  4.44408E-001	  4.49119E-001
  2.00000E-003	  4.81393E-001	  4.25891E-001	  4.34078E-001	  4.88140E-001
  2.20000E-003	  4.88372E-001	  4.66748E-001	  4.63345E-001	  4.15418E-001
  2.40000E-003	  5.94809E-001	  3.79868E-001	  4.47851E-001	  4.77498E-001
  2.60000E-003	  4.39516E-001	  4.00310E-001	  4.63345E-001	  4.08324E-001
  2.80000E-003	  4.58709E-001	  4.49713E-001	  4.49572E-001	  4.31382E-001
  3.00000E-003	  3.83680E-001	  5.09337E-001	  4.23749E-001	  4.03003E-001
  3.20000E-003	  3.95916E-001	  4.51439E-001	  4.43542E-001	  4.24282E-001
  3.60000E-003	  3.87192E-001	  3.95221E-001	  4.25493E-001	  4.05658E-001
  4.00000E-003	  3.63636E-001	  4.58253E-001	  4.24632E-001	  4.05658E-001
  4.40000E-003	  4.15083E-001	  4.55698E-001	  4.38405E-001	  4.66851E-001
  4.80000E-003	  3.81058E-001	  3.95221E-001	  4.64229E-001	  4.88135E-001
  5.20000E-003	  3.58375E-001	  4.35283E-001	  4.47013E-001	  4.07432E-001
  5.60000E-003	  3.85420E-001	  4.13961E-001	  3.81592E-001	  4.32264E-001
  6.00000E-003	  3.67099E-001	  4.20775E-001	  4.09998E-001	  4.44680E-001
  6.40000E-003	  4.10738E-001	  4.10252E-001	  4.09558E-001	  4.22582E-001
  7.20000E-003	  3.67552E-001	  3.74900E-001	  3.85025E-001	  3.91097E-001
  8.00000E-003	  3.38326E-001	  3.70215E-001	  4.06545E-001	  3.77350E-001
  8.80000E-003	  3.68861E-001	  3.27196E-001	  4.33230E-001	  4.07061E-001
  9.60000E-003	  3.66680E-001	  4.17067E-001	  4.31939E-001	  4.20808E-001
  1.04000E-002	  3.37453E-001	  3.63400E-001	  3.88469E-001	  3.94644E-001
  1.12000E-002	  3.34810E-001	  3.55307E-001	  3.57049E-001	  3.91540E-001
  1.20000E-002	  3.67962E-001	  3.20782E-001	  4.06976E-001	  3.37440E-001
  1.28000E-002	  3.51856E-001	  3.47188E-001	  3.99210E-001	  3.73252E-001
  1.44000E-002	  3.58862E-001	  3.50809E-001	  3.67145E-001	  3.53960E-001
  1.60000E-002	  3.24425E-001	  3.51209E-001	  3.54233E-001	  3.52799E-001
  1.76000E-002	  3.39912E-001	  3.25199E-001	  3.25397E-001	  3.41712E-001
  1.92000E-002	  3.27697E-001	  3.06620E-001	  3.34866E-001	  3.54103E-001
  2.08000E-002	  3.14610E-001	  3.10666E-001	  3.33790E-001	  2.90910E-001
  2.24000E-002	  3.35985E-001	  2.75312E-001	  3.33144E-001	  3.14661E-001
  2.40000E-002	  3.01716E-001	  3.08750E-001	  3.29701E-001	  3.08009E-001
  2.56000E-002	  3.00615E-001	  2.97239E-001	  2.95093E-001	  3.17737E-001
  2.88000E-002	  2.95405E-001	  2.85072E-001	  2.86162E-001	  3.03766E-001
  3.20000E-002	  2.54617E-001	  2.52692E-001	  2.82504E-001	  2.93429E-001
  3.52000E-002	  2.35119E-001	  2.47024E-001	  2.84333E-001	  2.69035E-001
  3.84000E-002	  2.24867E-001	  2.26420E-001	  2.70883E-001	  2.77992E-001
  4.16000E-002	  1.95748E-001	  2.36089E-001	  2.51300E-001	  2.37029E-001
  4.48000E-002	  2.06109E-001	  2.16316E-001	  2.42201E-001	  2.16716E-001
  4.80000E-002	  1.98038E-001	  2.05667E-001	  2.10780E-001	  2.24389E-001
  5.12000E-002	  1.90362E-001	  1.91967E-001	  2.11838E-001	  2.10944E-001
  5.76000E-002	  1.73808E-001	  1.85019E-001	  2.08225E-001	  2.10200E-001
  6.40000E-002	  1.63393E-001	  1.60601E-001	  1.79840E-001	  1.60443E-001
  7.04000E-002	  1.42584E-001	  1.61751E-001	  1.61143E-001	  1.60088E-001
  7.68000E-002	  1.35059E-001	  1.28556E-001	  1.57268E-001	  1.45196E-001
  8.32000E-002	  1.06103E-001	  1.19001E-001	  1.26722E-001	  1.35915E-001
  8.96000E-002	  1.02831E-001	  1.15923E-001	  1.30866E-001	  1.28674E-001
  9.60000E-002	  9.48909E-002	  8.77197E-002	  1.10200E-001	  1.15802E-001
  1.02400E-001	  8.68694E-002	  8.89738E-002	  1.08054E-001	  1.03384E-001
  1.15200E-001	  7.57651E-002	  7.37692E-002	  9.54426E-002	  9.32082E-002
  1.28000E-001	  6.19131E-002	  6.99991E-002	  7.84925E-002	  8.06760E-002
  1.40800E-001	  4.98336E-002	  5.58813E-002	  5.87706E-002	  6.43454E-002
  1.53600E-001	  4.14351E-002	  4.57392E-002	  4.82486E-002	  5.34841E-002
  1.66400E-001	  4.01935E-002	  3.04692E-002	  4.07139E-002	  5.10239E-002
  1.79200E-001	  3.70230E-002	  3.26212E-002	  4.10239E-002	  2.85468E-002
  1.92000E-001	  2.81878E-002	  3.27824E-002	  3.34284E-002	  3.58182E-002
  2.04800E-001	  2.08811E-002	  3.42358E-002	  2.21581E-002	  3.20315E-002
  2.30400E-001	  2.15237E-002	  1.50529E-002	  1.69962E-002	  1.75178E-002
  2.56000E-001	  6.83181E-003	  1.34997E-002	  1.32742E-002	  1.33190E-002
  2.81600E-001	  1.45634E-002	  9.30374E-003	  2.48826E-003	  1.60204E-002
  3.07200E-001	 -1.27347E-003	  1.25625E-002	  2.54195E-004	  1.11872E-002
  3.32800E-001	  7.75083E-004	  5.22972E-003	 -1.71070E-003	  8.64740E-003
  3.58400E-001	  1.04297E-002	  1.20867E-004	  1.32899E-002	  3.38102E-003
  3.84000E-001	 -6.51491E-003	  4.92088E-004	  1.52022E-002	  9.10414E-003
  4.09600E-001	  2.95575E-003	  5.07779E-003	  9.72066E-003	  8.45417E-003
  4.60800E-001	  3.99808E-003	  1.37665E-002	  1.17453E-002	  8.04380E-003
  5.12000E-001	  3.43653E-003	  1.03944E-002	  1.65851E-002	  1.87914E-003
  5.63200E-001	 -1.94790E-003	  1.19245E-002	  9.41201E-003	 -7.94843E-003
  6.14400E-001	 -7.07249E-003	  1.16083E-002	  5.69320E-007	 -1.00218E-002
  6.65600E-001	  5.63097E-004	  5.09167E-003	  9.01272E-004	 -8.20189E-003
  7.16800E-001	  5.72009E-003	  4.90940E-003	 -5.95957E-004	 -5.20480E-003
  7.68000E-001	 -6.94231E-004	 -1.20091E-003	  8.24390E-003	 -4.35338E-003
  8.19200E-001	 -4.67725E-003	  2.15379E-003	  2.55258E-003	 -4.73651E-003
  9.21600E-001	  2.02049E-003	  6.92229E-003	  4.09064E-003	 -1.27764E-003
  1.02400E+000	  3.64487E-004	  1.57034E-003	  4.99928E-003	  2.87007E-004
  1.12640E+000	 -7.62512E-004	 -4.90604E-004	  6.31498E-003	 -6.42980E-003
  1.22880E+000	  2.11051E-003	 -2.56555E-003	  4.46451E-003	 -4.40413E-004
  1.33120E+000	  4.71633E-003	  8.85032E-005	 -2.66738E-003	  1.00682E-003
  1.43360E+000	  9.14188E-003	 -8.13915E-003	 -6.99118E-003	 -1.06261E-002
  1.53600E+000	 -4.37548E-003	 -5.93154E-003	  4.43450E-003	 -2.09328E-003
  1.63840E+000	  7.48370E-004	 -3.32707E-003	  1.52312E-003	 -5.48095E-003
  1.84320E+000	  8.46556E-003	 -6.32923E-003	  7.34320E-004	 -9.97785E-003
  2.04800E+000	  1.43407E-003	 -1.13274E-002	  5.81659E-003	 -3.48980E-003
  2.25280E+000	  1.04436E-002	 -1.07016E-002	 -1.19544E-002	  1.29670E-003
  2.45760E+000	  3.39410E-003	 -3.10126E-003	 -1.83263E-003	  5.35106E-003
  2.66240E+000	 -4.73391E-004	 -7.53611E-003	  4.64909E-004	 -4.71167E-003
  2.86720E+000	 -1.57209E-003	  3.96483E-003	  1.00648E-002	  1.43054E-003
  3.07200E+000	 -4.63266E-003	  3.71672E-003	  1.59859E-003	 -2.69742E-003
  3.27680E+000	  2.77128E-003	  4.58349E-003	  7.41289E-003	 -1.00420E-002
  3.68640E+000	 -5.62012E-004	 -2.60400E-003	  4.17926E-004	  7.44784E-005
  4.09600E+000	 -3.87319E-003	  8.53041E-004	 -2.91311E-003	  4.84734E-003
  4.50560E+000	  1.72174E-003	  3.71440E-003	 -4.39388E-003	  1.76328E-003
  4.91520E+000	 -1.38145E-003	  3.86032E-003	 -2.81691E-003	  1.79145E-003
  5.32480E+000	 -1.77858E-003	 -3.48674E-003	  1.15140E-003	  5.01803E-003
  5.73440E+000	 -7.40642E-004	 -1.86570E-003	 -3.73183E-003	 -5.10177E-004
  6.14400E+000	 -5.23791E-003	 -1.30090E-003	  6.59628E-003	 -1.64978E-003
  6.55360E+000	 -3.33685E-003	  1.75276E-003	  1.27812E-003	 -3.02370E-003
  7.37280E+000	 -1.02355E-003	  1.98771E-003	 -3.62834E-003	 -4.86214E-003
  8.19200E+000	 -4.05169E-003	  1.90156E-003	  1.15951E-003	  7.77113E-004
  9.01120E+000	 -1.69263E-003	 -8.49107E-004	 -3.65167E-003	 -4.15160E-003
  9.83040E+000	  4.05854E-003	  7.76910E-005	 -6.79477E-004	 -4.40942E-004
  1.06496E+001	  8.73308E-004	 -3.04822E-004	  5.84758E-003	 -2.97638E-003
  1.14688E+001	  3.11695E-003	 -1.53604E-003	  2.04216E-003	 -3.81724E-003
  1.22880E+001	  1.33916E-003	  2.61166E-004	 -2.63210E-003	 -4.22001E-003
  1.31072E+001	  9.62383E-004	 -2.04423E-003	 -3.85476E-003	 -1.31087E-003
  1.47456E+001	 -1.27072E-003	 -5.24951E-004	 -2.95919E-003	  1.68195E-003
  1.63840E+001	 -4.09678E-003	  2.16501E-004	 -1.59278E-003	 -4.58137E-004
  1.80224E+001	  1.96767E-003	  4.78803E-003	  2.98906E-003	  2.36776E-003
  1.96608E+001	  2.47965E-003	  1.59488E-003	  1.02937E-003	  1.22686E-003
  2.12992E+001	  4.56108E-003	  3.89126E-003	 -3.60597E-003	 -1.70207E-003
  2.29376E+001	  5.07947E-003	 -6.78286E-004	 -7.55747E-004	  8.06283E-004
  2.45760E+001	  1.46004E-004	 -4.92172E-004	  9.94256E-004	 -1.96679E-003
  2.62144E+001	 -1.61632E-003	 -1.15132E-003	  1.66409E-003	 -3.30184E-003
  2.94912E+001	 -3.96843E-003	  3.75672E-003	 -2.61643E-004	 -1.09290E-003
  3.27680E+001	  8.26364E-004	 -1.90123E-003	 -2.42135E-003	  4.59509E-004
  3.60448E+001	 -8.81655E-004	  5.23905E-004	  2.27143E-003	  2.64999E-003
  3.93216E+001	  5.62236E-005	 -4.16169E-004	 -1.59110E-003	  3.14933E-003
  4.25984E+001	 -4.31147E-004	  5.73519E-004	  2.09825E-003	 -2.15614E-004
  4.58752E+001	 -1.31352E-003	  6.58991E-004	  4.07151E-003	 -1.70127E-003
  4.91520E+001	  5.86348E-004	 -1.09864E-003	  6.45173E-004	 -1.61835E-003
  5.24288E+001	  2.56038E-004	 -4.04845E-004	  8.93935E-004	  1.18656E-003
  5.89824E+001	 -1.60703E-003	  3.46585E-004	 -1.10943E-003	  1.54365E-003
  6.55360E+001	  1.08152E-003	 -4.91805E-004	 -8.46718E-004	 -4.53010E-004
  7.20896E+001	  1.09901E-003	  3.22877E-004	  6.81601E-004	 -1.76608E-003
  7.86432E+001	 -1.76037E-003	 -2.03236E-004	  1.29230E-003	  1.33371E-003
  8.51968E+001	  6.06273E-004	 -1.96129E-003	  2.61613E-004	 -1.13492E-003
  9.17504E+001	  8.96944E-004	  2.80792E-004	 -9.49214E-004	 -8.72021E-004
  9.83040E+001	 -5.83718E-004	 -5.71987E-004	  9.35305E-005	  3.86598E-004
  1.04858E+002	 -3.89393E-005	  1.50995E-004	 -1.19437E-003	 -1.65859E-004
  1.17965E+002	  3.82737E-005	 -2.51339E-004	 -8.06285E-004	  2.40754E-004
  1.31072E+002	 -9.66323E-005	  7.83111E-004	  7.33911E-004	 -1.07151E-003
  1.44179E+002	  2.30214E-004	 -6.63931E-004	 -6.74212E-004	 -4.78577E-004
  1.57286E+002	 -7.52419E-005	  7.29163E-004	  2.84918E-004	 -7.94058E-004
  1.70394E+002	  8.65372E-005	 -4.17021E-004	 -2.18800E-004	  5.63092E-005
  1.83501E+002	 -2.83870E-004	 -5.15150E-004	 -1.34324E-004	 -8.73991E-004
  1.96608E+002	  5.41091E-005	 -1.13401E-003	 -5.08159E-004	 -3.08823E-004
  2.09715E+002	 -5.88703E-004	 -4.72239E-004	  5.39020E-004	  7.67250E-004
  2.35930E+002	 -1.16043E-003	 -3.38025E-004	 -6.39406E-004	 -7.35869E-004
  2.62144E+002	  1.30716E-003	  3.66539E-004	  2.88423E-004	  6.36976E-004
  2.88358E+002	 -1.45838E-003	  4.44980E-004	 -8.72360E-004	  2.50722E-004
  3.14573E+002	  2.30230E-004	  4.76412E-004	  4.23001E-004	  9.18798E-004
  3.40787E+002	  3.80168E-004	 -9.67522E-004	 -4.03557E-004	 -6.36964E-005
  3.67002E+002	 -9.85840E-004	 -1.19025E-003	  1.26840E-004	  7.80623E-004
  3.93216E+002	  1.14984E-003	 -7.88724E-004	 -1.73238E-004	 -7.76854E-004

"Count Rate"
       0.01311	      45.62378	      58.13599	      49.28589	      55.99976
       0.02621	      49.66736	      56.76270	      59.43298	      58.89893
       0.03932	      52.49023	      59.05151	      50.12512	      56.83899
       0.05243	      54.09241	      49.43848	      54.01611	      48.37036
       0.06554	      49.66736	      54.47388	      68.13049	      53.63464
       0.07864	      52.26135	      48.29407	      46.08154	      46.15784
       0.09175	      60.27222	      45.47119	      59.89075	      59.96704
       0.10486	      47.98889	      51.72729	      56.38123	      51.95618
       0.11796	      49.51477	      51.80359	      62.02698	      46.61560
       0.13107	      46.53931	      59.58557	      57.22046	      61.03516
       0.14418	      56.38123	      58.67004	      62.71362	      50.58289
       0.15729	      49.36218	      53.63464	      53.25317	      55.46570
       0.17039	      64.46838	      55.77087	      53.63464	      49.97253
       0.18350	      58.21228	      62.71362	      57.44934	      53.10059
       0.19661	      51.80359	      53.93982	      54.32129	      52.18506
       0.20972	      47.53113	      58.36487	      48.21777	      60.04333
       0.22282	      56.45752	      56.15234	      57.98340	      50.58289
       0.23593	      51.65100	      43.33496	      55.92346	      55.61829
       0.24904	      54.55017	      55.92346	      59.28040	      55.77087
       0.26214	      51.42212	      58.74634	      48.21777	      57.52563
       0.27525	      56.07605	      58.59375	      55.99976	      54.93164
       0.28836	      53.02429	      54.32129	      48.67554	      53.32947
       0.30147	      59.28040	      59.35669	      49.51477	      60.72998
       0.31457	      57.67822	      59.81445	      61.11145	      53.71094
       0.32768	      52.26135	      56.76270	      54.47388	      53.86353
       0.34079	      57.37305	      53.25317	      47.91260	      56.22864
       0.35389	      47.45483	      54.55017	      57.29675	      49.89624
       0.36700	      55.46570	      54.62646	      52.41394	      49.51477
       0.38011	      53.02429	      55.00793	      47.76001	      52.18506
       0.39322	      56.61011	      50.43030	      60.50110	      51.26953
       0.40632	      50.88806	      50.04883	      58.97522	      52.94800
       0.41943	      53.55835	      53.63464	      53.32947	      55.69458
       0.43254	      55.99976	      59.73816	      55.31311	      50.58289
       0.44564	      55.77087	      57.60193	      54.77905	      52.71912
       0.45875	      53.10059	      57.83081	      56.15234	      54.47388
       0.47186	      46.92078	      60.80627	      51.87988	      50.35400
       0.48497	      57.14417	      51.65100	      58.74634	      55.54199
       0.49807	      61.56921	      57.14417	      51.65100	      59.50928
       0.51118	      56.45752	      52.79541	      50.65918	      53.17688
       0.52429	      53.32947	      53.71094	      52.33765	      58.89893
       0.53740	      52.18506	      58.74634	      54.47388	      52.18506
       0.55050	      58.28857	      50.12512	      59.58557	      49.59106
       0.56361	      62.56104	      58.13599	      57.29675	      54.39758
       0.57672	      58.82263	      52.10876	      52.94800	      60.34851
       0.58982	      61.11145	      50.50659	      57.22046	      49.13330
       0.60293	      56.76270	      51.49841	      62.33215	      51.95618
       0.61604	      52.33765	      52.10876	      60.88257	      58.82263
       0.62915	      51.57471	      51.42212	      53.32947	      61.56921
       0.64225	      56.38123	      48.52295	      54.09241	      50.27771
       0.65536	      52.87170	      49.51477	      52.79541	      48.21777
       0.66847	      58.89893	      57.06787	      55.84717	      50.12512
       0.68157	      51.42212	      51.11694	      55.08423	      55.61829
       0.69468	      51.04065	      58.44116	      51.87988	      49.66736
       0.70779	      59.81445	      45.16602	      50.43030	      51.57471
       0.72090	      49.13330	      53.17688	      55.84717	      49.43848
       0.73400	      57.06787	      52.79541	      46.08154	      49.66736
       0.74711	      56.76270	      56.53381	      52.49023	      55.46570
