ALV-7004/USB-FAST
Date :	"11/11/2025"
Time :	"4:00:05 PM"
Samplename : 	""
SampMemo(0) : 	""
SampMemo(1) : 	""
SampMemo(2) : 	""
SampMemo(3) : 	""
SampMemo(4) : 	""
SampMemo(5) : 	""
SampMemo(6) : 	""
SampMemo(7) : 	""
SampMemo(8) : 	""
SampMemo(9) : 	""
Temperature [K] :	     298.16000
Viscosity [cp]  :	       0.89000
Refractive Index:	       1.33200
Wavelength [nm] :	       0.00000
Angle [°]       :	       0.00000
Duration [s]    :	         1
FloatDur [ms]   :	          944
Stop TP [ms]   :	     68502
Runs            :	         1
Mode            :	"A-CH0+1  A-CH2+3 "
MeanCR0 [kHz]   :	      56.75952
MeanCR1 [kHz]   :	      57.79161
MeanCR2 [kHz]   :	      56.71077
MeanCR3 [kHz]   :	      55.52610

"Correlation"
  3.12500E-006	 -1.00000E+000	 -1.00000E+000	 -1.00000E+000	 -1.00000E+000
  6.25000E-006	 -1.00000E+000	 -1.00000E+000	 -1.00000E+000	 -1.00000E+000
  9.37500E-006	 -1.00000E+000	 -1.00000E+000	 -1.00000E+000	 -1.00000E+000
  1.25000E-005	 -1.00000E+000	 -1.00000E+000	 -1.00000E+000	 -1.00000E+000
  1.56250E-005	 -1.00000E+000	 -1.00000E+000	 -1.00000E+000	 -1.00000E+000
  1.87500E-005	 -1.00000E+000	 -1.00000E+000	 -1.00000E+000	 -1.00000E+000
  2.18750E-005	 -8.94748E-001	  3.19840E-001	  8.97793E-001	 -8.90020E-001
  2.50000E-005	  1.21565E+001	  1.36198E+001	  1.19683E+001	  2.45153E+001
  2.81250E-005	  2.78907E+000	  2.14731E+000	  1.95212E+000	  6.25867E+000
  3.12500E-005	  9.99787E-001	  8.27471E-001	  1.42496E+000	  4.49899E+000
  3.43750E-005	  1.21029E+000	  1.03052E+000	  8.97793E-001	  4.05907E+000
  3.75000E-005	  1.10504E+000	  1.33510E+000	  6.86927E-001	  3.50917E+000
  4.06250E-005	  1.21029E+000	  6.24419E-001	  1.95212E+000	  3.50917E+000
  4.37500E-005	  8.94535E-001	  6.24419E-001	  8.97793E-001	  3.50917E+000
  4.68750E-005	  1.10504E+000	  3.19840E-001	  7.92360E-001	  1.52954E+000
  5.00000E-005	  8.94535E-001	  7.25945E-001	  4.76061E-001	  1.41956E+000
  5.62500E-005	  1.10504E+000	  2.69077E-001	  8.45077E-001	  1.36457E+000
  6.25000E-005	  8.94535E-001	  5.22893E-001	  7.39644E-001	  1.19960E+000
  6.87500E-005	  6.84031E-001	  3.70603E-001	  8.45077E-001	  1.08962E+000
  7.50000E-005	  5.78779E-001	  4.21366E-001	  3.17912E-001	  1.36457E+000
  8.12500E-005	  4.20901E-001	  6.75182E-001	  7.92360E-001	  1.03463E+000
  8.75000E-005	  1.05145E-001	  7.25945E-001	  5.28778E-001	  1.36457E+000
  9.37500E-005	 -1.06508E-004	  1.38587E+000	  6.34211E-001	  6.49698E-001
  1.00000E-004	  4.20901E-001	  4.46748E-001	  4.49703E-001	  5.67213E-001
  1.12500E-004	  6.57718E-001	  9.14062E-002	  6.34211E-001	  1.06212E+000
  1.25000E-004	  9.47161E-001	  8.02089E-001	  3.96986E-001	  5.94708E-001
  1.37500E-004	  8.15596E-001	  3.45222E-001	  7.66002E-001	  8.14668E-001
  1.50000E-004	  4.73527E-001	  5.73655E-001	  5.55136E-001	  6.49698E-001
  1.62500E-004	  5.52466E-001	  7.51326E-001	  6.07852E-001	  6.22203E-001
  1.75000E-004	  6.31405E-001	  3.45222E-001	  3.44270E-001	  5.67213E-001
  1.87500E-004	  4.20901E-001	  3.95985E-001	  4.23345E-001	  4.29738E-001
  2.00000E-004	  4.34057E-001	  2.81768E-001	  6.60568E-001	  4.29738E-001
  2.25000E-004	  5.12996E-001	  6.24418E-001	  7.13285E-001	  3.74748E-001
  2.50000E-004	  5.26153E-001	  3.57912E-001	  5.41956E-001	  4.98475E-001
  2.75000E-004	  5.39309E-001	  5.48274E-001	  3.17912E-001	  6.35950E-001
  3.00000E-004	  5.52466E-001	  6.62491E-001	  6.07852E-001	  4.29738E-001
  3.25000E-004	  3.94588E-001	  8.14780E-001	  4.10165E-001	  4.02243E-001
  3.50000E-004	  2.89336E-001	  5.60964E-001	  3.44270E-001	  4.57233E-001
  3.75000E-004	  3.15649E-001	  3.07149E-001	  4.62882E-001	  4.57233E-001
  4.00000E-004	  4.14322E-001	  4.02329E-001	  5.22187E-001	  4.98475E-001
  4.50000E-004	  5.78778E-001	  5.80000E-001	  3.83806E-001	  5.60338E-001
  5.00000E-004	  6.18247E-001	  6.24418E-001	  4.89239E-001	  3.74747E-001
  5.50000E-004	  6.37982E-001	  4.53092E-001	  4.29933E-001	  6.01581E-001
  6.00000E-004	  4.73526E-001	  4.46747E-001	  4.23344E-001	  4.77853E-001
  6.50000E-004	  5.65622E-001	  4.78474E-001	  4.49702E-001	  3.06010E-001
  7.00000E-004	  5.12996E-001	  5.22891E-001	  4.69471E-001	  4.77853E-001
  7.50000E-004	  3.81431E-001	  5.10201E-001	  3.57448E-001	  4.84727E-001
  8.00000E-004	  3.45249E-001	  5.19745E-001	  3.50858E-001	  4.60668E-001
  9.00000E-004	  4.47212E-001	  4.40427E-001	  5.65018E-001	  3.36941E-001
  1.00000E-003	  4.63658E-001	  5.38782E-001	  4.52996E-001	  4.60668E-001
  1.10000E-003	  4.27477E-001	  4.43599E-001	  4.26637E-001	  3.95367E-001
  1.20000E-003	  4.66947E-001	  4.24563E-001	  5.25481E-001	  3.74746E-001
  1.30000E-003	  4.07743E-001	  5.67337E-001	  3.60742E-001	  3.91931E-001
  1.40000E-003	  3.38671E-001	  4.72154E-001	  3.21205E-001	  2.95698E-001
  1.50000E-003	  4.37345E-001	  4.08699E-001	  3.87100E-001	  4.53794E-001
  1.60000E-003	  4.43920E-001	  4.49969E-001	  4.05219E-001	  5.00189E-001
  1.80000E-003	  5.14636E-001	  4.08697E-001	  3.40971E-001	  3.90210E-001
  2.00000E-003	  4.96546E-001	  4.86429E-001	  3.95335E-001	  3.86773E-001
  2.20000E-003	  4.22541E-001	  4.76911E-001	  3.60740E-001	  4.03957E-001
  2.40000E-003	  3.66626E-001	  4.94361E-001	  5.22183E-001	  4.40044E-001
  2.60000E-003	  4.01162E-001	  4.08697E-001	  3.31087E-001	  3.83336E-001
  2.80000E-003	  5.52461E-001	  4.61047E-001	  3.34381E-001	  4.28015E-001
  3.00000E-003	  4.06096E-001	  3.94420E-001	  4.21693E-001	  4.74413E-001
  3.20000E-003	  4.17603E-001	  3.94440E-001	  4.19243E-001	  4.83887E-001
  3.60000E-003	  4.33226E-001	  4.70587E-001	  3.78882E-001	  3.85935E-001
  4.00000E-003	  4.17603E-001	  4.51551E-001	  3.77234E-001	  3.89372E-001
  4.40000E-003	  3.70733E-001	  4.21409E-001	  4.17596E-001	  3.85935E-001
  4.80000E-003	  4.13491E-001	  4.23789E-001	  4.20067E-001	  4.77873E-001
  5.20000E-003	  3.76489E-001	  4.58663E-001	  4.03593E-001	  3.79062E-001
  5.60000E-003	  3.76489E-001	  4.24556E-001	  3.83824E-001	  3.85076E-001
  6.00000E-003	  4.08558E-001	  4.80078E-001	  4.53015E-001	  3.69610E-001
  6.40000E-003	  4.15949E-001	  4.22641E-001	  3.82605E-001	  3.36572E-001
  7.20000E-003	  3.93747E-001	  4.54370E-001	  4.04433E-001	  3.60201E-001
  8.00000E-003	  3.87580E-001	  4.29780E-001	  3.95373E-001	  3.88960E-001
  8.80000E-003	  3.53045E-001	  3.96465E-001	  3.76401E-001	  3.54161E-001
  9.60000E-003	  3.89225E-001	  3.92499E-001	  3.94523E-001	  3.30102E-001
  1.04000E-002	  3.63323E-001	  3.83377E-001	  3.59927E-001	  3.73064E-001
  1.12000E-002	  3.44000E-001	  4.09950E-001	  3.59927E-001	  3.38694E-001
  1.20000E-002	  3.62501E-001	  3.67884E-001	  3.69400E-001	  3.69627E-001
  1.28000E-002	  3.55569E-001	  3.79692E-001	  3.74761E-001	  3.56127E-001
  1.44000E-002	  3.61325E-001	  3.65189E-001	  3.86911E-001	  3.35909E-001
  1.60000E-002	  3.60503E-001	  3.71139E-001	  3.14425E-001	  3.70923E-001
  1.76000E-002	  3.30283E-001	  3.60430E-001	  3.05982E-001	  2.91014E-001
  1.92000E-002	  3.61120E-001	  3.33237E-001	  3.04334E-001	  3.10132E-001
  2.08000E-002	  3.41179E-001	  3.43549E-001	  3.13395E-001	  3.06240E-001
  2.24000E-002	  3.23088E-001	  3.36806E-001	  3.28815E-001	  3.32017E-001
  2.40000E-002	  3.20416E-001	  3.42557E-001	  3.14606E-001	  2.78745E-001
  2.56000E-002	  3.09069E-001	  3.36495E-001	  2.99254E-001	  2.67852E-001
  2.88000E-002	  2.72783E-001	  3.07835E-001	  2.77426E-001	  2.83236E-001
  3.20000E-002	  2.83781E-001	  2.88077E-001	  2.68469E-001	  2.79262E-001
  3.52000E-002	  2.92906E-001	  2.61675E-001	  2.71146E-001	  3.01174E-001
  3.84000E-002	  2.33470E-001	  2.85277E-001	  2.58379E-001	  2.46526E-001
  4.16000E-002	  2.66489E-001	  2.50645E-001	  2.41105E-001	  2.41239E-001
  4.48000E-002	  2.41716E-001	  2.65123E-001	  2.49033E-001	  2.48650E-001
  4.80000E-002	  2.38735E-001	  2.47769E-001	  2.16989E-001	  2.17800E-001
  5.12000E-002	  2.20354E-001	  2.31914E-001	  2.16688E-001	  2.19132E-001
  5.76000E-002	  2.13981E-001	  2.26310E-001	  2.13085E-001	  2.02643E-001
  6.40000E-002	  1.86219E-001	  2.10569E-001	  1.86522E-001	  1.75735E-001
  7.04000E-002	  1.75351E-001	  1.88183E-001	  1.85029E-001	  1.63597E-001
  7.68000E-002	  1.67972E-001	  1.85192E-001	  1.72108E-001	  1.49020E-001
  8.32000E-002	  1.55070E-001	  1.76444E-001	  1.31976E-001	  1.33520E-001
  8.96000E-002	  1.40884E-001	  1.59267E-001	  1.22453E-001	  1.35937E-001
  9.60000E-002	  1.20005E-001	  1.47078E-001	  1.31564E-001	  1.35400E-001
  1.02400E-001	  1.21234E-001	  1.33484E-001	  1.19965E-001	  1.13531E-001
  1.15200E-001	  1.04018E-001	  1.17122E-001	  1.04753E-001	  9.16160E-002
  1.28000E-001	  8.37909E-002	  9.31148E-002	  9.54094E-002	  8.80112E-002
  1.40800E-001	  7.58434E-002	  8.31713E-002	  7.61822E-002	  7.06619E-002
  1.53600E-001	  6.38346E-002	  7.09166E-002	  7.37112E-002	  6.05973E-002
  1.66400E-001	  5.59696E-002	  7.05002E-002	  6.91554E-002	  6.30615E-002
  1.79200E-001	  5.40479E-002	  6.58542E-002	  5.98635E-002	  4.67734E-002
  1.92000E-001	  4.72748E-002	  4.70457E-002	  4.31268E-002	  4.60007E-002
  2.04800E-001	  4.22135E-002	  4.78162E-002	  4.60424E-002	  2.88732E-002
  2.30400E-001	  3.65652E-002	  3.03846E-002	  4.37898E-002	  2.43323E-002
  2.56000E-001	  2.30124E-002	  2.85812E-002	  3.17831E-002	  1.72732E-002
  2.81600E-001	  2.44456E-002	  2.41732E-002	  1.88436E-002	  1.85687E-002
  3.07200E-001	  2.07118E-002	  1.25590E-002	  1.48164E-002	  1.46137E-002
  3.32800E-001	  1.41835E-002	  1.42706E-002	  9.37309E-003	  1.13363E-002
  3.58400E-001	  1.06620E-002	  1.02829E-002	  1.11035E-002	  9.14100E-003
  3.84000E-001	  8.13618E-003	  9.45829E-003	  1.05115E-002	  5.65869E-004
  4.09600E-001	  8.06685E-003	  8.99035E-003	  1.13660E-002	  6.46521E-003
  4.60800E-001	  1.57001E-003	  8.99017E-003	  3.57836E-003	  5.63386E-003
  5.12000E-001	 -3.86190E-003	  1.87320E-003	  1.79459E-003	  1.05788E-003
  5.63200E-001	 -5.21882E-003	 -5.12667E-003	  3.52468E-003	  2.13972E-003
  6.14400E-001	 -1.69769E-003	 -3.01628E-003	  2.07660E-003	 -2.19216E-003
  6.65600E-001	 -6.25157E-003	 -1.02862E-002	  2.42414E-003	 -7.63905E-003
  7.16800E-001	 -1.43937E-004	 -8.24418E-003	  8.95703E-003	 -9.40491E-003
  7.68000E-001	 -1.21684E-003	 -9.90068E-003	  2.60682E-003	 -2.71182E-003
  8.19200E-001	  4.34202E-003	 -1.45898E-002	  6.22715E-003	 -5.38411E-003
  9.21600E-001	  4.63283E-003	 -7.53331E-003	  7.25434E-003	 -3.97588E-003
  1.02400E+000	  5.32410E-003	 -1.42614E-003	  3.60496E-003	  2.78958E-003
  1.12640E+000	  9.57014E-003	 -4.73825E-004	 -4.95649E-004	  5.51561E-003
  1.22880E+000	  7.76073E-003	 -6.24798E-003	 -2.99980E-004	  6.89146E-003
  1.33120E+000	  9.38897E-003	 -3.52551E-003	  1.62806E-003	  3.25162E-003
  1.43360E+000	  8.71267E-003	 -2.51865E-005	  5.24261E-003	 -2.38516E-003
  1.53600E+000	  1.97437E-003	  2.05078E-003	  3.81744E-003	 -3.55223E-003
  1.63840E+000	 -1.99466E-003	  4.84032E-003	  2.29901E-003	 -3.86460E-003
  1.84320E+000	  3.62984E-003	  4.15774E-003	 -5.60401E-003	 -2.88708E-003
  2.04800E+000	 -6.46663E-003	 -6.62731E-003	  1.76575E-003	  3.01573E-003
  2.25280E+000	 -1.84033E-003	  5.97887E-003	 -7.68020E-003	  3.07938E-004
  2.45760E+000	  1.71709E-003	  1.40223E-002	  4.75765E-003	  2.16271E-003
  2.66240E+000	 -1.06347E-003	  1.21550E-003	  3.96587E-003	  3.49681E-003
  2.86720E+000	  3.01013E-003	  2.56056E-004	  9.31409E-005	  1.59962E-004
  3.07200E+000	  2.14160E-003	 -1.39703E-002	  4.76097E-004	  3.23635E-003
  3.27680E+000	  3.66291E-003	 -4.63027E-003	  2.76919E-003	  3.22329E-003
  3.68640E+000	  9.92119E-004	 -6.52794E-003	 -1.01195E-002	 -1.87231E-003
  4.09600E+000	  5.67122E-003	 -3.97035E-003	 -7.07396E-003	  8.96331E-003
  4.50560E+000	  6.15309E-003	 -1.89166E-003	  1.06443E-003	  1.42985E-003
  4.91520E+000	 -6.64446E-004	 -3.19082E-003	  5.47349E-003	 -2.63508E-003
  5.32480E+000	  1.34936E-003	 -7.08841E-003	 -1.97185E-003	 -3.97373E-003
  5.73440E+000	  1.17207E-003	 -8.59412E-004	 -9.08813E-004	  5.65279E-003
  6.14400E+000	 -2.16535E-003	 -1.86686E-003	 -4.76777E-003	  3.54642E-003
  6.55360E+000	 -2.36537E-003	  6.29664E-004	 -1.72401E-003	  2.56686E-003
  7.37280E+000	 -3.38755E-003	  9.05291E-004	 -1.44225E-003	  3.11373E-003
  8.19200E+000	 -3.61743E-003	 -1.44662E-003	 -6.82397E-004	 -6.15542E-004
  9.01120E+000	 -1.49817E-003	  4.42181E-003	 -2.03027E-003	 -4.35764E-004
  9.83040E+000	 -2.76412E-003	  2.80583E-003	 -1.30689E-003	 -1.87578E-003
  1.06496E+001	 -6.11229E-003	  3.38781E-004	 -3.71623E-003	 -2.65898E-003
  1.14688E+001	 -1.32664E-003	 -2.50025E-003	  9.85943E-004	  3.91452E-004
  1.22880E+001	  3.05307E-003	 -3.35699E-003	  5.79658E-004	  4.28117E-003
  1.31072E+001	 -4.94198E-004	 -2.25648E-004	 -9.18931E-004	  3.22260E-003
  1.47456E+001	 -1.27337E-003	  4.30936E-004	 -7.92019E-003	 -5.92393E-005
  1.63840E+001	  2.12454E-003	 -2.16279E-003	  1.14388E-004	 -9.68187E-004
  1.80224E+001	 -1.21854E-003	  3.44363E-003	  2.90594E-003	  2.62492E-003
  1.96608E+001	  6.00943E-003	 -1.49030E-003	  8.93815E-004	  1.94376E-004
  2.12992E+001	  1.89391E-003	 -4.58396E-004	 -9.93464E-004	  2.56426E-003
  2.29376E+001	 -1.07028E-003	 -3.87585E-003	  2.16029E-004	  3.26475E-004
  2.45760E+001	 -1.24273E-003	  2.10245E-003	  2.44277E-003	  2.21218E-003
  2.62144E+001	 -3.75778E-003	  2.06267E-003	 -1.53444E-003	  4.16276E-004
  2.94912E+001	 -4.29452E-003	  2.10843E-003	  2.97834E-003	 -3.64083E-003
  3.27680E+001	  4.64572E-004	 -3.16561E-003	  1.38468E-003	  1.13055E-003
  3.60448E+001	  2.63412E-003	  3.97641E-003	  1.57793E-003	  1.25221E-003
  3.93216E+001	  1.43325E-003	  7.79237E-005	  2.14588E-003	 -4.98461E-004
  4.25984E+001	  5.54515E-004	  6.55462E-004	 -2.14991E-004	 -1.83793E-004
  4.58752E+001	 -3.33886E-004	  1.15203E-003	 -3.73315E-003	 -8.55288E-004
  4.91520E+001	 -9.82854E-004	 -1.20959E-003	 -1.90971E-003	 -1.66983E-004
  5.24288E+001	 -2.74876E-004	 -1.30959E-003	  3.69426E-004	  3.87500E-004
  5.89824E+001	  8.62359E-004	  9.75381E-004	  1.10288E-003	 -5.52193E-004
  6.55360E+001	  1.89583E-003	 -2.70340E-004	  1.02512E-003	 -1.01831E-003
  7.20896E+001	 -1.01686E-003	 -1.52970E-003	 -1.65693E-003	  1.41827E-003
  7.86432E+001	 -4.14904E-004	 -8.19150E-004	 -6.73015E-004	  4.63052E-004
  8.51968E+001	 -2.49112E-004	  1.47908E-003	  1.35385E-003	  6.34684E-004
  9.17504E+001	 -1.16237E-003	 -8.08995E-004	  4.00892E-004	  3.38552E-003
  9.83040E+001	  2.50346E-004	 -9.04666E-004	  7.94342E-004	  2.57884E-003
  1.04858E+002	  1.03440E-003	 -7.92130E-004	 -5.64705E-004	  9.71736E-004
  1.17965E+002	 -6.61973E-004	  4.68709E-004	 -3.57358E-004	 -1.37980E-003
  1.31072E+002	  1.12367E-003	 -5.18628E-004	  5.94680E-004	  4.46366E-004
  1.44179E+002	 -8.46935E-004	  3.70906E-004	  5.26248E-004	  1.06437E-003
  1.57286E+002	 -1.63894E-003	 -1.51511E-003	 -1.90158E-003	 -2.15768E-004
  1.70394E+002	 -6.21851E-004	 -4.76259E-004	  2.01670E-003	 -5.29554E-005
  1.83501E+002	 -1.17392E-003	 -6.03450E-004	 -6.77955E-004	  1.01637E-003
  1.96608E+002	  1.58766E-004	  1.65417E-005	 -1.40665E-003	 -9.88531E-004
  2.09715E+002	 -1.00425E-003	  5.14342E-004	 -3.69390E-004	 -1.50621E-003
  2.35930E+002	 -7.35538E-004	  6.81576E-004	 -3.79811E-004	  1.13436E-004
  2.62144E+002	  3.60740E-005	  6.92336E-004	  6.87688E-004	  3.26024E-004
  2.88358E+002	 -8.65691E-004	  2.15428E-004	 -3.74622E-004	 -1.44815E-003
  3.14573E+002	  4.24547E-004	 -6.46730E-005	 -5.93567E-004	 -1.65229E-003
  3.40787E+002	 -1.19504E-003	  1.97976E-004	  5.76402E-004	  8.84599E-004
  3.67002E+002	  2.04410E-003	  3.31341E-004	 -5.93035E-005	  4.86956E-004
  3.93216E+002	 -4.25737E-004	 -5.78565E-004	  4.79511E-004	  5.44110E-005

"Count Rate"
       0.01311	      51.87988	      56.76270	      62.56104	      60.72998
       0.02621	      63.62915	      56.68640	      46.38672	      55.92346
       0.03932	      58.97522	      58.59375	      60.11963	      48.29407
       0.05243	      54.77905	      54.09241	      54.77905	      53.86353
       0.06554	      53.02429	      56.38123	      51.11694	      49.05701
       0.07864	      61.56921	      61.64551	      53.48206	      62.17957
       0.09175	      52.49023	      60.57739	      55.00793	      47.91260
       0.10486	      51.95618	      60.11963	      58.05969	      54.24500
       0.11796	      53.78723	      56.53381	      52.56653	      52.64282
       0.13107	      56.53381	      59.28040	      56.83899	      54.62646
       0.14418	      53.10059	      55.46570	      55.77087	      57.06787
       0.15729	      55.46570	      57.75452	      55.77087	      55.00793
       0.17039	      52.33765	      51.04065	      62.63733	      58.44116
       0.18350	      56.53381	      58.97522	      60.95886	      50.20142
       0.19661	      52.94800	      49.74365	      53.71094	      44.25049
       0.20972	      62.78992	      54.16870	      63.93433	      52.18506
       0.22282	      49.28589	      55.92346	      48.82813	      59.66187
       0.23593	      60.50110	      54.70276	      58.28857	      49.05701
       0.24904	      63.78174	      58.36487	      48.98071	      55.46570
       0.26214	      55.84717	      43.41125	      60.80627	      57.22046
       0.27525	      61.56921	      64.08691	      54.62646	      52.33765
       0.28836	      65.00244	      54.24500	      52.03247	      47.22595
       0.30147	      56.91528	      58.82263	      69.50378	      61.49292
       0.31457	      55.69458	      58.44116	      53.71094	      57.14417
       0.32768	      50.65918	      59.28040	      59.05151	      49.66736
       0.34079	      61.26404	      53.17688	      61.26404	      51.65100
       0.35389	      55.69458	      52.03247	      58.05969	      53.86353
       0.36700	      55.61829	      54.47388	      53.63464	      51.19324
       0.38011	      56.99158	      56.83899	      62.02698	      49.66736
       0.39322	      54.01611	      54.62646	      50.96436	      58.82263
       0.40632	      52.71912	      53.32947	      55.16052	      58.51746
       0.41943	      55.92346	      63.85803	      56.07605	      46.15784
       0.43254	      57.98340	      57.14417	      56.22864	      46.31042
       0.44564	      55.16052	      62.02698	      62.33215	      44.02161
       0.45875	      47.37854	      59.20410	      45.85266	      54.09241
       0.47186	      48.67554	      49.74365	      56.53381	      53.63464
       0.48497	      64.77356	      63.24768	      51.49841	      61.49292
       0.49807	      53.25317	      49.74365	      51.65100	      57.60193
       0.51118	      50.04883	      56.07605	      62.56104	      63.17139
       0.52429	      51.26953	      65.38391	      51.49841	      49.97253
       0.53740	      52.94800	      52.10876	      48.52295	      53.40576
       0.55050	      62.56104	      65.07874	      52.64282	      51.72729
       0.56361	      53.32947	      62.02698	      57.75452	      53.25317
       0.57672	      53.17688	      54.32129	      54.77905	      54.62646
       0.58982	      56.30493	      55.77087	      56.68640	      59.43298
       0.60293	      52.64282	      59.58557	      55.46570	      57.60193
       0.61604	      62.63733	      53.10059	      62.33215	      57.06787
       0.62915	      51.57471	      52.41394	      47.60742	      53.71094
       0.64225	      54.09241	      63.40027	      52.56653	      62.33215
       0.65536	      59.50928	      56.83899	      60.04333	      57.90710
       0.66847	      56.07605	      52.49023	      60.57739	      62.33215
       0.68157	      60.88257	      50.96436	      57.52563	      61.03516
       0.69468	      60.80627	      52.94800	      58.74634	      54.24500
       0.70779	      55.46570	      55.38940	      55.99976	      53.48206
       0.72090	      56.99158	      57.44934	      53.40576	      57.67822
       0.73400	      53.55835	      57.60193	      60.72998	      57.83081
       0.74711	      55.92346	      52.94800	      53.78723	      56.45752
