ALV-7004/USB-FAST
Date :	"11/11/2025"
Time :	"3:56:20 PM"
Samplename : 	""
SampMemo(0) : 	""
SampMemo(1) : 	""
SampMemo(2) : 	""
SampMemo(3) : 	""
SampMemo(4) : 	""
SampMemo(5) : 	""
SampMemo(6) : 	""
SampMemo(7) : 	""
SampMemo(8) : 	""
SampMemo(9) : 	""
Temperature [K] :	     298.16000
Viscosity [cp]  :	       0.89000
Refractive Index:	       1.33200
Wavelength [nm] :	       0.00000
Angle [°]       :	       0.00000
Duration [s]    :	         1
FloatDur [ms]   :	          944
Stop TP [ms]   :	     66722
Runs            :	         1
Mode            :	"A-CH0+1  A-CH2+3 "
MeanCR0 [kHz]   :	      50.14420
MeanCR1 [kHz]   :	      51.96677
MeanCR2 [kHz]   :	      51.40411
MeanCR3 [kHz]   :	      50.94210

"Correlation"
  3.12500E-006	 -1.00000E+000	 -1.00000E+000	 -1.00000E+000	 -1.00000E+000
  6.25000E-006	 -1.00000E+000	 -1.00000E+000	 -1.00000E+000	 -1.00000E+000
  9.37500E-006	 -1.00000E+000	 -1.00000E+000	 -1.00000E+000	 -1.00000E+000
  1.25000E-005	 -1.00000E+000	 -1.00000E+000	 -1.00000E+000	 -1.00000E+000
  1.56250E-005	 -1.00000E+000	 -1.00000E+000	 -1.00000E+000	 -1.00000E+000
  1.87500E-005	 -1.00000E+000	 -1.00000E+000	 -1.00000E+000	 -1.00000E+000
  2.18750E-005	 -8.65145E-001	  1.63679E+000	  1.30985E+000	 -8.69337E-001
  2.50000E-005	  1.34295E+001	  1.20584E+001	  1.08059E+001	  2.98366E+001
  2.81250E-005	  3.18050E+000	  2.89240E+000	  3.10641E+000	  8.79975E+000
  3.12500E-005	  1.56224E+000	  1.76235E+000	  1.43818E+000	  5.14118E+000
  3.43750E-005	  7.53112E-001	  7.57859E-001	  6.68227E-001	  5.40250E+000
  3.75000E-005	  1.56224E+000	  1.00898E+000	 -2.30049E-001	  3.96521E+000
  4.06250E-005	  1.02282E+000	  4.49093E-003	  1.54927E-001	  3.96521E+000
  4.37500E-005	  8.87966E-001	  1.00898E+000	  2.83252E-001	  3.70388E+000
  4.68750E-005	  3.48547E-001	  6.32298E-001	  4.11577E-001	  2.91990E+000
  5.00000E-005	  8.20539E-001	  1.19732E+000	  8.60715E-001	  2.78924E+000
  5.62500E-005	  8.87966E-001	  6.32298E-001	  5.39902E-001	  1.80926E+000
  6.25000E-005	  4.83402E-001	  1.00898E+000	  2.83252E-001	  1.54794E+000
  6.87500E-005	  7.53111E-001	  3.18394E-001	  1.30985E+000	  1.48260E+000
  7.50000E-005	  1.29253E+000	  5.69517E-001	  2.83252E-001	  1.15595E+000
  8.12500E-005	  1.22510E+000	  4.43956E-001	  9.24878E-001	  1.48260E+000
  8.75000E-005	  4.15975E-001	  6.95078E-001	  6.04065E-001	  1.02528E+000
  9.37500E-005	  8.87966E-001	  4.43956E-001	  4.75740E-001	  6.33292E-001
  1.00000E-004	  3.14833E-001	  1.30052E-001	  6.68227E-001	  1.22128E+000
  1.12500E-004	  9.55393E-001	  4.75346E-001	  8.92796E-001	  8.29287E-001
  1.25000E-004	  5.50829E-001	  6.95078E-001	  3.47414E-001	  5.02628E-001
  1.37500E-004	  7.86825E-001	  9.77591E-001	  6.36146E-001	  8.29287E-001
  1.50000E-004	  5.84543E-001	  3.49784E-001	  4.75739E-001	  6.00626E-001
  1.62500E-004	  6.18257E-001	  2.55613E-001	  7.32390E-001	  4.69962E-001
  1.75000E-004	  3.82261E-001	  5.38126E-001	  4.43658E-001	  1.09061E+000
  1.87500E-004	  4.49688E-001	  6.32298E-001	  4.11577E-001	  8.61952E-001
  2.00000E-004	  7.36254E-001	  5.22431E-001	  4.59699E-001	  8.12953E-001
  2.25000E-004	  5.84543E-001	  5.69516E-001	  6.52186E-001	  6.65957E-001
  2.50000E-004	  2.81119E-001	  7.57858E-001	  4.27617E-001	  6.00625E-001
  2.75000E-004	  5.50829E-001	  6.16602E-001	  2.83251E-001	  6.82290E-001
  3.00000E-004	  6.01399E-001	  6.32297E-001	  3.79495E-001	  7.80288E-001
  3.25000E-004	  6.01399E-001	  3.18394E-001	  4.27617E-001	  7.80288E-001
  3.50000E-004	  7.19397E-001	  4.43955E-001	  4.75739E-001	  6.00625E-001
  3.75000E-004	  6.85684E-001	  3.65479E-001	  2.99292E-001	  6.49624E-001
  4.00000E-004	  4.41259E-001	  4.98888E-001	  4.43657E-001	  6.49624E-001
  4.50000E-004	  4.32830E-001	  4.75345E-001	  5.80003E-001	  6.00625E-001
  5.00000E-004	  4.91829E-001	  4.36107E-001	  2.99292E-001	  4.86294E-001
  5.50000E-004	  5.42400E-001	  5.22430E-001	  6.12084E-001	  6.74123E-001
  6.00000E-004	  7.10968E-001	  3.96869E-001	  4.51678E-001	  4.86264E-001
  6.50000E-004	  2.64262E-001	  4.28259E-001	  3.23352E-001	  4.61765E-001
  7.00000E-004	  2.81119E-001	  5.06735E-001	  3.63454E-001	  4.37266E-001
  7.50000E-004	  3.14833E-001	  4.51802E-001	  6.36145E-001	  5.51594E-001
  8.00000E-004	  4.49686E-001	  4.32182E-001	  5.11829E-001	  7.10870E-001
  9.00000E-004	  3.78045E-001	  3.77249E-001	  4.63707E-001	  6.53705E-001
  1.00000E-003	  3.31688E-001	  4.36106E-001	  4.39646E-001	  6.08790E-001
  1.10000E-003	  5.55041E-001	  4.47877E-001	  5.55940E-001	  4.53627E-001
  1.20000E-003	  5.17113E-001	  4.75344E-001	  4.11575E-001	  4.82210E-001
  1.30000E-003	  5.17113E-001	  4.08639E-001	  4.19595E-001	  4.25045E-001
  1.40000E-003	  4.53900E-001	  4.75344E-001	  4.27615E-001	  5.27094E-001
  1.50000E-003	  5.08685E-001	  3.65478E-001	  5.55940E-001	  5.43426E-001
  1.60000E-003	  4.07542E-001	  4.45913E-001	  4.55684E-001	  4.45459E-001
  1.80000E-003	  4.09649E-001	  4.32180E-001	  3.73476E-001	  5.10790E-001
  2.00000E-003	  4.41255E-001	  3.89018E-001	  4.27613E-001	  4.67916E-001
  2.20000E-003	  5.17111E-001	  5.00846E-001	  4.55684E-001	  5.63872E-001
  2.40000E-003	  6.01395E-001	  4.38065E-001	  4.11572E-001	  4.98540E-001
  2.60000E-003	  4.09649E-001	  4.47875E-001	  4.09567E-001	  6.18995E-001
  2.80000E-003	  4.22291E-001	  5.38122E-001	  4.03552E-001	  5.02623E-001
  3.00000E-003	  4.64433E-001	  4.77303E-001	  3.19339E-001	  6.18962E-001
  3.20000E-003	  3.73823E-001	  4.69450E-001	  3.54423E-001	  5.68970E-001
  3.60000E-003	  5.53980E-001	  4.65527E-001	  4.95780E-001	  4.89348E-001
  4.00000E-003	  5.16052E-001	  4.74355E-001	  5.51922E-001	  4.78119E-001
  4.40000E-003	  4.70750E-001	  4.56698E-001	  3.55426E-001	  4.54641E-001
  4.80000E-003	  4.99195E-001	  4.28251E-001	  5.05806E-001	  4.70974E-001
  5.20000E-003	  4.66535E-001	  4.28251E-001	  4.77735E-001	  5.44471E-001
  5.60000E-003	  5.09731E-001	  5.18498E-001	  4.47659E-001	  5.52638E-001
  6.00000E-003	  4.44411E-001	  4.44927E-001	  4.47659E-001	  5.16910E-001
  6.40000E-003	  5.06560E-001	  4.61623E-001	  4.45143E-001	  5.31701E-001
  7.20000E-003	  5.35005E-001	  4.64566E-001	  4.49153E-001	  5.01587E-001
  8.00000E-003	  5.06560E-001	  4.68980E-001	  4.81735E-001	  4.93932E-001
  8.80000E-003	  4.61258E-001	  4.71432E-001	  3.95518E-001	  5.10264E-001
  9.60000E-003	  4.67052E-001	  4.44456E-001	  4.29633E-001	  5.23534E-001
  1.04000E-002	  4.41798E-001	  4.29742E-001	  4.33142E-001	  5.35274E-001
  1.12000E-002	  4.92369E-001	  4.18951E-001	  4.57203E-001	  5.40378E-001
  1.20000E-002	  4.44432E-001	  4.46418E-001	  3.87526E-001	  5.24045E-001
  1.28000E-002	  4.81023E-001	  4.34656E-001	  4.07808E-001	  4.89063E-001
  1.44000E-002	  5.13683E-001	  4.56483E-001	  4.58436E-001	  5.34742E-001
  1.60000E-002	  4.61269E-001	  4.50107E-001	  4.60442E-001	  4.90880E-001
  1.76000E-002	  4.56791E-001	  4.50842E-001	  4.63950E-001	  4.78375E-001
  1.92000E-002	  5.27379E-001	  4.30213E-001	  4.28862E-001	  5.20228E-001
  2.08000E-002	  4.96826E-001	  4.38551E-001	  4.51168E-001	  4.60001E-001
  2.24000E-002	  4.78916E-001	  4.56208E-001	  4.55429E-001	  5.22525E-001
  2.40000E-002	  4.40755E-001	  4.40022E-001	  4.18586E-001	  5.00322E-001
  2.56000E-002	  4.95105E-001	  4.64350E-001	  4.43861E-001	  5.06565E-001
  2.88000E-002	  4.71400E-001	  4.41052E-001	  4.36216E-001	  4.95719E-001
  3.20000E-002	  4.58494E-001	  4.41420E-001	  4.68422E-001	  4.80152E-001
  3.52000E-002	  4.82858E-001	  4.25111E-001	  4.42106E-001	  5.00823E-001
  3.84000E-002	  4.52437E-001	  4.21188E-001	  3.99374E-001	  4.96357E-001
  4.16000E-002	  4.82594E-001	  4.37496E-001	  4.18046E-001	  5.00696E-001
  4.48000E-002	  4.73112E-001	  4.23856E-001	  4.28698E-001	  5.28512E-001
  4.80000E-002	  4.63235E-001	  4.16867E-001	  4.18673E-001	  5.00440E-001
  5.12000E-002	  4.49592E-001	  4.40143E-001	  4.11290E-001	  4.96304E-001
  5.76000E-002	  4.65987E-001	  4.16844E-001	  4.09661E-001	  5.00196E-001
  6.40000E-002	  4.69508E-001	  4.42195E-001	  4.15989E-001	  4.75152E-001
  7.04000E-002	  4.50479E-001	  4.19481E-001	  3.97597E-001	  4.93114E-001
  7.68000E-002	  4.65689E-001	  4.31530E-001	  3.97910E-001	  4.70847E-001
  8.32000E-002	  4.47582E-001	  4.08477E-001	  4.16895E-001	  4.86032E-001
  8.96000E-002	  4.60290E-001	  4.21965E-001	  4.25258E-001	  4.62170E-001
  9.60000E-002	  4.42644E-001	  4.11391E-001	  4.14293E-001	  4.86351E-001
  1.02400E-001	  4.48963E-001	  4.14689E-001	  4.01722E-001	  4.72431E-001
  1.15200E-001	  4.31646E-001	  3.93046E-001	  4.09241E-001	  4.73963E-001
  1.28000E-001	  4.34543E-001	  3.97461E-001	  4.07552E-001	  4.55267E-001
  1.40800E-001	  4.22294E-001	  3.98963E-001	  3.88660E-001	  4.57119E-001
  1.53600E-001	  4.23377E-001	  3.96480E-001	  3.85126E-001	  4.53869E-001
  1.66400E-001	  4.28971E-001	  3.82654E-001	  3.80740E-001	  4.57442E-001
  1.79200E-001	  4.19160E-001	  3.89955E-001	  3.74662E-001	  4.51701E-001
  1.92000E-001	  4.01708E-001	  3.75547E-001	  3.64825E-001	  4.41620E-001
  2.04800E-001	  4.05393E-001	  3.62539E-001	  3.59246E-001	  4.29675E-001
  2.30400E-001	  3.92594E-001	  3.66784E-001	  3.50776E-001	  4.25528E-001
  2.56000E-001	  3.82701E-001	  3.45271E-001	  3.44350E-001	  4.09306E-001
  2.81600E-001	  3.77989E-001	  3.45359E-001	  3.34094E-001	  4.04736E-001
  3.07200E-001	  3.72685E-001	  3.25832E-001	  3.26994E-001	  3.87745E-001
  3.32800E-001	  3.66479E-001	  3.07378E-001	  3.10357E-001	  3.68272E-001
  3.58400E-001	  3.44071E-001	  3.15195E-001	  3.02267E-001	  3.73097E-001
  3.84000E-001	  3.36301E-001	  2.92105E-001	  2.87402E-001	  3.44077E-001
  4.09600E-001	  3.32401E-001	  2.85357E-001	  2.82733E-001	  3.40335E-001
  4.60800E-001	  3.08669E-001	  2.63803E-001	  2.68075E-001	  3.25416E-001
  5.12000E-001	  2.98611E-001	  2.44364E-001	  2.46546E-001	  3.05881E-001
  5.63200E-001	  2.77165E-001	  2.25230E-001	  2.34872E-001	  2.85139E-001
  6.14400E-001	  2.49254E-001	  2.09302E-001	  2.22296E-001	  2.57650E-001
  6.65600E-001	  2.36320E-001	  2.00597E-001	  1.99888E-001	  2.47047E-001
  7.16800E-001	  2.24660E-001	  1.78781E-001	  1.89197E-001	  2.35660E-001
  7.68000E-001	  2.09888E-001	  1.67905E-001	  1.80534E-001	  2.26290E-001
  8.19200E-001	  2.02203E-001	  1.54858E-001	  1.70136E-001	  2.14215E-001
  9.21600E-001	  1.68937E-001	  1.29117E-001	  1.41687E-001	  1.96091E-001
  1.02400E+000	  1.48920E-001	  1.07708E-001	  1.30975E-001	  1.67950E-001
  1.12640E+000	  1.27308E-001	  8.63560E-002	  1.14653E-001	  1.47578E-001
  1.22880E+000	  1.15525E-001	  6.86321E-002	  1.05193E-001	  1.31602E-001
  1.33120E+000	  1.00774E-001	  5.11235E-002	  9.27936E-002	  1.13050E-001
  1.43360E+000	  8.49722E-002	  4.16088E-002	  8.11002E-002	  9.10593E-002
  1.53600E+000	  7.50315E-002	  3.40228E-002	  7.69877E-002	  7.88994E-002
  1.63840E+000	  6.57582E-002	  3.04026E-002	  6.92493E-002	  6.87240E-002
  1.84320E+000	  5.41557E-002	  2.36417E-002	  6.23713E-002	  5.46724E-002
  2.04800E+000	  4.17169E-002	  2.16838E-002	  5.41485E-002	  4.66087E-002
  2.25280E+000	  2.92680E-002	  2.14286E-002	  5.37041E-002	  4.04680E-002
  2.45760E+000	  2.34130E-002	  2.10340E-002	  5.69835E-002	  3.85271E-002
  2.66240E+000	  2.01988E-002	  2.24576E-002	  5.42799E-002	  2.42945E-002
  2.86720E+000	  2.06046E-002	  2.37478E-002	  4.47190E-002	  2.92855E-002
  3.07200E+000	  1.69418E-002	  3.21732E-002	  3.47994E-002	  2.32380E-002
  3.27680E+000	  1.87397E-002	  3.06405E-002	  2.92564E-002	  2.24383E-002
  3.68640E+000	  1.30477E-002	  3.96450E-002	  1.97625E-002	  1.00014E-002
  4.09600E+000	  7.74019E-003	  5.40115E-002	  1.86435E-002	  6.19217E-003
  4.50560E+000	  4.91540E-003	  5.90463E-002	  2.53544E-002	  2.73869E-003
  4.91520E+000	 -3.81667E-003	  5.81951E-002	  1.22372E-002	 -1.21834E-002
  5.32480E+000	 -1.63515E-002	  4.54706E-002	  1.79661E-003	 -1.35508E-002
  5.73440E+000	 -3.39302E-002	  2.85240E-002	 -9.19078E-003	 -4.98389E-003
  6.14400E+000	 -4.49251E-002	  1.34516E-002	 -1.75026E-002	 -3.80121E-003
  6.55360E+000	 -4.19276E-002	  1.99949E-003	 -1.12099E-002	 -6.38382E-003
  7.37280E+000	 -2.31973E-002	 -3.00401E-004	 -2.29765E-003	  4.67346E-003
  8.19200E+000	 -1.70838E-003	 -1.48543E-002	 -5.63997E-004	  8.85165E-003
  9.01120E+000	  4.52290E-003	 -1.84872E-002	  4.87008E-003	  1.28832E-002
  9.83040E+000	  1.66723E-002	 -4.05033E-003	 -6.09277E-003	  1.94737E-002
  1.06496E+001	  9.86731E-003	 -4.74317E-003	 -2.33404E-003	 -1.33631E-002
  1.14688E+001	 -3.24207E-003	 -1.42952E-002	 -6.30998E-004	 -1.34280E-002
  1.22880E+001	 -9.49922E-003	 -1.08217E-002	 -7.63923E-003	 -3.87020E-003
  1.31072E+001	  3.19642E-004	 -9.01750E-003	 -8.75828E-003	  5.38146E-003
  1.47456E+001	  1.89082E-002	 -1.19596E-002	 -4.45254E-003	  1.11367E-003
  1.63840E+001	  6.57196E-003	 -1.90463E-002	 -1.29928E-002	  8.32814E-003
  1.80224E+001	  5.44190E-004	  1.06204E-002	 -9.06387E-003	  4.77308E-004
  1.96608E+001	  8.36237E-003	  8.52692E-003	  1.57993E-003	  7.45731E-003
  2.12992E+001	 -9.28605E-003	 -6.97619E-003	  5.15031E-005	 -7.94175E-003
  2.29376E+001	  2.12343E-004	  1.36249E-002	  3.19619E-003	 -1.62482E-002
  2.45760E+001	  1.55120E-002	  8.86224E-003	  6.53884E-004	 -1.83449E-003
  2.62144E+001	 -1.30390E-003	 -2.86918E-003	 -9.62315E-003	 -5.07705E-003
  2.94912E+001	 -6.16286E-003	 -8.47320E-003	 -1.48933E-002	 -9.94464E-004
  3.27680E+001	  9.63140E-003	 -8.50101E-003	  1.01252E-003	 -9.53923E-003
  3.60448E+001	 -9.30464E-003	  9.76014E-003	  1.65707E-002	 -1.40152E-002
  3.93216E+001	 -1.38039E-002	  2.74240E-002	  1.65810E-003	 -1.80978E-002
  4.25984E+001	 -1.74114E-002	  2.20697E-002	  2.88108E-003	 -6.04274E-003
  4.58752E+001	 -2.17192E-002	 -7.76039E-003	 -4.85778E-004	 -2.88490E-003
  4.91520E+001	  1.30915E-002	 -1.34271E-002	 -7.86778E-003	  3.57330E-003
  5.24288E+001	 -7.31954E-003	 -2.68883E-002	 -4.22146E-004	 -1.48669E-002
  5.89824E+001	 -1.86625E-003	  6.11536E-003	  1.19938E-002	 -1.18420E-002
  6.55360E+001	  1.37957E-002	 -9.80265E-003	  2.78921E-002	  1.10052E-002
  7.20896E+001	 -4.15937E-003	 -7.68583E-003	  7.08161E-003	  1.05389E-002
  7.86432E+001	 -1.48441E-002	  5.92361E-003	 -2.77149E-003	  2.14555E-002
  8.51968E+001	 -8.28709E-003	  2.39731E-002	 -6.19086E-003	 -3.11811E-003
  9.17504E+001	  2.43095E-002	 -3.10251E-003	  1.02247E-002	  1.63346E-002
  9.83040E+001	 -5.02438E-003	 -1.21798E-003	  4.27246E-003	 -1.57691E-002
  1.04858E+002	 -1.42556E-002	  7.23048E-004	 -2.16682E-004	 -1.08958E-002
  1.17965E+002	 -7.29457E-003	  3.20555E-003	 -1.62352E-002	 -3.71954E-003
  1.31072E+002	  7.10973E-003	  8.71843E-004	  1.96285E-002	 -8.25375E-003
  1.44179E+002	 -1.80004E-002	 -1.13102E-002	 -4.45953E-003	 -8.55529E-003
  1.57286E+002	  4.24520E-003	 -3.13137E-003	 -6.91390E-003	  4.43060E-003
  1.70394E+002	 -1.72346E-002	  1.31926E-004	  6.64952E-003	 -2.43139E-003
  1.83501E+002	  1.13194E-002	 -1.80517E-002	 -7.23073E-003	  7.33076E-004
  1.96608E+002	  1.13255E-003	 -6.41706E-003	  1.71554E-002	  5.10902E-003
  2.09715E+002	  9.29471E-003	 -3.09612E-003	 -3.61105E-004	  4.23474E-003
  2.35930E+002	  1.61123E-004	 -9.13113E-003	 -8.66033E-003	 -7.91921E-004
  2.62144E+002	 -4.87043E-003	  4.04614E-003	  9.65684E-003	  2.62983E-003
  2.88358E+002	  8.36291E-003	  1.09174E-002	 -3.58968E-003	 -7.62703E-003
  3.14573E+002	  8.10134E-003	 -4.29801E-003	  1.10591E-002	  1.55732E-002
  3.40787E+002	 -2.07758E-003	 -9.10024E-004	  2.48282E-003	  1.11717E-002
  3.67002E+002	  3.51353E-003	  1.01065E-002	  5.20156E-003	 -1.49370E-002
  3.93216E+002	 -1.14860E-002	  1.90417E-002	  5.57447E-003	  5.85861E-003

"Count Rate"
       0.01311	      41.42761	      60.34851	      37.46033	      44.55566
       0.02621	      66.90979	      58.13599	      41.58020	      71.79260
       0.03932	      47.68372	      76.59912	      37.61292	      30.74646
       0.05243	      29.44946	      61.87439	      38.52844	      69.19861
       0.06554	      49.43848	      36.77368	      39.29138	      45.16602
       0.07864	      45.31860	      55.99976	      52.64282	      53.86353
       0.09175	      43.02979	      63.93433	      47.07336	      62.25586
       0.10486	      52.79541	      27.84729	      51.49841	      46.08154
       0.11796	      48.98071	      46.84448	      45.62378	      57.29675
       0.13107	      51.87988	      64.46838	      62.63733	      57.75452
       0.14418	      46.31042	      76.75171	      51.19324	      57.44934
       0.15729	      38.29956	      50.58289	      48.44666	      55.92346
       0.17039	      37.84180	      74.00513	      28.68652	      41.12244
       0.18350	      69.80896	      31.73828	      47.53113	      54.01611
       0.19661	      42.34314	      37.46033	      73.77625	      47.91260
       0.20972	      53.40576	      60.88257	      41.50391	      33.49304
       0.22282	      38.90991	      42.03796	      37.76550	      53.48206
       0.23593	      38.83362	      71.64001	      42.03796	      48.98071
       0.24904	      62.25586	      57.44934	      40.28320	      70.95337
       0.26214	      41.12244	      55.23682	      47.76001	      35.93445
       0.27525	      53.25317	      55.54199	      42.03796	      59.58557
       0.28836	      42.19055	      45.47119	      45.62378	      49.97253
       0.30147	      70.80078	      39.52026	      52.10876	      31.12793
       0.31457	      82.16858	      55.61829	      27.38953	      42.19055
       0.32768	      35.93445	      42.87720	      66.22314	      40.05432
       0.34079	      53.63464	      36.62109	      41.19873	      52.87170
       0.35389	      24.03259	      31.50940	      55.61829	      51.34583
       0.36700	      57.83081	      39.52026	      41.27502	      61.34033
       0.38011	      71.56372	      49.43848	      46.61560	      23.80371
       0.39322	      54.93164	      45.77637	      83.61816	      35.93445
       0.40632	      72.17407	      49.81995	      31.96716	      35.32410
       0.41943	      40.28320	      51.65100	      37.07886	      42.41943
       0.43254	      58.44116	      33.41675	      74.31030	     101.39465
       0.44564	      37.38403	      81.40564	      52.49023	      52.10876
       0.45875	      33.03528	      26.01624	      81.17676	      40.74097
       0.47186	      49.28589	      58.36487	      49.28589	      53.55835
       0.48497	      40.43579	      63.17139	      37.00256	      60.88257
       0.49807	      44.78455	      30.51758	      47.83630	      65.46021
       0.51118	      34.10339	      71.79260	      55.61829	      50.04883
       0.52429	      68.81714	      75.91248	      80.56641	      60.04333
       0.53740	      46.69189	      64.46838	      59.96704	      53.86353
       0.55050	      37.30774	      60.80627	      36.16333	      31.81458
       0.56361	      48.98071	      56.45752	      49.20959	      59.20410
       0.57672	      50.12512	      33.87451	      43.64014	      48.14148
       0.58982	      67.52014	      33.64563	      38.83362	      35.09521
       0.60293	      68.74084	      55.23682	      62.56104	      57.98340
       0.61604	      80.41382	      55.77087	      42.03796	      44.63196
       0.62915	      48.29407	      38.83362	      46.15784	      40.05432
       0.64225	      40.74097	      58.28857	      57.22046	      52.03247
       0.65536	      38.45215	      63.24768	      59.43298	      58.51746
       0.66847	      55.38940	      51.57471	      47.60742	      38.07068
       0.68157	      44.40308	      44.25049	      48.98071	      73.47107
       0.69468	      38.52844	      40.58838	      80.64270	      58.36487
       0.70779	      39.06250	      38.45215	      27.69470	      43.41125
       0.72090	      52.49023	      49.66736	      69.73267	      36.31592
       0.73400	      26.85547	      57.98340	      63.24768	      34.94263
       0.74711	      71.48743	      27.84729	      47.76001	      39.36768
