ALV-7004/USB-FAST
Date :	"11/11/2025"
Time :	"3:54:03 PM"
Samplename : 	""
SampMemo(0) : 	""
SampMemo(1) : 	""
SampMemo(2) : 	""
SampMemo(3) : 	""
SampMemo(4) : 	""
SampMemo(5) : 	""
SampMemo(6) : 	""
SampMemo(7) : 	""
SampMemo(8) : 	""
SampMemo(9) : 	""
Temperature [K] :	     298.16000
Viscosity [cp]  :	       0.89000
Refractive Index:	       1.33200
Wavelength [nm] :	       0.00000
Angle [°]       :	       0.00000
Duration [s]    :	         1
FloatDur [ms]   :	          944
Stop TP [ms]   :	     59240
Runs            :	         1
Mode            :	"A-CH0+1  A-CH2+3 "
MeanCR0 [kHz]   :	      56.01777
MeanCR1 [kHz]   :	      53.88578
MeanCR2 [kHz]   :	      54.23334
MeanCR3 [kHz]   :	      54.17188

"Correlation"
  3.12500E-006	 -1.00000E+000	 -1.00000E+000	 -1.00000E+000	 -1.00000E+000
  6.25000E-006	 -1.00000E+000	 -1.00000E+000	 -1.00000E+000	 -1.00000E+000
  9.37500E-006	 -1.00000E+000	 -1.00000E+000	 -1.00000E+000	 -1.00000E+000
  1.25000E-005	 -1.00000E+000	 -1.00000E+000	 -1.00000E+000	 -1.00000E+000
  1.56250E-005	 -1.00000E+000	 -1.00000E+000	 -1.00000E+000	 -1.00000E+000
  1.87500E-005	 -1.00000E+000	 -1.00000E+000	 -1.00000E+000	 -1.00000E+000
  2.18750E-005	 -1.00000E+000	  4.01330E-001	  3.83426E-001	 -5.37811E-001
  2.50000E-005	  1.02380E+001	  1.37140E+001	  1.01827E+001	  2.71935E+001
  2.81250E-005	  2.45785E+000	  1.33555E+000	  2.34328E+000	  9.05261E+000
  3.12500E-005	  2.13367E+000	  1.45233E+000	  2.57385E+000	  5.47065E+000
  3.43750E-005	  9.45039E-001	  8.68440E-001	  2.68141E-001	  4.31517E+000
  3.75000E-005	  7.28924E-001	  9.85218E-001	  6.13998E-001	  3.04415E+000
  4.06250E-005	  1.16115E+000	  9.85218E-001	  4.98712E-001	  3.73744E+000
  4.37500E-005	  7.28924E-001	  5.09976E-002	 -7.77157E-002	  2.69751E+000
  4.68750E-005	  1.37727E+000	 -6.57799E-002	  4.98712E-001	  2.23532E+000
  5.00000E-005	  8.36982E-001	  2.84553E-001	  7.29283E-001	  1.59981E+000
  5.62500E-005	  5.66837E-001	  6.34885E-001	  1.24807E+000	  1.94646E+000
  6.25000E-005	  4.58779E-001	  1.09386E-001	  7.86926E-001	  2.17755E+000
  6.87500E-005	  4.04751E-001	  2.84553E-001	  9.59854E-001	  1.07985E+000
  7.50000E-005	  1.16115E+000	  4.01330E-001	  6.71640E-001	  1.02208E+000
  8.12500E-005	  5.66837E-001	  1.09386E-001	  3.83426E-001	  6.75435E-001
  8.75000E-005	  6.74895E-001	  6.34885E-001	  2.10498E-001	  1.65759E+000
  9.37500E-005	  4.58779E-001	  6.34885E-001	  8.44569E-001	  3.86567E-001
  1.00000E-004	  6.47880E-001	  5.18107E-001	  1.04632E+000	  5.59888E-001
  1.12500E-004	  3.50722E-001	  4.30524E-001	  5.27533E-001	  9.06530E-001
  1.25000E-004	  1.88635E-001	  3.72136E-001	  7.00461E-001	  9.35417E-001
  1.37500E-004	  4.04750E-001	  4.88913E-001	  3.83426E-001	  8.77643E-001
  1.50000E-004	  6.47880E-001	  3.42941E-001	  2.10498E-001	  8.77643E-001
  1.62500E-004	  5.39823E-001	  5.18107E-001	  4.41069E-001	  5.02114E-001
  1.75000E-004	  1.61621E-001	  2.55358E-001	  5.27533E-001	  6.75435E-001
  1.87500E-004	  7.82953E-001	  4.30524E-001	  5.56355E-001	  5.59888E-001
  2.00000E-004	  8.63995E-001	  5.47301E-001	  5.41944E-001	  6.46548E-001
  2.25000E-004	  3.50721E-001	  5.18107E-001	  4.26658E-001	  9.35416E-001
  2.50000E-004	  5.26315E-001	  4.30524E-001	  6.13997E-001	  5.59888E-001
  2.75000E-004	  5.39822E-001	  6.20287E-001	  5.56354E-001	  6.17661E-001
  3.00000E-004	  2.96692E-001	  5.76496E-001	  3.40194E-001	  3.28793E-001
  3.25000E-004	  4.58779E-001	  5.03510E-001	  5.41944E-001	  7.76539E-001
  3.50000E-004	  7.01909E-001	  4.30524E-001	  7.14872E-001	  5.31001E-001
  3.75000E-004	  5.53330E-001	  5.47301E-001	  2.53730E-001	  6.17661E-001
  4.00000E-004	  5.80343E-001	  5.40002E-001	  2.68140E-001	  6.03217E-001
  4.50000E-004	  4.52025E-001	  5.10808E-001	  6.21202E-001	  4.73227E-001
  5.00000E-004	  6.07358E-001	  5.03509E-001	  5.77970E-001	  4.15453E-001
  5.50000E-004	  4.85793E-001	  5.10808E-001	  4.41068E-001	  5.95995E-001
  6.00000E-004	  5.60082E-001	  4.96211E-001	  3.97836E-001	  4.73227E-001
  6.50000E-004	  4.72286E-001	  4.45121E-001	  3.54604E-001	  5.67109E-001
  7.00000E-004	  4.31764E-001	  4.01329E-001	  7.50898E-001	  4.73227E-001
  7.50000E-004	  3.16953E-001	  6.93273E-001	  7.07666E-001	  3.86566E-001
  8.00000E-004	  3.30459E-001	  5.61897E-001	  5.56352E-001	  4.94920E-001
  9.00000E-004	  4.89168E-001	  3.75783E-001	  5.02312E-001	  5.27418E-001
  1.00000E-003	  3.77734E-001	  5.36352E-001	  5.95982E-001	  5.56305E-001
  1.10000E-003	  3.77734E-001	  5.36352E-001	  5.49147E-001	  5.63527E-001
  1.20000E-003	  5.29690E-001	  6.23935E-001	  4.01438E-001	  6.10469E-001
  1.30000E-003	  5.09429E-001	  7.26115E-001	  5.09518E-001	  4.69643E-001
  1.40000E-003	  5.36444E-001	  4.45119E-001	  4.44670E-001	  5.41862E-001
  1.50000E-003	  4.72284E-001	  4.41470E-001	  4.66286E-001	  5.99636E-001
  1.60000E-003	  4.79035E-001	  4.61539E-001	  4.62680E-001	  5.85221E-001
  1.80000E-003	  4.92543E-001	  5.21752E-001	  4.75290E-001	  5.11166E-001
  2.00000E-003	  5.06050E-001	  5.69193E-001	  5.20323E-001	  5.32832E-001
  2.20000E-003	  4.77347E-001	  5.30875E-001	  5.05912E-001	  6.28521E-001
  2.40000E-003	  3.49029E-001	  5.43648E-001	  3.69011E-001	  5.20194E-001
  2.60000E-003	  4.89166E-001	  5.12629E-001	  4.84296E-001	  5.74357E-001
  2.80000E-003	  4.09811E-001	  5.29050E-001	  3.81621E-001	  5.70746E-001
  3.00000E-003	  4.62151E-001	  4.76136E-001	  5.23926E-001	  5.16583E-001
  3.20000E-003	  5.00980E-001	  5.18097E-001	  4.50066E-001	  5.01261E-001
  3.60000E-003	  4.36821E-001	  4.98939E-001	  4.69881E-001	  5.72577E-001
  4.00000E-003	  5.05201E-001	  4.06795E-001	  4.75285E-001	  6.18617E-001
  4.40000E-003	  4.50328E-001	  5.31782E-001	  5.32927E-001	  4.67859E-001
  4.80000E-003	  4.70589E-001	  4.99851E-001	  4.28450E-001	  4.72373E-001
  5.20000E-003	  4.63835E-001	  4.13181E-001	  4.93298E-001	  5.39146E-001
  5.60000E-003	  4.14872E-001	  4.87991E-001	  4.69881E-001	  5.49978E-001
  6.00000E-003	  4.36821E-001	  4.75219E-001	  4.39258E-001	  4.46165E-001
  6.40000E-003	  4.73533E-001	  5.09876E-001	  4.55911E-001	  5.11180E-001
  7.20000E-003	  4.55805E-001	  5.08508E-001	  4.92838E-001	  5.30138E-001
  8.00000E-003	  4.73955E-001	  4.77945E-001	  4.59063E-001	  5.22465E-001
  8.80000E-003	  4.57071E-001	  5.20824E-001	  4.50056E-001	  4.94931E-001
  9.60000E-003	  4.90839E-001	  4.49208E-001	  4.79778E-001	  5.15694E-001
  1.04000E-002	  4.65513E-001	  4.86156E-001	  4.48255E-001	  5.40971E-001
  1.12000E-002	  4.71845E-001	  5.41807E-001	  5.34718E-001	  5.33297E-001
  1.20000E-002	  4.46941E-001	  5.05771E-001	  4.87434E-001	  4.86777E-001
  1.28000E-002	  4.33469E-001	  4.87306E-001	  4.32502E-001	  5.20187E-001
  1.44000E-002	  4.42333E-001	  5.01219E-001	  4.40158E-001	  5.18607E-001
  1.60000E-002	  4.61750E-001	  5.03271E-001	  4.89694E-001	  5.06872E-001
  1.76000E-002	  4.73780E-001	  4.83885E-001	  4.56370E-001	  5.07323E-001
  1.92000E-002	  4.67659E-001	  4.94604E-001	  5.08608E-001	  5.15674E-001
  2.08000E-002	  4.74624E-001	  5.01675E-001	  4.69654E-001	  4.98973E-001
  2.24000E-002	  4.63255E-001	  4.86393E-001	  4.79111E-001	  4.96491E-001
  2.40000E-002	  4.76130E-001	  4.95517E-001	  4.40383E-001	  4.75080E-001
  2.56000E-002	  4.82245E-001	  4.80882E-001	  4.51715E-001	  4.96960E-001
  2.88000E-002	  4.57549E-001	  4.92628E-001	  4.74008E-001	  5.11629E-001
  3.20000E-002	  4.49529E-001	  4.76548E-001	  4.57316E-001	  5.19528E-001
  3.52000E-002	  4.80922E-001	  4.69106E-001	  4.52841E-001	  4.98088E-001
  3.84000E-002	  4.56544E-001	  4.47580E-001	  4.58921E-001	  5.47040E-001
  4.16000E-002	  4.28684E-001	  4.90804E-001	  4.68266E-001	  5.02803E-001
  4.48000E-002	  4.53062E-001	  4.70276E-001	  4.57345E-001	  4.88810E-001
  4.80000E-002	  4.45991E-001	  4.79513E-001	  4.73107E-001	  4.89148E-001
  5.12000E-002	  4.52912E-001	  4.70769E-001	  4.81842E-001	  5.03884E-001
  5.76000E-002	  4.35681E-001	  4.66805E-001	  4.61040E-001	  4.92007E-001
  6.40000E-002	  4.56550E-001	  4.80492E-001	  4.46853E-001	  5.07638E-001
  7.04000E-002	  4.49743E-001	  4.85483E-001	  4.54509E-001	  4.97424E-001
  7.68000E-002	  4.36104E-001	  4.52777E-001	  4.36212E-001	  4.94912E-001
  8.32000E-002	  4.39111E-001	  4.47473E-001	  4.49019E-001	  4.77505E-001
  8.96000E-002	  4.28900E-001	  4.60561E-001	  4.43249E-001	  4.97989E-001
  9.60000E-002	  4.30536E-001	  4.75674E-001	  4.38802E-001	  4.86872E-001
  1.02400E-001	  4.34317E-001	  4.61147E-001	  4.39715E-001	  4.97873E-001
  1.15200E-001	  4.37087E-001	  4.49312E-001	  4.23133E-001	  4.87009E-001
  1.28000E-001	  4.36295E-001	  4.51023E-001	  4.29861E-001	  4.69286E-001
  1.40800E-001	  4.29198E-001	  4.34738E-001	  4.26905E-001	  4.73547E-001
  1.53600E-001	  4.28170E-001	  4.28351E-001	  4.22007E-001	  4.64206E-001
  1.66400E-001	  4.18908E-001	  4.27382E-001	  4.14715E-001	  4.65250E-001
  1.79200E-001	  4.01943E-001	  4.24131E-001	  4.02581E-001	  4.51225E-001
  1.92000E-001	  4.03710E-001	  4.21365E-001	  4.00020E-001	  4.39006E-001
  2.04800E-001	  4.03937E-001	  4.11337E-001	  3.99735E-001	  4.48176E-001
  2.30400E-001	  3.84066E-001	  4.11193E-001	  3.84360E-001	  4.35178E-001
  2.56000E-001	  3.76861E-001	  3.83976E-001	  3.78702E-001	  4.23648E-001
  2.81600E-001	  3.61356E-001	  3.84020E-001	  3.67733E-001	  4.20869E-001
  3.07200E-001	  3.59046E-001	  3.72390E-001	  3.54753E-001	  3.92773E-001
  3.32800E-001	  3.40664E-001	  3.50306E-001	  3.50107E-001	  3.79706E-001
  3.58400E-001	  3.25223E-001	  3.52330E-001	  3.26032E-001	  3.81783E-001
  3.84000E-001	  3.15631E-001	  3.35682E-001	  3.14700E-001	  3.58542E-001
  4.09600E-001	  3.06502E-001	  3.16931E-001	  3.07812E-001	  3.53830E-001
  4.60800E-001	  2.82604E-001	  2.87487E-001	  2.88335E-001	  3.33276E-001
  5.12000E-001	  2.56637E-001	  2.74593E-001	  2.69296E-001	  3.06348E-001
  5.63200E-001	  2.38306E-001	  2.57086E-001	  2.44362E-001	  2.86051E-001
  6.14400E-001	  2.16507E-001	  2.33381E-001	  2.29757E-001	  2.64468E-001
  6.65600E-001	  1.99895E-001	  2.19791E-001	  2.13825E-001	  2.42835E-001
  7.16800E-001	  1.82609E-001	  2.04380E-001	  1.91671E-001	  2.31377E-001
  7.68000E-001	  1.63073E-001	  1.88370E-001	  1.83600E-001	  2.14129E-001
  8.19200E-001	  1.44597E-001	  1.77006E-001	  1.71313E-001	  1.91748E-001
  9.21600E-001	  1.12877E-001	  1.52191E-001	  1.43609E-001	  1.63307E-001
  1.02400E+000	  9.45453E-002	  1.29300E-001	  1.26321E-001	  1.37533E-001
  1.12640E+000	  7.60025E-002	  1.10234E-001	  1.07936E-001	  1.12788E-001
  1.22880E+000	  5.70897E-002	  9.39455E-002	  9.34460E-002	  9.63273E-002
  1.33120E+000	  3.90239E-002	  7.49342E-002	  8.61025E-002	  8.08625E-002
  1.43360E+000	  3.52689E-002	  5.77394E-002	  7.65760E-002	  7.02808E-002
  1.53600E+000	  1.97266E-002	  4.58609E-002	  6.84788E-002	  6.15130E-002
  1.63840E+000	  1.50541E-002	  3.38380E-002	  5.59257E-002	  5.33490E-002
  1.84320E+000	  2.04758E-003	  1.68433E-002	  4.24007E-002	  3.68045E-002
  2.04800E+000	 -1.02617E-003	  5.84789E-003	  2.59949E-002	  2.61485E-002
  2.25280E+000	 -1.41431E-003	 -1.22214E-003	  1.95938E-002	  1.71710E-002
  2.45760E+000	  3.38917E-004	 -2.14422E-003	  9.53351E-003	  1.53709E-002
  2.66240E+000	  1.44863E-003	 -6.71130E-003	  5.92899E-003	  1.27495E-002
  2.86720E+000	 -3.79172E-004	 -1.52216E-002	  1.82030E-003	  1.04054E-002
  3.07200E+000	 -1.04514E-003	 -1.95833E-002	 -1.61642E-003	  9.05422E-003
  3.27680E+000	 -2.73778E-003	 -1.49972E-002	  1.09024E-003	  8.88774E-003
  3.68640E+000	 -8.66862E-003	 -1.46132E-002	  6.80567E-003	 -4.43367E-004
  4.09600E+000	 -8.41660E-003	 -2.02283E-002	  8.38352E-003	 -5.32850E-003
  4.50560E+000	  5.66059E-003	 -2.67401E-002	  6.26350E-003	 -4.69876E-003
  4.91520E+000	  9.99439E-003	 -2.70382E-002	  1.07321E-002	 -5.11160E-004
  5.32480E+000	  8.58169E-003	 -1.73633E-002	  1.89710E-002	  2.45016E-003
  5.73440E+000	  4.97574E-003	 -2.45513E-002	  1.98954E-002	  1.04972E-002
  6.14400E+000	  6.30460E-003	 -2.61889E-002	  1.58344E-002	  1.43671E-002
  6.55360E+000	  9.08610E-003	 -1.31525E-002	  1.18936E-002	  3.25977E-002
  7.37280E+000	  1.85791E-002	 -5.47109E-003	 -4.83886E-003	  4.18809E-002
  8.19200E+000	  7.09179E-003	 -1.16442E-002	 -9.54841E-003	  2.88854E-002
  9.01120E+000	 -1.09956E-002	 -9.12917E-003	 -1.03083E-002	  1.23756E-002
  9.83040E+000	 -7.20411E-003	  3.86714E-003	  1.55066E-004	  1.07040E-002
  1.06496E+001	 -1.53451E-002	  7.62287E-003	  9.08501E-003	  6.62852E-003
  1.14688E+001	 -4.45548E-003	 -4.53233E-003	 -4.01162E-004	  6.50984E-003
  1.22880E+001	  8.83764E-003	  6.40729E-004	  4.87914E-003	  2.25443E-002
  1.31072E+001	 -5.17054E-003	  9.37769E-003	 -4.02445E-003	  2.40248E-002
  1.47456E+001	 -2.34595E-002	 -1.82205E-002	 -8.26506E-003	  1.30806E-002
  1.63840E+001	 -3.37543E-002	 -9.71168E-003	 -1.57582E-002	 -1.25019E-003
  1.80224E+001	 -1.44520E-002	 -1.88149E-002	 -3.30932E-002	  7.37407E-003
  1.96608E+001	 -9.75771E-004	  5.48807E-003	 -1.53403E-003	  6.51237E-003
  2.12992E+001	  1.28277E-002	  1.12554E-003	 -1.60025E-002	  5.65391E-003
  2.29376E+001	 -8.29760E-003	 -1.22252E-002	 -9.48318E-003	  1.07674E-002
  2.45760E+001	 -1.46598E-002	 -1.21748E-002	 -1.33435E-002	 -1.93406E-002
  2.62144E+001	  8.37645E-003	 -1.83312E-002	 -1.17502E-002	 -2.13714E-002
  2.94912E+001	 -1.38448E-002	 -1.19918E-003	 -8.42254E-003	  3.48858E-003
  3.27680E+001	 -1.29575E-002	 -3.85824E-003	 -8.16487E-003	 -1.27591E-003
  3.60448E+001	 -6.35046E-003	 -6.43420E-003	  4.20454E-003	 -2.47894E-002
  3.93216E+001	 -5.57489E-003	 -9.88051E-003	 -2.91754E-003	 -7.79122E-003
  4.25984E+001	 -1.86401E-003	  1.56689E-002	 -1.41503E-002	 -2.42387E-003
  4.58752E+001	 -3.78770E-004	  7.30989E-003	  9.37092E-005	  2.73726E-003
  4.91520E+001	  6.21133E-003	 -6.79702E-003	 -1.32484E-002	  9.19035E-004
  5.24288E+001	  2.07682E-003	 -2.84050E-004	 -8.39205E-003	  4.79844E-003
  5.89824E+001	 -2.00165E-003	 -2.24611E-003	  1.00337E-002	  5.47933E-003
  6.55360E+001	  3.63093E-003	  7.12307E-004	  1.02129E-002	  4.87949E-003
  7.20896E+001	 -5.31256E-004	 -1.74712E-002	 -7.97651E-003	  2.50541E-003
  7.86432E+001	  7.90263E-003	  1.18668E-002	  2.22612E-003	 -3.32145E-003
  8.51968E+001	  8.82423E-003	 -9.00287E-003	 -7.86043E-003	  1.69364E-002
  9.17504E+001	  3.44967E-004	 -5.29244E-003	  8.41938E-004	  4.86012E-003
  9.83040E+001	 -1.74678E-002	  1.09923E-002	 -2.41502E-003	  1.55620E-003
  1.04858E+002	 -1.58370E-002	  5.69914E-004	  1.30716E-002	  8.26284E-003
  1.17965E+002	  1.11857E-002	 -1.47680E-003	  1.08188E-002	 -9.88061E-003
  1.31072E+002	  1.22083E-002	  8.56300E-003	 -2.32526E-002	 -1.85308E-002
  1.44179E+002	 -9.65937E-003	 -3.74874E-003	 -1.04928E-003	  9.81744E-003
  1.57286E+002	 -1.78494E-002	 -5.04382E-003	 -1.90439E-003	  4.34235E-003
  1.70394E+002	  6.50475E-003	  2.48994E-003	 -2.17173E-003	 -1.01383E-002
  1.83501E+002	  3.50143E-003	 -4.49084E-004	  7.25409E-003	 -5.33432E-003
  1.96608E+002	  1.10026E-003	 -2.11770E-003	  1.08753E-003	 -8.14234E-004
  2.09715E+002	 -3.67241E-004	  1.74827E-003	 -2.64410E-003	  4.86142E-003
  2.35930E+002	 -4.10166E-003	  9.02046E-004	  7.79635E-003	  4.82166E-003
  2.62144E+002	 -4.46519E-003	 -1.61988E-004	 -8.56628E-003	  6.05741E-003
  2.88358E+002	  7.92484E-003	 -7.00330E-003	 -1.91372E-003	  3.15966E-003
  3.14573E+002	  1.30977E-003	  6.83140E-003	  5.91963E-003	  4.27223E-003
  3.40787E+002	 -7.31928E-003	 -2.27134E-003	 -5.11626E-003	  7.66282E-003
  3.67002E+002	  1.23545E-002	  2.51086E-003	  2.20132E-003	 -5.66007E-003
  3.93216E+002	 -1.06238E-002	 -3.12668E-003	 -4.50113E-003	 -4.89953E-003

"Count Rate"
       0.01311	      63.40027	      53.63464	      65.30762	      54.01611
       0.02621	      72.55554	      65.91797	      57.14417	      36.39221
       0.03932	      53.78723	      61.34033	      70.57190	      43.56384
       0.05243	      46.00525	      40.13062	      54.01611	      44.17419
       0.06554	      40.13062	      35.40039	      32.57751	      40.13062
       0.07864	      55.69458	      42.57202	      52.03247	      54.77905
       0.09175	      66.45203	      62.48474	      41.12244	      80.41382
       0.10486	      46.99707	      61.18774	      61.49292	      89.87427
       0.11796	      55.46570	      60.72998	      30.44128	      59.20410
       0.13107	      53.02429	      55.84717	      50.12512	      45.16602
       0.14418	      63.47656	      66.98608	      44.32678	      46.08154
       0.15729	      52.71912	      54.77905	      44.55566	      49.89624
       0.17039	      55.99976	      29.06799	      57.83081	      71.41113
       0.18350	      50.27771	      57.98340	      47.45483	      84.30481
       0.19661	      47.60742	      64.84985	      41.27502	      40.13062
       0.20972	      43.71643	      53.93982	      55.92346	      41.58020
       0.22282	      73.62366	      49.51477	      57.75452	      57.98340
       0.23593	      56.15234	      63.09509	      37.61292	      58.05969
       0.24904	      50.88806	      53.10059	      57.44934	      69.35120
       0.26214	      59.05151	      52.64282	      55.54199	      30.97534
       0.27525	      47.45483	      63.62915	      63.01880	      50.35400
       0.28836	      61.18774	      44.25049	      42.49573	      43.56384
       0.30147	      53.93982	      42.80090	      68.58826	      34.48486
       0.31457	      70.03784	      56.91528	      52.56653	      42.26685
       0.32768	      43.41125	      47.22595	      48.21777	      71.02966
       0.34079	      42.34314	      40.51208	      43.18237	      81.10046
       0.35389	      86.89880	      54.16870	      46.00525	      61.18774
       0.36700	      45.70007	      80.41382	      98.49548	      55.31311
       0.38011	      43.18237	      42.57202	      51.87988	      63.32397
       0.39322	      49.66736	      51.87988	      31.12793	      75.22583
       0.40632	      62.48474	      57.29675	      57.29675	      43.94531
       0.41943	      53.78723	      60.88257	      42.34314	      61.11145
       0.43254	      68.89343	      59.20410	      47.22595	      62.25586
       0.44564	      49.20959	      36.62109	      53.78723	      52.71912
       0.45875	      40.96985	      55.16052	      58.74634	      51.04065
       0.47186	      45.92896	      69.58008	      70.49561	      51.42212
       0.48497	      55.61829	      41.58020	      68.66455	      49.97253
       0.49807	      46.31042	      65.91797	      24.94812	      58.89893
       0.51118	      43.10608	      46.92078	      53.48206	      42.57202
       0.52429	      72.25037	      49.28589	      59.89075	      41.96167
       0.53740	      57.44934	      51.95618	      48.06519	      66.45203
       0.55050	      61.64551	      40.51208	      66.83350	      31.73828
       0.56361	      61.95068	      49.59106	      46.92078	      46.08154
       0.57672	      44.09790	      42.64832	      45.70007	      66.75720
       0.58982	      56.45752	      46.76819	      58.28857	      61.95068
       0.60293	      57.37305	      69.58008	      60.34851	      51.34583
       0.61604	      73.01331	      47.30225	      33.79822	      50.20142
       0.62915	      47.30225	      43.56384	      52.71912	      53.93982
       0.64225	      51.11694	      44.25049	      47.07336	      55.46570
       0.65536	      64.62097	      52.64282	      59.05151	      38.22327
       0.66847	      54.55017	      65.07874	      76.75171	      45.54749
       0.68157	      44.25049	      62.33215	      58.74634	      81.40564
       0.69468	      49.36218	      62.25586	      54.70276	      82.24487
       0.70779	      42.57202	      39.67285	      54.70276	      27.61841
       0.72090	      53.17688	      49.36218	      56.30493	      50.27771
       0.73400	     100.63171	      49.05701	      47.91260	      43.48755
       0.74711	      37.46033	      46.38672	      37.61292	      38.07068
