ALV-7004/USB-FAST
Date :	"11/11/2025"
Time :	"3:59:35 PM"
Samplename : 	""
SampMemo(0) : 	""
SampMemo(1) : 	""
SampMemo(2) : 	""
SampMemo(3) : 	""
SampMemo(4) : 	""
SampMemo(5) : 	""
SampMemo(6) : 	""
SampMemo(7) : 	""
SampMemo(8) : 	""
SampMemo(9) : 	""
Temperature [K] :	     298.16000
Viscosity [cp]  :	       0.89000
Refractive Index:	       1.33200
Wavelength [nm] :	       0.00000
Angle [°]       :	       0.00000
Duration [s]    :	         1
FloatDur [ms]   :	          944
Stop TP [ms]   :	     68369
Runs            :	         1
Mode            :	"A-CH0+1  A-CH2+3 "
MeanCR0 [kHz]   :	      55.80266
MeanCR1 [kHz]   :	      56.82839
MeanCR2 [kHz]   :	      56.99688
MeanCR3 [kHz]   :	      56.12903

"Correlation"
  3.12500E-006	 -1.00000E+000	 -1.00000E+000	 -1.00000E+000	 -1.00000E+000
  6.25000E-006	 -1.00000E+000	 -1.00000E+000	 -1.00000E+000	 -1.00000E+000
  9.37500E-006	 -1.00000E+000	 -1.00000E+000	 -1.00000E+000	 -1.00000E+000
  1.25000E-005	 -1.00000E+000	 -1.00000E+000	 -1.00000E+000	 -1.00000E+000
  1.56250E-005	 -1.00000E+000	 -1.00000E+000	 -1.00000E+000	 -1.00000E+000
  1.87500E-005	 -1.00000E+000	 -1.00000E+000	 -1.00000E+000	 -1.00000E+000
  2.18750E-005	 -8.91108E-001	  4.69958E-001	  1.19192E+000	 -7.84740E-001
  2.50000E-005	  1.27204E+001	  1.22296E+001	  1.13165E+001	  2.44006E+001
  2.81250E-005	  2.26677E+000	  1.93992E+000	  1.60943E+000	  9.65535E+000
  3.12500E-005	  1.83120E+000	  2.04491E+000	  1.08754E+000	  4.81201E+000
  3.43750E-005	  1.06896E+000	  1.41493E+000	  9.83166E-001	  3.95097E+000
  3.75000E-005	  8.51171E-001	  7.84949E-001	  1.50505E+000	  4.27386E+000
  4.06250E-005	  1.94010E+000	  9.94942E-001	  1.29630E+000	  2.65941E+000
  4.37500E-005	  1.39563E+000	  1.30993E+000	  8.78789E-001	  2.33652E+000
  4.68750E-005	  1.28674E+000	  7.84949E-001	  7.74412E-001	  2.55178E+000
  5.00000E-005	  9.60064E-001	  4.17459E-001	  6.17846E-001	  2.12126E+000
  5.62500E-005	  7.96725E-001	  4.17459E-001	  4.61280E-001	  1.85219E+000
  6.25000E-005	  6.33386E-001	  2.59964E-001	  2.52526E-001	  1.31404E+000
  6.87500E-005	  1.01451E+000	  5.74955E-001	  2.00337E-001	  1.15260E+000
  7.50000E-005	  3.06709E-001	  6.79951E-001	  1.24411E+000	  6.68261E-001
  8.12500E-005	  3.44780E-002	  8.37447E-001	  5.65657E-001	  1.42167E+000
  8.75000E-005	  4.15601E-001	  4.69958E-001	  3.56903E-001	  6.14447E-001
  9.37500E-005	  5.24494E-001	  8.37447E-001	  3.56903E-001	  6.68261E-001
  1.00000E-004	  7.15055E-001	  4.96207E-001	  2.52526E-001	  6.14446E-001
  1.12500E-004	  4.42824E-001	  1.02468E-001	  5.91751E-001	  1.04497E+000
  1.25000E-004	  6.33386E-001	  5.22456E-001	  4.35186E-001	  7.75891E-001
  1.37500E-004	  4.70048E-001	  3.38711E-001	  6.70034E-001	  9.91150E-001
  1.50000E-004	  3.33932E-001	  1.12619E+000	  6.96128E-001	  8.56613E-001
  1.62500E-004	  3.61155E-001	  4.96207E-001	  5.91751E-001	  8.02798E-001
  1.75000E-004	  4.97271E-001	  4.96207E-001	  3.30808E-001	  4.79909E-001
  1.87500E-004	  9.32840E-001	  4.43708E-001	  5.39563E-001	  3.18465E-001
  2.00000E-004	  6.06163E-001	  4.96206E-001	  6.17845E-001	  6.27900E-001
  2.25000E-004	  4.70047E-001	  5.09331E-001	  4.22138E-001	  6.14446E-001
  2.50000E-004	  3.88378E-001	  4.83082E-001	  4.48232E-001	  6.00992E-001
  2.75000E-004	  5.10882E-001	  4.69957E-001	  7.61364E-001	  4.53001E-001
  3.00000E-004	  2.65874E-001	  4.43708E-001	  7.87458E-001	  4.12640E-001
  3.25000E-004	  7.28667E-001	  6.53702E-001	  3.17761E-001	  5.60631E-001
  3.50000E-004	  3.47543E-001	  4.56832E-001	  7.22222E-001	  6.81715E-001
  3.75000E-004	  5.10882E-001	  6.79951E-001	  5.52610E-001	  7.62437E-001
  4.00000E-004	  5.17687E-001	  4.96206E-001	  5.33038E-001	  5.74084E-001
  4.50000E-004	  5.78939E-001	  6.14327E-001	  4.35185E-001	  4.46274E-001
  5.00000E-004	  4.83658E-001	  4.56832E-001	  4.61279E-001	  4.79908E-001
  5.50000E-004	  3.67960E-001	  4.24020E-001	  4.35185E-001	  3.45371E-001
  6.00000E-004	  4.49629E-001	  5.94640E-001	  4.15614E-001	  5.47177E-001
  6.50000E-004	  6.67414E-001	  2.92774E-001	  5.26515E-001	  4.79908E-001
  7.00000E-004	  5.31299E-001	  3.71522E-001	  6.17845E-001	  4.73181E-001
  7.50000E-004	  5.44910E-001	  3.64960E-001	  4.02567E-001	  5.53904E-001
  8.00000E-004	  4.93894E-001	  4.56831E-001	  4.12351E-001	  5.94263E-001
  9.00000E-004	  5.41535E-001	  5.19172E-001	  4.71063E-001	  4.29456E-001
  1.00000E-003	  5.65356E-001	  4.24019E-001	  4.58016E-001	  3.95821E-001
  1.10000E-003	  4.02014E-001	  5.32297E-001	  4.22136E-001	  4.93361E-001
  1.20000E-003	  4.59864E-001	  3.81364E-001	  4.22136E-001	  4.93361E-001
  1.30000E-003	  4.76879E-001	  5.55265E-001	  3.50377E-001	  4.63090E-001
  1.40000E-003	  4.83685E-001	  5.22454E-001	  5.33037E-001	  3.62187E-001
  1.50000E-003	  5.21118E-001	  4.07613E-001	  5.26513E-001	  4.09275E-001
  1.60000E-003	  4.99024E-001	  4.61750E-001	  5.03678E-001	  5.05130E-001
  1.80000E-003	  5.10935E-001	  3.32145E-001	  4.77584E-001	  5.00085E-001
  2.00000E-003	  3.98636E-001	  4.73234E-001	  4.80846E-001	  4.09273E-001
  2.20000E-003	  4.95621E-001	  4.33860E-001	  4.89028E-001	  5.23629E-001
  2.40000E-003	  4.42847E-001	  4.60109E-001	  4.31946E-001	  4.86631E-001
  2.60000E-003	  4.25833E-001	  5.20810E-001	  5.10230E-001	  4.73178E-001
  2.80000E-003	  3.69710E-001	  4.30579E-001	  4.62933E-001	  4.66451E-001
  3.00000E-003	  5.14338E-001	  4.10892E-001	  4.75981E-001	  4.21045E-001
  3.20000E-003	  4.77807E-001	  4.21551E-001	  4.67821E-001	  4.49629E-001
  3.60000E-003	  4.40372E-001	  4.19910E-001	  3.72413E-001	  4.65605E-001
  4.00000E-003	  3.96982E-001	  3.58389E-001	  3.64258E-001	  4.58037E-001
  4.40000E-003	  3.95281E-001	  4.31394E-001	  4.43357E-001	  4.47106E-001
  4.80000E-003	  4.09744E-001	  4.10887E-001	  4.23786E-001	  4.04223E-001
  5.20000E-003	  4.11446E-001	  3.96943E-001	  4.14001E-001	  4.27767E-001
  5.60000E-003	  4.66719E-001	  4.43699E-001	  3.87091E-001	  4.07586E-001
  6.00000E-003	  4.21628E-001	  4.25652E-001	  4.48250E-001	  4.94194E-001
  6.40000E-003	  4.05082E-001	  3.93242E-001	  3.87489E-001	  4.19769E-001
  7.20000E-003	  4.20822E-001	  4.20311E-001	  3.91974E-001	  3.69739E-001
  8.00000E-003	  4.01679E-001	  3.68223E-001	  4.36824E-001	  3.90339E-001
  8.80000E-003	  3.79984E-001	  3.73965E-001	  4.15215E-001	  3.97486E-001
  9.60000E-003	  3.88465E-001	  3.62071E-001	  4.15215E-001	  3.78567E-001
  1.04000E-002	  3.91017E-001	  3.59610E-001	  3.77322E-001	  4.24394E-001
  1.12000E-002	  3.76129E-001	  3.48127E-001	  3.66313E-001	  3.96646E-001
  1.20000E-002	  3.53983E-001	  3.27209E-001	  3.89961E-001	  4.34904E-001
  1.28000E-002	  3.41042E-001	  3.65129E-001	  3.57350E-001	  3.91371E-001
  1.44000E-002	  3.27004E-001	  3.70871E-001	  3.94861E-001	  3.66567E-001
  1.60000E-002	  3.38064E-001	  3.53055E-001	  3.59388E-001	  3.56267E-001
  1.76000E-002	  3.41892E-001	  3.46083E-001	  3.73659E-001	  3.78128E-001
  1.92000E-002	  3.26578E-001	  3.16758E-001	  3.35944E-001	  3.79179E-001
  2.08000E-002	  3.17220E-001	  3.43212E-001	  3.55515E-001	  3.66357E-001
  2.24000E-002	  3.27829E-001	  3.28447E-001	  3.22488E-001	  3.21372E-001
  2.40000E-002	  3.09113E-001	  2.90303E-001	  3.57961E-001	  3.51037E-001
  2.56000E-002	  3.16333E-001	  2.92753E-001	  3.12027E-001	  3.21701E-001
  2.88000E-002	  2.76773E-001	  2.81987E-001	  3.02319E-001	  3.07827E-001
  3.20000E-002	  3.01020E-001	  2.80449E-001	  2.80606E-001	  2.84914E-001
  3.52000E-002	  2.45851E-001	  2.49381E-001	  2.76427E-001	  2.95740E-001
  3.84000E-002	  2.49998E-001	  2.56992E-001	  2.40411E-001	  2.68413E-001
  4.16000E-002	  2.37815E-001	  2.42353E-001	  2.37172E-001	  2.51281E-001
  4.48000E-002	  2.35795E-001	  2.19407E-001	  2.38294E-001	  2.76401E-001
  4.80000E-002	  2.20776E-001	  2.40428E-001	  2.24328E-001	  2.15019E-001
  5.12000E-002	  1.97185E-001	  2.12881E-001	  2.03565E-001	  2.16569E-001
  5.76000E-002	  2.04918E-001	  1.88734E-001	  1.85549E-001	  2.04429E-001
  6.40000E-002	  1.60461E-001	  1.79968E-001	  1.77953E-001	  1.74421E-001
  7.04000E-002	  1.55750E-001	  1.47208E-001	  1.63913E-001	  1.67935E-001
  7.68000E-002	  1.48784E-001	  1.31336E-001	  1.60774E-001	  1.45810E-001
  8.32000E-002	  1.41977E-001	  1.18745E-001	  1.35847E-001	  1.39031E-001
  8.96000E-002	  1.31394E-001	  1.26764E-001	  1.23205E-001	  1.36004E-001
  9.60000E-002	  9.81037E-002	  9.63094E-002	  9.46277E-002	  1.21909E-001
  1.02400E-001	  1.07057E-001	  9.62262E-002	  9.33460E-002	  1.12439E-001
  1.15200E-001	  8.44563E-002	  7.68616E-002	  8.70750E-002	  9.79603E-002
  1.28000E-001	  6.64588E-002	  6.59810E-002	  7.35189E-002	  7.67310E-002
  1.40800E-001	  6.75353E-002	  5.67206E-002	  4.86963E-002	  5.92029E-002
  1.53600E-001	  4.47560E-002	  4.15378E-002	  3.76525E-002	  6.28232E-002
  1.66400E-001	  2.89782E-002	  3.69363E-002	  2.64937E-002	  4.15630E-002
  1.79200E-001	  2.89782E-002	  3.62827E-002	  2.96291E-002	  3.97234E-002
  1.92000E-001	  2.88186E-002	  2.00147E-002	  1.62718E-002	  3.08079E-002
  2.04800E-001	  2.58143E-002	  1.89774E-002	  1.78882E-002	  2.76046E-002
  2.30400E-001	  1.19063E-002	  1.51689E-002	  1.15451E-002	  1.21288E-002
  2.56000E-001	  1.85797E-002	  8.98285E-003	  4.62844E-003	  9.41906E-003
  2.81600E-001	  5.45938E-003	  2.87450E-003	  9.84349E-003	  3.46823E-003
  3.07200E-001	  3.21132E-004	  2.84516E-005	 -7.26647E-003	  4.33572E-003
  3.32800E-001	 -2.90333E-003	  3.34680E-003	 -8.38974E-003	  1.07894E-002
  3.58400E-001	 -1.11713E-003	 -5.33311E-004	 -1.20474E-002	  1.63492E-002
  3.84000E-001	 -4.46864E-003	  4.86960E-003	 -6.68001E-003	  1.67900E-002
  4.09600E-001	 -5.39319E-003	 -3.34523E-003	 -4.56151E-003	  1.68854E-003
  4.60800E-001	 -3.79485E-003	 -8.03780E-003	  8.37369E-003	  1.15526E-003
  5.12000E-001	  2.86925E-004	  5.65412E-003	  1.01394E-002	  3.26395E-003
  5.63200E-001	  5.68627E-003	 -1.05795E-003	  3.51469E-003	  4.52768E-003
  6.14400E-001	  7.19092E-003	  2.50335E-004	  2.42988E-003	  4.75555E-003
  6.65600E-001	  7.07699E-003	 -4.40134E-003	 -5.18298E-003	  1.27487E-002
  7.16800E-001	  6.20365E-003	 -3.92654E-003	 -6.53340E-003	  1.08875E-002
  7.68000E-001	  2.95373E-003	 -1.06176E-002	 -5.84482E-003	  8.37074E-003
  8.19200E-001	  4.03580E-003	 -7.92787E-003	 -3.00769E-003	  1.96012E-003
  9.21600E-001	  6.04012E-003	  1.31326E-003	  2.03839E-003	 -8.87228E-003
  1.02400E+000	  7.90460E-003	  1.54630E-003	  6.25947E-004	 -4.72661E-003
  1.12640E+000	  3.96186E-003	 -5.39004E-004	 -4.28969E-003	 -8.16221E-004
  1.22880E+000	  1.00339E-002	 -3.89877E-003	  1.40850E-003	 -9.38089E-003
  1.33120E+000	  1.02363E-002	 -2.39560E-003	  4.46839E-003	 -9.31842E-003
  1.43360E+000	  3.27383E-003	  3.59623E-003	 -7.28223E-004	  2.48889E-003
  1.53600E+000	  3.14935E-003	 -1.54570E-003	  1.30961E-002	  8.76075E-003
  1.63840E+000	  5.14585E-003	  2.96420E-003	  9.37797E-003	  8.69024E-003
  1.84320E+000	 -1.44959E-003	  4.33964E-004	 -8.54985E-004	  3.41247E-003
  2.04800E+000	  1.83544E-003	 -1.27766E-002	 -4.90506E-004	  2.32332E-003
  2.25280E+000	 -1.75301E-003	 -1.96087E-003	  1.26521E-003	  3.02583E-005
  2.45760E+000	  3.12391E-003	 -4.54930E-003	  4.83563E-003	  8.26798E-004
  2.66240E+000	 -6.30225E-005	 -3.80481E-003	  5.32959E-003	 -9.53955E-003
  2.86720E+000	 -4.24526E-003	  1.39102E-003	 -2.00316E-003	  2.18892E-004
  3.07200E+000	 -9.04570E-003	 -4.54089E-003	 -4.84879E-003	  5.11068E-003
  3.27680E+000	 -4.61373E-003	 -1.31796E-003	 -3.74798E-003	  1.81376E-004
  3.68640E+000	  4.32642E-003	 -6.46479E-005	 -8.20965E-004	  6.69140E-005
  4.09600E+000	  5.66540E-003	 -4.58090E-004	  3.65090E-003	  3.29887E-004
  4.50560E+000	  9.19919E-004	  7.65971E-004	 -6.50018E-003	 -1.88217E-003
  4.91520E+000	 -2.26690E-003	  3.49220E-003	  4.35269E-003	 -5.91722E-003
  5.32480E+000	 -2.04587E-003	 -8.83907E-004	  2.45199E-004	 -5.10875E-003
  5.73440E+000	 -6.97113E-003	  4.44663E-004	  1.19683E-003	 -2.82279E-003
  6.14400E+000	 -3.31426E-003	  2.29744E-003	  1.42454E-003	  5.71297E-003
  6.55360E+000	 -4.40493E-003	 -5.80797E-004	  2.27679E-003	  4.89108E-003
  7.37280E+000	 -3.29121E-003	  2.39468E-003	 -1.14171E-004	  7.72857E-003
  8.19200E+000	 -2.95881E-003	 -7.21493E-004	 -5.98941E-004	 -1.08589E-003
  9.01120E+000	  1.60424E-003	 -3.22753E-003	  8.21192E-006	 -4.44102E-004
  9.83040E+000	 -5.02206E-003	  5.31232E-003	 -2.34215E-003	 -2.70733E-003
  1.06496E+001	  3.39665E-003	 -1.15627E-003	 -4.43925E-003	  5.47937E-003
  1.14688E+001	  8.65507E-004	  6.07591E-004	 -1.19233E-004	 -2.50319E-004
  1.22880E+001	 -5.68872E-003	  3.37434E-003	 -1.12096E-003	  4.95635E-003
  1.31072E+001	 -3.23676E-003	  2.02562E-003	  1.75205E-003	  2.91889E-003
  1.47456E+001	 -4.95162E-003	 -8.18141E-005	 -7.65737E-004	  1.02332E-003
  1.63840E+001	 -2.10525E-004	  1.78806E-003	 -3.52100E-003	  9.00631E-004
  1.80224E+001	 -1.89054E-004	  1.93473E-003	 -2.63280E-004	 -8.22144E-004
  1.96608E+001	 -7.93298E-005	 -4.41315E-003	  8.46240E-004	  4.52530E-003
  2.12992E+001	  1.83246E-003	  4.31648E-005	  3.51266E-004	  1.49692E-003
  2.29376E+001	  4.50625E-004	 -8.37419E-005	  2.03875E-003	  1.57452E-003
  2.45760E+001	 -1.65901E-003	 -1.20089E-003	  3.79432E-004	 -1.46455E-003
  2.62144E+001	 -2.97072E-003	  4.00098E-005	 -2.14492E-004	 -7.61845E-004
  2.94912E+001	  1.91985E-003	  3.06415E-005	  2.48274E-003	  8.27881E-004
  3.27680E+001	  2.29131E-003	 -1.81572E-003	  2.26722E-004	 -2.81266E-004
  3.60448E+001	 -1.21326E-003	 -1.40411E-003	 -2.36345E-003	 -7.57597E-004
  3.93216E+001	 -1.00002E-003	  1.08437E-004	 -1.27067E-004	  4.10428E-005
  4.25984E+001	 -7.59542E-004	 -2.43373E-004	 -1.10665E-003	  3.36465E-003
  4.58752E+001	  1.02930E-003	 -2.28801E-004	  2.47218E-003	  9.07395E-004
  4.91520E+001	 -1.21087E-003	 -8.67038E-004	 -1.04811E-003	  9.55593E-004
  5.24288E+001	  3.81895E-004	 -2.91576E-004	  2.54590E-004	  1.46847E-003
  5.89824E+001	  5.40889E-004	  3.32756E-004	 -1.68851E-004	 -4.81736E-004
  6.55360E+001	  9.98916E-004	  6.58546E-005	 -5.06764E-004	 -3.78226E-004
  7.20896E+001	 -2.65367E-003	  6.42235E-005	 -3.31443E-004	  1.94951E-003
  7.86432E+001	  1.00377E-003	 -5.96625E-004	 -9.85852E-005	 -1.18529E-003
  8.51968E+001	  1.39572E-003	  9.32521E-004	 -8.07363E-005	  1.07864E-003
  9.17504E+001	 -1.06732E-003	 -1.19211E-003	 -7.76733E-004	 -5.22116E-004
  9.83040E+001	 -8.34545E-004	  1.89184E-003	 -1.77566E-004	 -1.53498E-003
  1.04858E+002	  1.89463E-004	  5.64731E-004	 -4.44645E-004	  4.77089E-005
  1.17965E+002	  1.56265E-005	  2.63896E-004	  3.65208E-004	  7.08442E-004
  1.31072E+002	 -3.93463E-004	 -6.39277E-004	 -3.60669E-005	  1.44706E-004
  1.44179E+002	  1.18594E-003	 -7.68588E-004	  5.43251E-004	 -1.70516E-003
  1.57286E+002	 -5.56634E-004	 -7.58595E-004	 -1.22199E-004	  4.59709E-004
  1.70394E+002	  9.61626E-004	 -5.73517E-004	  1.21156E-004	  8.20857E-004
  1.83501E+002	 -1.05421E-003	  1.12258E-003	  1.52104E-003	 -1.17390E-003
  1.96608E+002	  1.22833E-003	 -5.89850E-004	  3.40714E-004	 -1.68656E-003
  2.09715E+002	 -4.38869E-005	 -3.31905E-004	  7.06868E-005	  2.65946E-004
  2.35930E+002	 -3.56286E-004	  8.48678E-005	 -8.58911E-005	  1.54763E-003
  2.62144E+002	  3.67789E-004	 -7.58925E-004	 -7.72929E-004	  2.98826E-004
  2.88358E+002	  6.60400E-005	  6.10176E-004	  1.64871E-004	  5.23087E-004
  3.14573E+002	 -3.87402E-004	  3.81116E-004	  4.36828E-004	  9.34745E-005
  3.40787E+002	  5.84965E-005	 -2.61778E-004	  1.13540E-004	 -5.59690E-004
  3.67002E+002	 -5.14923E-005	  8.59140E-004	  5.04774E-004	 -4.15590E-004
  3.93216E+002	  5.05350E-004	  9.37976E-005	 -4.64363E-004	  8.02875E-004

"Count Rate"
       0.01311	      48.98071	      55.99976	      55.84717	      48.67554
       0.02621	      61.03516	      64.46838	      53.55835	      49.13330
       0.03932	      51.65100	      57.75452	      58.13599	      47.22595
       0.05243	      55.08423	      53.25317	      54.39758	      52.41394
       0.06554	      52.49023	      54.77905	      56.22864	      52.33765
       0.07864	      48.59924	      61.03516	      56.22864	      61.26404
       0.09175	      54.09241	      50.27771	      53.48206	      56.53381
       0.10486	      65.84167	      54.77905	      49.13330	      57.14417
       0.11796	      52.03247	      57.83081	      55.61829	      58.44116
       0.13107	      58.59375	      58.05969	      54.47388	      56.22864
       0.14418	      55.38940	      48.06519	      55.77087	      55.77087
       0.15729	      48.14148	      54.55017	      50.58289	      58.51746
       0.17039	      61.64551	      56.30493	      49.28589	      54.62646
       0.18350	      63.40027	      61.87439	      49.81995	      48.52295
       0.19661	      51.95618	      53.71094	      56.22864	      51.72729
       0.20972	      54.93164	      54.24500	      59.73816	      45.16602
       0.22282	      51.80359	      56.83899	      58.36487	      59.05151
       0.23593	      58.59375	      54.93164	      63.40027	      56.99158
       0.24904	      53.55835	      56.99158	      55.46570	      59.81445
       0.26214	      54.55017	      54.39758	      63.78174	      55.54199
       0.27525	      51.04065	      51.49841	      53.71094	      54.55017
       0.28836	      52.71912	      55.38940	      52.41394	      74.15771
       0.30147	      57.98340	      51.26953	      50.88806	      53.40576
       0.31457	      54.85535	      57.14417	      55.00793	      54.24500
       0.32768	      63.01880	      55.16052	      54.55017	      61.18774
       0.34079	      50.35400	      47.45483	      53.93982	      65.00244
       0.35389	      60.80627	      54.01611	      54.16870	      59.66187
       0.36700	      55.00793	      54.01611	      56.61011	      57.37305
       0.38011	      53.55835	      57.29675	      61.79810	      59.96704
       0.39322	      47.07336	      57.98340	      59.20410	      61.72180
       0.40632	      56.45752	      57.52563	      52.49023	      63.09509
       0.41943	      60.50110	      52.10876	      54.70276	      56.53381
       0.43254	      61.87439	      55.16052	      58.36487	      44.47937
       0.44564	      47.07336	      56.83899	      61.03516	      55.38940
       0.45875	      52.71912	      60.88257	      60.80627	      58.28857
       0.47186	      58.51746	      57.98340	      50.50659	      52.18506
       0.48497	      55.31311	      57.44934	      60.42480	      58.67004
       0.49807	      56.99158	      65.38391	      53.10059	      56.53381
       0.51118	      57.06787	      55.31311	      57.60193	      59.20410
       0.52429	      57.67822	      46.23413	      57.29675	      51.95618
       0.53740	      50.88806	      56.76270	      59.28040	      55.69458
       0.55050	      53.93982	      55.31311	      59.43298	      56.07605
       0.56361	      51.95618	      63.32397	      54.77905	      56.53381
       0.57672	      63.40027	      56.22864	      59.73816	      55.77087
       0.58982	      53.10059	      55.69458	      58.21228	      55.16052
       0.60293	      57.67822	      56.83899	      56.15234	      50.20142
       0.61604	      51.04065	      56.38123	      52.49023	      52.94800
       0.62915	      58.44116	      54.77905	      62.48474	      57.98340
       0.64225	      52.49023	      48.67554	      55.99976	      58.74634
       0.65536	      51.72729	      55.08423	      51.57471	      55.69458
       0.66847	      52.41394	      52.49023	      58.36487	      55.99976
       0.68157	      51.42212	      62.56104	      54.62646	      54.32129
       0.69468	      55.08423	      57.67822	      55.84717	      55.84717
       0.70779	      56.91528	      47.98889	      57.06787	      57.22046
       0.72090	      55.23682	      60.19592	      55.46570	      53.32947
       0.73400	      54.70276	      55.08423	      63.40027	      50.88806
       0.74711	      56.38123	      54.70276	      57.37305	      53.25317
