ALV-7004/USB-FAST
Date :	"11/11/2025"
Time :	"3:56:22 PM"
Samplename : 	""
SampMemo(0) : 	""
SampMemo(1) : 	""
SampMemo(2) : 	""
SampMemo(3) : 	""
SampMemo(4) : 	""
SampMemo(5) : 	""
SampMemo(6) : 	""
SampMemo(7) : 	""
SampMemo(8) : 	""
SampMemo(9) : 	""
Temperature [K] :	     298.16000
Viscosity [cp]  :	       0.89000
Refractive Index:	       1.33200
Wavelength [nm] :	       0.00000
Angle [°]       :	       0.00000
Duration [s]    :	         1
FloatDur [ms]   :	          944
Stop TP [ms]   :	     66849
Runs            :	         1
Mode            :	"A-CH0+1  A-CH2+3 "
MeanCR0 [kHz]   :	      54.03625
MeanCR1 [kHz]   :	      53.49265
MeanCR2 [kHz]   :	      52.53368
MeanCR3 [kHz]   :	      51.34159

"Correlation"
  3.12500E-006	 -1.00000E+000	 -1.00000E+000	 -1.00000E+000	 -1.00000E+000
  6.25000E-006	 -1.00000E+000	 -1.00000E+000	 -1.00000E+000	 -1.00000E+000
  9.37500E-006	 -1.00000E+000	 -1.00000E+000	 -1.00000E+000	 -1.00000E+000
  1.25000E-005	 -1.00000E+000	 -1.00000E+000	 -1.00000E+000	 -1.00000E+000
  1.56250E-005	 -1.00000E+000	 -1.00000E+000	 -1.00000E+000	 -1.00000E+000
  1.87500E-005	 -1.00000E+000	 -1.00000E+000	 -1.00000E+000	 -1.00000E+000
  2.18750E-005	 -1.00000E+000	  1.13300E+000	  5.97259E-001	 -8.71362E-001
  2.50000E-005	  1.25870E+001	  1.27460E+001	  1.20238E+001	  2.58853E+001
  2.81250E-005	  2.94835E+000	  2.19951E+000	  2.56312E+000	  6.97555E+000
  3.12500E-005	  1.67095E+000	  1.37001E+000	  2.19452E+000	  5.04598E+000
  3.43750E-005	  1.67095E+000	  1.25150E+000	  8.42991E-001	  5.43190E+000
  3.75000E-005	  1.09031E+000	  1.25150E+000	  5.97259E-001	  3.24505E+000
  4.06250E-005	  3.93537E-001	  7.77504E-001	  3.51527E-001	  2.98778E+000
  4.37500E-005	  9.74177E-001	  1.13300E+000	  1.33445E+000	  2.60186E+000
  4.68750E-005	  1.32256E+000	  8.96004E-001	 -1.70716E-002	  2.85914E+000
  5.00000E-005	  1.14837E+000	  1.07375E+000	  4.43614E-002	  2.40890E+000
  5.62500E-005	  9.16113E-001	  1.01450E+000	  9.04424E-001	  2.21595E+000
  6.25000E-005	  1.03224E+000	  2.44253E-001	  4.74393E-001	  1.44412E+000
  6.87500E-005	  1.14837E+000	  3.03503E-001	  7.81558E-001	  1.57276E+000
  7.50000E-005	  8.58049E-001	  4.81253E-001	  3.51526E-001	  1.50844E+000
  8.12500E-005	  7.99985E-001	  3.62753E-001	  5.97259E-001	  1.83003E+000
  8.75000E-005	  5.09665E-001	  1.13300E+000	  8.42991E-001	  1.44412E+000
  9.37500E-005	  5.67729E-001	  4.22003E-001	  3.51526E-001	  1.57276E+000
  1.00000E-004	  3.93537E-001	  6.59003E-001	  3.20810E-001	  1.02605E+000
  1.12500E-004	  6.25793E-001	  4.81253E-001	  5.97258E-001	  8.33090E-001
  1.25000E-004	  4.51601E-001	  2.14627E-001	  1.05801E+000	  9.29568E-001
  1.37500E-004	  5.09665E-001	  3.62753E-001	  5.35825E-001	  1.12253E+000
  1.50000E-004	  9.16113E-001	  8.66379E-001	  4.74392E-001	  6.72293E-001
  1.62500E-004	  2.48376E-001	  5.99753E-001	  7.81557E-001	  1.02605E+000
  1.75000E-004	  7.12889E-001	  5.99753E-001	  7.50841E-001	  4.79336E-001
  1.87500E-004	  3.93537E-001	  4.22003E-001	  7.20124E-001	  8.00930E-001
  2.00000E-004	  4.08052E-001	  5.25690E-001	  5.35825E-001	  5.91893E-001
  2.25000E-004	  5.24180E-001	  6.88628E-001	  5.05109E-001	  8.00930E-001
  2.50000E-004	  5.82244E-001	  3.47940E-001	  5.97258E-001	  5.11495E-001
  2.75000E-004	  5.82244E-001	  4.81253E-001	  2.90093E-001	  3.34618E-001
  3.00000E-004	  6.83856E-001	  6.44190E-001	  4.89750E-001	  2.38139E-001
  3.25000E-004	  5.67728E-001	  4.36815E-001	  4.59034E-001	  5.27575E-001
  3.50000E-004	  4.80632E-001	  7.33066E-001	  7.81557E-001	  1.09037E+000
  3.75000E-004	  5.53212E-001	  5.10878E-001	  4.74392E-001	  6.56212E-001
  4.00000E-004	  4.87890E-001	  4.44221E-001	  4.35996E-001	  6.48172E-001
  4.50000E-004	  4.58858E-001	  4.66439E-001	  3.36167E-001	  5.03454E-001
  5.00000E-004	  4.73374E-001	  4.88658E-001	  6.89407E-001	  5.83853E-001
  5.50000E-004	  5.38696E-001	  3.03502E-001	  5.66541E-001	  5.27574E-001
  6.00000E-004	  3.42730E-001	  4.73846E-001	  5.12787E-001	  5.27574E-001
  6.50000E-004	  5.02406E-001	  4.81252E-001	  5.58862E-001	  6.07973E-001
  7.00000E-004	  4.95148E-001	  3.62752E-001	  6.89407E-001	  7.20531E-001
  7.50000E-004	  2.62892E-001	  4.51627E-001	  4.89750E-001	  5.91893E-001
  8.00000E-004	  4.11679E-001	  5.21985E-001	  4.05278E-001	  3.38636E-001
  9.00000E-004	  4.51598E-001	  4.88657E-001	  4.82069E-001	  5.95911E-001
  1.00000E-003	  4.91517E-001	  4.29407E-001	  6.24133E-001	  5.27573E-001
  1.10000E-003	  4.37082E-001	  6.14563E-001	  4.35995E-001	  3.58736E-001
  1.20000E-003	  4.95146E-001	  4.66438E-001	  5.31984E-001	  4.79333E-001
  1.30000E-003	  4.26195E-001	  5.51610E-001	  5.01267E-001	  4.15015E-001
  1.40000E-003	  5.53210E-001	  4.73844E-001	  5.16625E-001	  5.23553E-001
  1.50000E-003	  4.51598E-001	  4.66438E-001	  5.85737E-001	  5.71792E-001
  1.60000E-003	  5.56837E-001	  5.31240E-001	  5.56938E-001	  3.96923E-001
  1.80000E-003	  5.00587E-001	  4.49772E-001	  4.99345E-001	  4.55211E-001
  2.00000E-003	  5.00587E-001	  4.84951E-001	  4.60949E-001	  5.29580E-001
  2.20000E-003	  4.82442E-001	  3.99780E-001	  4.20634E-001	  4.83351E-001
  2.40000E-003	  4.80628E-001	  5.18279E-001	  5.08944E-001	  4.23052E-001
  2.60000E-003	  4.82442E-001	  5.71975E-001	  4.09115E-001	  3.86873E-001
  2.80000E-003	  4.75184E-001	  4.42365E-001	  5.28141E-001	  4.65261E-001
  3.00000E-003	  5.13289E-001	  4.79397E-001	  4.24473E-001	  4.00943E-001
  3.20000E-003	  4.67921E-001	  5.07165E-001	  4.38896E-001	  4.82341E-001
  3.60000E-003	  5.00582E-001	  4.66431E-001	  5.85761E-001	  4.41137E-001
  4.00000E-003	  5.08747E-001	  4.46989E-001	  4.69613E-001	  4.85356E-001
  4.40000E-003	  4.98768E-001	  4.87724E-001	  4.92651E-001	  4.94401E-001
  4.80000E-003	  4.94232E-001	  4.68282E-001	  5.13768E-001	  4.66261E-001
  5.20000E-003	  4.64292E-001	  4.29400E-001	  5.57924E-001	  4.53197E-001
  5.60000E-003	  4.52498E-001	  5.25680E-001	  5.81922E-001	  5.02440E-001
  6.00000E-003	  4.47055E-001	  5.03462E-001	  4.75372E-001	  4.87366E-001
  6.40000E-003	  4.47045E-001	  4.96045E-001	  4.85471E-001	  4.92883E-001
  7.20000E-003	  4.51581E-001	  4.65032E-001	  4.70563E-001	  4.56202E-001
  8.00000E-003	  4.79252E-001	  4.36333E-001	  4.42726E-001	  5.00923E-001
  8.80000E-003	  4.66097E-001	  4.84473E-001	  4.80642E-001	  4.87858E-001
  9.60000E-003	  5.00572E-001	  4.90954E-001	  5.04639E-001	  4.70774E-001
  1.04000E-002	  4.90592E-001	  4.60403E-001	  4.85921E-001	  4.92883E-001
  1.12000E-002	  4.55210E-001	  4.50683E-001	  5.04639E-001	  4.84341E-001
  1.20000E-002	  4.37973E-001	  4.58089E-001	  4.84481E-001	  5.17505E-001
  1.28000E-002	  4.86519E-001	  4.42331E-001	  4.91690E-001	  4.82844E-001
  1.44000E-002	  5.23716E-001	  4.49274E-001	  5.18568E-001	  4.37369E-001
  1.60000E-002	  4.88333E-001	  4.63161E-001	  4.79452E-001	  4.88371E-001
  1.76000E-002	  4.96725E-001	  4.48117E-001	  4.89531E-001	  4.81588E-001
  1.92000E-002	  4.47961E-001	  4.48580E-001	  4.70573E-001	  4.50685E-001
  2.08000E-002	  5.03303E-001	  4.87462E-001	  4.88301E-001	  4.56714E-001
  2.24000E-002	  4.82209E-001	  4.82370E-001	  4.64544E-001	  4.65508E-001
  2.40000E-002	  4.83343E-001	  4.32379E-001	  4.77022E-001	  4.50433E-001
  2.56000E-002	  4.96827E-001	  4.55397E-001	  4.83311E-001	  4.54031E-001
  2.88000E-002	  4.71283E-001	  4.83054E-001	  4.63873E-001	  4.69705E-001
  3.20000E-002	  4.85344E-001	  4.43594E-001	  5.01069E-001	  4.49102E-001
  3.52000E-002	  4.67569E-001	  4.65002E-001	  4.77311E-001	  4.52871E-001
  3.84000E-002	  4.62806E-001	  4.58521E-001	  4.58953E-001	  4.50735E-001
  4.16000E-002	  4.49991E-001	  4.63729E-001	  4.42754E-001	  4.52745E-001
  4.48000E-002	  4.78343E-001	  4.40701E-001	  4.72032E-001	  4.89177E-001
  4.80000E-002	  4.68930E-001	  4.46949E-001	  4.68043E-001	  4.39052E-001
  5.12000E-002	  4.70552E-001	  4.40969E-001	  4.64179E-001	  4.56648E-001
  5.76000E-002	  4.79114E-001	  4.35356E-001	  4.57969E-001	  4.41007E-001
  6.40000E-002	  4.42173E-001	  4.34836E-001	  4.43118E-001	  4.38494E-001
  7.04000E-002	  4.40897E-001	  4.31133E-001	  4.63279E-001	  4.46947E-001
  7.68000E-002	  4.40046E-001	  4.21500E-001	  4.51789E-001	  4.38154E-001
  8.32000E-002	  4.35595E-001	  4.30757E-001	  4.40749E-001	  4.43086E-001
  8.96000E-002	  4.33894E-001	  3.99514E-001	  4.37149E-001	  4.34230E-001
  9.60000E-002	  4.19179E-001	  4.10160E-001	  4.22149E-001	  4.19029E-001
  1.02400E-001	  4.18228E-001	  3.98086E-001	  4.10694E-001	  4.20856E-001
  1.15200E-001	  4.02888E-001	  3.85792E-001	  4.02475E-001	  3.96669E-001
  1.28000E-001	  3.81593E-001	  3.82292E-001	  3.99567E-001	  3.78357E-001
  1.40800E-001	  3.89817E-001	  3.73006E-001	  3.88709E-001	  3.73679E-001
  1.53600E-001	  3.77735E-001	  3.59933E-001	  3.63269E-001	  3.64476E-001
  1.66400E-001	  3.46713E-001	  3.46540E-001	  3.61052E-001	  3.49054E-001
  1.79200E-001	  3.38263E-001	  3.41653E-001	  3.59044E-001	  3.42940E-001
  1.92000E-001	  3.31515E-001	  3.29736E-001	  3.41728E-001	  3.34648E-001
  2.04800E-001	  3.17022E-001	  3.26880E-001	  3.28483E-001	  3.19050E-001
  2.30400E-001	  3.02244E-001	  2.99057E-001	  3.13996E-001	  3.02852E-001
  2.56000E-001	  2.81163E-001	  2.83324E-001	  2.85492E-001	  2.85004E-001
  2.81600E-001	  2.61741E-001	  2.67681E-001	  2.73674E-001	  2.68634E-001
  3.07200E-001	  2.47099E-001	  2.47639E-001	  2.51979E-001	  2.45623E-001
  3.32800E-001	  2.26505E-001	  2.31241E-001	  2.42357E-001	  2.35899E-001
  3.58400E-001	  2.11755E-001	  2.17754E-001	  2.21789E-001	  2.15203E-001
  3.84000E-001	  2.00808E-001	  2.16848E-001	  2.08434E-001	  2.03536E-001
  4.09600E-001	  1.88010E-001	  1.98162E-001	  1.96203E-001	  1.88661E-001
  4.60800E-001	  1.63791E-001	  1.74516E-001	  1.63516E-001	  1.78160E-001
  5.12000E-001	  1.40098E-001	  1.56076E-001	  1.49495E-001	  1.55843E-001
  5.63200E-001	  1.29927E-001	  1.47519E-001	  1.37824E-001	  1.43625E-001
  6.14400E-001	  1.10296E-001	  1.28599E-001	  1.20991E-001	  1.29829E-001
  6.65600E-001	  9.64184E-002	  1.21436E-001	  1.09697E-001	  1.23514E-001
  7.16800E-001	  8.73517E-002	  1.07815E-001	  1.00386E-001	  1.12418E-001
  7.68000E-001	  7.62821E-002	  9.72444E-002	  9.28629E-002	  9.65765E-002
  8.19200E-001	  6.77518E-002	  8.99730E-002	  8.28130E-002	  8.95648E-002
  9.21600E-001	  5.47605E-002	  6.62651E-002	  6.50555E-002	  8.12582E-002
  1.02400E+000	  4.37171E-002	  5.44528E-002	  5.81366E-002	  6.88175E-002
  1.12640E+000	  3.42009E-002	  4.23275E-002	  5.10903E-002	  5.61870E-002
  1.22880E+000	  2.36126E-002	  3.09255E-002	  4.37191E-002	  4.67953E-002
  1.33120E+000	  2.07244E-002	  2.45072E-002	  3.75446E-002	  4.50856E-002
  1.43360E+000	  8.91374E-003	  1.83828E-002	  3.77402E-002	  3.37619E-002
  1.53600E+000	  1.36925E-003	  2.34030E-002	  3.50631E-002	  2.46647E-002
  1.63840E+000	  1.91520E-004	  2.37484E-002	  3.46202E-002	  2.09804E-002
  1.84320E+000	 -1.96131E-004	  2.91838E-002	  3.00219E-002	  1.53251E-002
  2.04800E+000	 -9.94746E-005	  3.17363E-002	  1.76833E-002	  7.84340E-003
  2.25280E+000	  5.26878E-003	  2.96857E-002	  1.73993E-002	  4.17836E-003
  2.45760E+000	 -5.72923E-003	  2.17789E-002	  1.99637E-002	 -3.19119E-003
  2.66240E+000	 -7.66440E-003	  1.30259E-002	  2.31123E-002	 -3.42678E-003
  2.86720E+000	 -2.67971E-003	  9.83255E-003	  3.94826E-002	 -7.64851E-003
  3.07200E+000	  4.62744E-004	 -3.14238E-005	  3.83918E-002	 -7.26325E-003
  3.27680E+000	  5.14368E-004	  8.67140E-003	  2.81818E-002	 -1.25668E-002
  3.68640E+000	 -6.46631E-003	  1.48568E-002	  2.19458E-002	 -1.35014E-002
  4.09600E+000	 -4.80105E-003	  8.24164E-003	  3.28523E-003	 -9.33929E-003
  4.50560E+000	 -4.84913E-004	  1.78047E-002	 -2.73878E-003	 -4.01320E-003
  4.91520E+000	 -2.21724E-003	  1.43334E-002	 -1.30398E-002	 -9.57866E-003
  5.32480E+000	  5.69129E-003	  1.55856E-002	 -2.96037E-003	 -1.12528E-002
  5.73440E+000	  1.19672E-002	  1.39151E-002	  4.68418E-003	 -3.96623E-003
  6.14400E+000	  5.45102E-003	  9.00299E-003	  8.70900E-003	  2.58886E-003
  6.55360E+000	  6.53196E-003	 -3.70582E-004	  8.17373E-003	  1.45872E-002
  7.37280E+000	  2.52392E-003	  2.10391E-003	 -8.77275E-003	  9.35031E-003
  8.19200E+000	 -1.00433E-003	 -1.11006E-002	 -1.78877E-003	  2.04818E-002
  9.01120E+000	 -1.48384E-003	 -2.00109E-002	 -1.92934E-002	  1.59292E-002
  9.83040E+000	 -3.22124E-003	 -5.69176E-003	 -1.26640E-002	  1.59154E-002
  1.06496E+001	 -1.54484E-003	 -5.91308E-003	 -7.75811E-003	 -2.53573E-003
  1.14688E+001	 -1.68573E-004	 -9.85565E-003	 -5.95323E-003	 -5.07433E-003
  1.22880E+001	  1.01917E-002	 -5.96838E-003	 -1.12515E-002	  1.61721E-003
  1.31072E+001	  1.57922E-002	  1.59290E-002	  2.28000E-003	  3.95596E-003
  1.47456E+001	 -1.62669E-003	  1.38054E-002	  4.08917E-003	 -2.64523E-003
  1.63840E+001	  2.56579E-003	 -2.93539E-003	  1.24201E-002	  5.48013E-003
  1.80224E+001	  5.50060E-003	 -7.86419E-003	  8.64482E-003	  3.77411E-003
  1.96608E+001	 -8.46115E-004	 -1.46360E-002	  1.06329E-002	 -1.15197E-002
  2.12992E+001	 -3.98547E-003	 -1.13878E-002	  1.01946E-002	 -1.11470E-002
  2.29376E+001	  8.72847E-003	 -1.24606E-002	  2.10678E-002	  9.90972E-004
  2.45760E+001	 -8.45573E-003	 -3.46926E-003	 -7.00440E-003	  1.33594E-002
  2.62144E+001	 -1.04583E-002	  1.50856E-003	 -2.99978E-003	  6.59720E-003
  2.94912E+001	 -1.07542E-002	 -1.61133E-003	  1.65749E-003	 -4.56108E-003
  3.27680E+001	 -2.51472E-003	 -9.02023E-003	 -2.76234E-003	  2.18949E-003
  3.60448E+001	  3.56489E-003	 -4.41445E-003	 -1.26037E-002	  8.47223E-004
  3.93216E+001	 -1.01037E-002	  5.71738E-003	 -1.17112E-003	  2.02276E-003
  4.25984E+001	  3.65390E-004	 -5.38063E-003	 -3.70735E-003	  5.79571E-003
  4.58752E+001	  6.07819E-004	  3.25634E-004	 -2.92138E-003	 -6.02548E-003
  4.91520E+001	  7.08192E-004	 -1.10191E-003	 -6.30504E-003	  2.43692E-003
  5.24288E+001	  2.00831E-003	  1.88892E-003	 -5.57233E-003	  1.22736E-003
  5.89824E+001	 -1.44619E-003	 -1.09401E-002	 -4.74722E-003	  2.18215E-003
  6.55360E+001	  2.97996E-003	 -4.03170E-003	 -8.83385E-003	  3.37104E-003
  7.20896E+001	 -3.43117E-004	  3.80118E-004	  2.99800E-003	  8.17760E-004
  7.86432E+001	  3.90980E-005	 -4.37084E-003	 -5.67050E-003	 -6.63303E-003
  8.51968E+001	  3.96070E-003	 -1.66067E-003	 -6.66931E-003	 -7.35531E-003
  9.17504E+001	 -4.71138E-003	 -8.72795E-003	 -9.12522E-003	 -2.52271E-003
  9.83040E+001	 -9.04712E-003	 -9.11449E-004	  3.56177E-003	 -3.64641E-003
  1.04858E+002	 -9.65226E-003	 -3.52079E-003	  1.12200E-003	  2.14332E-003
  1.17965E+002	 -8.21225E-004	  5.55238E-003	 -6.95510E-003	 -2.79011E-004
  1.31072E+002	  2.73754E-003	 -1.26459E-003	  5.24140E-004	 -2.10239E-003
  1.44179E+002	 -2.64235E-003	 -1.16530E-002	  3.57210E-003	 -1.22410E-002
  1.57286E+002	  2.11206E-003	  4.18735E-003	  4.40704E-003	 -1.86720E-003
  1.70394E+002	  5.36517E-004	  1.06752E-002	  4.85554E-003	 -7.34718E-003
  1.83501E+002	 -7.70510E-003	  6.65433E-003	  3.60619E-003	  4.30129E-003
  1.96608E+002	  2.02593E-003	 -2.23023E-004	  5.40532E-003	  3.50536E-003
  2.09715E+002	  1.82559E-003	 -6.15306E-003	  5.47135E-003	 -4.75754E-003
  2.35930E+002	 -2.54156E-003	 -6.51201E-003	 -4.71830E-003	 -3.48591E-003
  2.62144E+002	 -4.73178E-004	  5.91771E-003	 -1.09436E-002	 -7.33688E-003
  2.88358E+002	 -5.56281E-004	  7.34200E-003	 -4.82615E-003	  3.75136E-003
  3.14573E+002	  2.20494E-003	 -2.37532E-003	  7.52187E-003	  4.65159E-003
  3.40787E+002	  3.41965E-003	  5.34470E-003	  8.82866E-003	 -3.34754E-003
  3.67002E+002	 -6.99364E-004	 -7.34375E-004	 -1.13405E-003	  6.78145E-003
  3.93216E+002	  2.89790E-004	 -2.26309E-003	 -2.65400E-003	  3.50145E-003

"Count Rate"
       0.01311	      30.82275	      34.86633	      55.99976	      43.25867
       0.02621	      65.46021	      53.78723	      48.44666	      57.67822
       0.03932	      61.41663	      54.39758	      48.44666	      59.81445
       0.05243	      57.90710	      60.27222	      47.30225	      45.39490
       0.06554	      52.33765	      68.13049	      50.43030	      46.53931
       0.07864	      62.10327	      53.10059	      67.29126	      49.66736
       0.09175	      55.77087	      59.28040	      51.65100	      58.82263
       0.10486	      56.91528	      47.37854	      61.34033	      45.77637
       0.11796	      53.55835	      54.39758	      46.15784	      55.00793
       0.13107	      46.61560	      42.72461	      53.48206	      46.00525
       0.14418	      50.35400	      49.28589	      52.56653	      46.76819
       0.15729	      64.84985	      52.49023	      54.93164	      54.47388
       0.17039	      49.81995	      53.10059	      49.20959	      48.52295
       0.18350	      67.82532	      50.20142	      57.14417	      47.22595
       0.19661	      55.99976	      49.36218	      43.18237	      52.87170
       0.20972	      62.48474	      63.17139	      55.46570	      51.49841
       0.22282	      46.08154	      47.07336	      39.06250	      88.27209
       0.23593	      52.94800	      59.20410	      42.64832	      44.70825
       0.24904	      52.79541	      54.62646	      42.34314	      60.04333
       0.26214	      51.65100	      52.71912	      55.08423	      50.12512
       0.27525	      49.81995	      59.50928	      45.31860	      54.85535
       0.28836	      55.84717	      59.20410	      49.74365	      55.31311
       0.30147	      64.23950	      51.11694	      65.53650	      41.73279
       0.31457	      55.46570	      42.49573	      50.88806	      56.45752
       0.32768	      43.18237	      52.64282	      50.81177	      47.76001
       0.34079	      51.19324	      70.95337	      49.89624	      48.52295
       0.35389	      63.85803	      55.46570	      64.23950	      51.65100
       0.36700	      67.97791	      33.79822	      65.00244	      41.35132
       0.38011	      55.38940	      44.09790	      46.31042	      55.16052
       0.39322	      39.90173	      56.45752	      42.41943	      35.32410
       0.40632	      69.42749	      77.97241	      35.70557	      36.69739
       0.41943	      60.11963	      47.22595	      39.97803	      49.05701
       0.43254	      66.22314	      52.41394	      48.21777	      43.94531
       0.44564	      31.43311	      53.86353	      48.59924	      47.98889
       0.45875	      47.37854	      60.27222	      76.21765	      58.89893
       0.47186	      50.50659	      47.37854	      52.41394	      50.81177
       0.48497	      48.90442	      27.99988	      65.23132	      35.01892
       0.49807	      63.70544	      60.95886	      62.10327	      44.78455
       0.51118	      56.83899	      49.66736	      60.50110	      45.01343
       0.52429	      42.87720	      50.88806	      53.02429	      56.15234
       0.53740	      48.29407	      57.83081	      49.51477	      77.43835
       0.55050	      47.60742	      32.11975	      46.31042	      43.33496
       0.56361	      48.06519	      38.83362	      65.91797	      45.70007
       0.57672	      53.86353	      49.81995	      46.53931	      46.76819
       0.58982	      52.18506	      70.11414	      58.05969	      55.69458
       0.60293	      36.39221	      48.06519	      30.36499	      43.33496
       0.61604	      41.04614	      64.01062	      42.19055	      50.20142
       0.62915	      61.18774	      51.49841	      60.72998	      52.26135
       0.64225	      41.12244	      35.47668	      60.04333	      82.16858
       0.65536	      57.44934	      30.44128	      55.23682	      63.40027
       0.66847	      62.94250	      58.74634	      60.57739	      50.81177
       0.68157	      37.07886	      51.87988	      52.56653	      49.36218
       0.69468	      53.10059	      59.96704	      54.85535	      54.55017
       0.70779	      66.75720	      65.38391	      71.25854	      47.37854
       0.72090	      71.10596	      47.53113	      45.77637	      40.58838
       0.73400	      52.49023	      56.22864	      57.06787	      43.02979
       0.74711	      69.04602	      76.52283	      43.10608	      39.21509
