ALV-7004/USB-FAST
Date :	"11/11/2025"
Time :	"3:59:12 PM"
Samplename : 	""
SampMemo(0) : 	""
SampMemo(1) : 	""
SampMemo(2) : 	""
SampMemo(3) : 	""
SampMemo(4) : 	""
SampMemo(5) : 	""
SampMemo(6) : 	""
SampMemo(7) : 	""
SampMemo(8) : 	""
SampMemo(9) : 	""
Temperature [K] :	     298.16000
Viscosity [cp]  :	       0.89000
Refractive Index:	       1.33200
Wavelength [nm] :	       0.00000
Angle [°]       :	       0.00000
Duration [s]    :	         1
FloatDur [ms]   :	          944
Stop TP [ms]   :	     68274
Runs            :	         1
Mode            :	"A-CH0+1  A-CH2+3 "
MeanCR0 [kHz]   :	      54.82780
MeanCR1 [kHz]   :	      57.36881
MeanCR2 [kHz]   :	      56.72985
MeanCR3 [kHz]   :	      55.03337

"Correlation"
  3.12500E-006	 -1.00000E+000	 -1.00000E+000	 -1.00000E+000	 -1.00000E+000
  6.25000E-006	 -1.00000E+000	 -1.00000E+000	 -1.00000E+000	 -1.00000E+000
  9.37500E-006	 -1.00000E+000	 -1.00000E+000	 -1.00000E+000	 -1.00000E+000
  1.25000E-005	 -1.00000E+000	 -1.00000E+000	 -1.00000E+000	 -1.00000E+000
  1.56250E-005	 -1.00000E+000	 -1.00000E+000	 -1.00000E+000	 -1.00000E+000
  1.87500E-005	 -1.00000E+000	 -1.00000E+000	 -1.00000E+000	 -1.00000E+000
  2.18750E-005	 -8.87201E-001	  8.54507E-001	  5.80431E-001	 -5.52168E-001
  2.50000E-005	  1.20847E+001	  1.22906E+001	  8.79867E+000	  2.55341E+001
  2.81250E-005	  3.17357E+000	  1.57570E+000	  2.58231E+000	  7.73273E+000
  3.12500E-005	  9.17586E-001	  1.06056E+000	  1.00188E+000	  3.47832E+000
  3.43750E-005	  1.25598E+000	  4.42394E-001	  1.31797E+000	  4.15007E+000
  3.75000E-005	  1.81998E+000	  1.67873E+000	  1.31797E+000	  4.59790E+000
  4.06250E-005	  3.53590E-001	  3.39366E-001	  4.75069E-001	  2.80657E+000
  4.37500E-005	  2.40791E-001	  2.36338E-001	  7.91155E-001	  3.14245E+000
  4.68750E-005	  1.51926E-002	  3.39366E-001	  1.10724E+000	  2.47070E+000
  5.00000E-005	  1.03039E+000	  4.93908E-001	  8.96517E-001	  2.41472E+000
  5.62500E-005	  6.35588E-001	  5.96936E-001	  6.33112E-001	  1.63101E+000
  6.25000E-005	  5.79188E-001	  2.87852E-001	  5.80431E-001	  2.02287E+000
  6.87500E-005	  6.35588E-001	  9.57535E-001	  5.27750E-001	  1.46308E+000
  7.50000E-005	  4.66389E-001	  5.45422E-001	  7.38474E-001	  1.74297E+000
  8.12500E-005	  6.35588E-001	  1.84824E-001	  9.49198E-001	  1.74297E+000
  8.75000E-005	  1.25598E+000	 -1.75775E-001	  3.17026E-001	  1.74297E+000
  9.37500E-005	  3.53590E-001	  2.87852E-001	  5.80431E-001	  7.35350E-001
  1.00000E-004	  4.66389E-001	  2.10580E-001	  7.12133E-001	  4.83444E-001
  1.12500E-004	  6.91987E-001	  3.90880E-001	  8.17496E-001	  4.27465E-001
  1.25000E-004	  6.35588E-001	  8.28749E-001	  2.64345E-001	  7.07360E-001
  1.37500E-004	  1.84391E-001	  4.93908E-001	  6.06771E-001	  5.67413E-001
  1.50000E-004	  6.35588E-001	  7.51478E-001	  6.06771E-001	  3.43497E-001
  1.62500E-004	  7.20187E-001	  3.39366E-001	  5.01409E-001	  7.35350E-001
  1.75000E-004	  4.94589E-001	  3.13609E-001	  5.01409E-001	  7.35350E-001
  1.87500E-004	  6.07388E-001	  4.16637E-001	  3.69707E-001	  5.95402E-001
  2.00000E-004	  5.36888E-001	  5.45422E-001	  5.80431E-001	  8.75297E-001
  2.25000E-004	  4.24089E-001	  3.26487E-001	  4.75069E-001	  5.39423E-001
  2.50000E-004	  5.50988E-001	  5.71179E-001	  3.56536E-001	  6.93365E-001
  2.75000E-004	  7.34287E-001	  5.32543E-001	  6.85793E-001	  3.15507E-001
  3.00000E-004	  4.52289E-001	  5.06786E-001	  2.51174E-001	  6.79370E-001
  3.25000E-004	  4.94589E-001	  4.29515E-001	  6.72622E-001	  7.07360E-001
  3.50000E-004	  5.22788E-001	  4.16636E-001	  3.82877E-001	  5.95402E-001
  3.75000E-004	  2.40791E-001	  3.52244E-001	  5.67260E-001	  2.59528E-001
  4.00000E-004	  3.11289E-001	  5.38982E-001	  4.48727E-001	  4.48456E-001
  4.50000E-004	  6.49687E-001	  4.68150E-001	  5.67260E-001	  6.30388E-001
  5.00000E-004	  6.42637E-001	  5.06785E-001	  6.52866E-001	  4.13469E-001
  5.50000E-004	  2.68990E-001	  5.19664E-001	  4.88238E-001	  5.60414E-001
  6.00000E-004	  6.14437E-001	  3.13608E-001	  5.07994E-001	  3.85480E-001
  6.50000E-004	  3.67689E-001	  4.10197E-001	  3.82876E-001	  6.30388E-001
  7.00000E-004	  4.52288E-001	  3.39365E-001	  5.67260E-001	  5.81406E-001
  7.50000E-004	  3.60639E-001	  5.06785E-001	  5.40919E-001	  5.74409E-001
  8.00000E-004	  4.45237E-001	  5.00345E-001	  5.80429E-001	  4.58951E-001
  9.00000E-004	  4.98112E-001	  3.90878E-001	  5.44210E-001	  4.93938E-001
  1.00000E-003	  4.59337E-001	  3.52242E-001	  4.71774E-001	  5.60413E-001
  1.10000E-003	  5.43936E-001	  4.68149E-001	  5.14577E-001	  5.77906E-001
  1.20000E-003	  5.15737E-001	  6.03373E-001	  4.42141E-001	  5.21927E-001
  1.30000E-003	  4.09987E-001	  5.61518E-001	  4.02630E-001	  3.67985E-001
  1.40000E-003	  4.48762E-001	  5.55079E-001	  4.94822E-001	  3.71484E-001
  1.50000E-003	  4.76962E-001	  4.29513E-001	  4.58604E-001	  5.07933E-001
  1.60000E-003	  5.17496E-001	  5.34148E-001	  4.70125E-001	  4.55478E-001
  1.80000E-003	  4.66385E-001	  4.45609E-001	  5.16221E-001	  5.58691E-001
  2.00000E-003	  3.92360E-001	  5.03562E-001	  4.19091E-001	  4.55478E-001
  2.20000E-003	  5.10447E-001	  4.11803E-001	  3.92750E-001	  4.06523E-001
  2.40000E-003	  4.43472E-001	  4.76195E-001	  4.91527E-001	  4.27516E-001
  2.60000E-003	  5.77421E-001	  3.87656E-001	  5.04697E-001	  5.44726E-001
  2.80000E-003	  5.21021E-001	  5.03562E-001	  4.66833E-001	  4.32764E-001
  3.00000E-003	  4.85772E-001	  4.63317E-001	  3.86165E-001	  5.02740E-001
  3.20000E-003	  4.40824E-001	  4.74580E-001	  3.75460E-001	  4.33634E-001
  3.60000E-003	  4.54042E-001	  3.64309E-001	  4.54481E-001	  4.17014E-001
  4.00000E-003	  4.57567E-001	  3.82822E-001	  4.30610E-001	  4.98361E-001
  4.40000E-003	  4.60211E-001	  4.03749E-001	  3.98508E-001	  4.20513E-001
  4.80000E-003	  4.32892E-001	  4.27896E-001	  4.67651E-001	  4.86116E-001
  5.20000E-003	  3.67681E-001	  3.91675E-001	  4.66828E-001	  4.30135E-001
  5.60000E-003	  4.10862E-001	  3.92480E-001	  4.58596E-001	  4.19638E-001
  6.00000E-003	  4.51398E-001	  4.41579E-001	  4.03446E-001	  4.19638E-001
  6.40000E-003	  3.92841E-001	  4.14606E-001	  3.94794E-001	  4.25342E-001
  7.20000E-003	  4.02534E-001	  4.03337E-001	  3.99733E-001	  4.84822E-001
  8.00000E-003	  4.03856E-001	  4.08971E-001	  4.43359E-001	  4.64266E-001
  8.80000E-003	  4.17516E-001	  3.77178E-001	  4.09199E-001	  3.84668E-001
  9.60000E-003	  4.32938E-001	  3.37738E-001	  3.64750E-001	  4.24030E-001
  1.04000E-002	  3.67284E-001	  3.51019E-001	  3.79978E-001	  4.10909E-001
  1.12000E-002	  3.40846E-001	  3.46592E-001	  3.66808E-001	  3.26937E-001
  1.20000E-002	  4.28972E-001	  3.71544E-001	  3.98498E-001	  3.75483E-001
  1.28000E-002	  3.91113E-001	  3.52409E-001	  3.64731E-001	  3.84729E-001
  1.44000E-002	  3.80511E-001	  3.37921E-001	  3.81399E-001	  3.78168E-001
  1.60000E-002	  3.63106E-001	  3.34702E-001	  3.36334E-001	  3.55862E-001
  1.76000E-002	  3.41929E-001	  3.45769E-001	  3.47857E-001	  3.46459E-001
  1.92000E-002	  3.27389E-001	  3.20012E-001	  3.27691E-001	  3.38341E-001
  2.08000E-002	  3.58012E-001	  3.26677E-001	  3.23781E-001	  3.30469E-001
  2.24000E-002	  3.13068E-001	  3.16817E-001	  2.85300E-001	  3.18660E-001
  2.40000E-002	  3.43692E-001	  3.12994E-001	  3.24810E-001	  3.26314E-001
  2.56000E-002	  3.17490E-001	  2.99400E-001	  2.94241E-001	  3.08582E-001
  2.88000E-002	  2.52607E-001	  2.90647E-001	  2.79528E-001	  2.57406E-001
  3.20000E-002	  2.81493E-001	  2.54829E-001	  2.50616E-001	  2.79117E-001
  3.52000E-002	  2.44479E-001	  2.57143E-001	  2.58230E-001	  2.38902E-001
  3.84000E-002	  2.55715E-001	  2.20923E-001	  2.35903E-001	  2.50712E-001
  4.16000E-002	  2.12619E-001	  2.03115E-001	  2.07505E-001	  2.29170E-001
  4.48000E-002	  1.99708E-001	  1.96194E-001	  2.14399E-001	  1.96234E-001
  4.80000E-002	  1.74372E-001	  2.06960E-001	  1.90036E-001	  2.00170E-001
  5.12000E-002	  1.84368E-001	  1.72444E-001	  1.69666E-001	  1.87637E-001
  5.76000E-002	  1.52422E-001	  1.52752E-001	  1.54901E-001	  1.67384E-001
  6.40000E-002	  1.38267E-001	  1.27950E-001	  1.37821E-001	  1.34195E-001
  7.04000E-002	  1.07808E-001	  1.12707E-001	  1.21286E-001	  1.13835E-001
  7.68000E-002	  8.79244E-002	  1.00503E-001	  8.42976E-002	  1.05633E-001
  8.32000E-002	  7.92219E-002	  8.40013E-002	  8.88965E-002	  8.20269E-002
  8.96000E-002	  8.18657E-002	  5.90985E-002	  7.47490E-002	  7.18237E-002
  9.60000E-002	  5.13663E-002	  7.41911E-002	  6.59203E-002	  6.78120E-002
  1.02400E-001	  5.61526E-002	  5.93190E-002	  6.27741E-002	  6.24681E-002
  1.15200E-001	  4.58810E-002	  4.91245E-002	  3.71269E-002	  5.09305E-002
  1.28000E-001	  2.53026E-002	  3.61804E-002	  3.65289E-002	  3.61468E-002
  1.40800E-001	  7.57610E-003	  2.27467E-002	  4.55326E-002	  2.71596E-002
  1.53600E-001	  3.02423E-003	  1.56649E-002	  2.76861E-002	  2.33048E-002
  1.66400E-001	  9.63340E-003	  8.97945E-003	  2.89466E-002	  1.54389E-002
  1.79200E-001	  9.02756E-003	  1.05392E-002	  1.49783E-002	  1.01158E-002
  1.92000E-001	 -4.13303E-003	 -5.11509E-004	  1.45410E-002	  5.78837E-003
  2.04800E-001	 -1.52681E-004	  2.98598E-003	  1.46173E-002	  1.61233E-003
  2.30400E-001	 -1.39187E-003	  5.99300E-003	  6.37871E-003	  9.42429E-003
  2.56000E-001	 -5.93012E-003	 -1.39160E-003	 -2.69562E-003	  2.28221E-003
  2.81600E-001	 -4.21728E-003	  6.90491E-003	 -3.12586E-003	  2.73098E-003
  3.07200E-001	  3.86531E-003	  2.68928E-003	  9.92981E-003	  4.89109E-003
  3.32800E-001	  2.50776E-003	  8.88633E-003	  3.27390E-003	 -5.03169E-003
  3.58400E-001	  1.23836E-003	  9.76057E-003	 -3.09303E-003	 -2.80309E-003
  3.84000E-001	 -8.80843E-003	  1.82558E-003	 -7.65203E-003	 -4.79926E-003
  4.09600E-001	 -4.65183E-003	  4.62669E-003	 -5.27758E-003	 -4.46770E-004
  4.60800E-001	 -3.60668E-003	  1.01662E-002	 -8.99608E-003	 -1.51781E-003
  5.12000E-001	 -6.96378E-003	  8.20871E-003	 -4.22458E-003	 -4.16410E-003
  5.63200E-001	 -4.01700E-003	 -5.52347E-004	 -3.70277E-003	  5.85494E-003
  6.14400E-001	 -1.73807E-003	 -4.81558E-003	 -7.22764E-003	 -1.48360E-003
  6.65600E-001	  7.39143E-003	 -1.63541E-003	 -3.78709E-003	 -3.54947E-003
  7.16800E-001	  6.57093E-003	 -5.90520E-004	 -9.79326E-004	  6.68367E-004
  7.68000E-001	  6.70506E-003	  2.70849E-003	  1.48264E-004	 -2.54205E-003
  8.19200E-001	  4.91671E-003	  1.92522E-004	  8.90622E-005	  5.52016E-003
  9.21600E-001	 -2.55462E-004	 -5.03329E-003	  6.46106E-003	  6.70670E-004
  1.02400E+000	 -1.49389E-003	 -1.06300E-002	  6.68821E-003	  4.43732E-004
  1.12640E+000	 -1.28021E-003	  7.31413E-004	  4.87806E-003	  2.52129E-003
  1.22880E+000	 -7.02987E-003	  1.88781E-003	  5.38849E-003	  1.41395E-003
  1.33120E+000	 -8.13348E-003	 -5.56289E-003	 -5.13585E-003	  8.44340E-004
  1.43360E+000	  3.03572E-004	 -3.37906E-003	  1.46300E-003	 -8.58961E-003
  1.53600E+000	 -1.15050E-003	  4.55616E-003	 -4.16639E-003	  4.48973E-003
  1.63840E+000	 -4.11405E-004	  1.98286E-003	 -3.52413E-003	  4.29803E-003
  1.84320E+000	  5.31637E-003	 -2.06148E-003	 -2.32284E-003	  1.80242E-003
  2.04800E+000	  9.88721E-003	  7.89590E-003	 -3.20546E-003	  1.06339E-002
  2.25280E+000	  3.93629E-004	  2.98299E-003	  2.42098E-003	 -4.99775E-003
  2.45760E+000	  1.80547E-003	  2.86685E-003	 -9.59950E-003	 -3.02990E-003
  2.66240E+000	  7.19631E-003	  1.72828E-003	 -3.91912E-003	 -3.50614E-003
  2.86720E+000	 -2.52897E-003	 -3.98148E-003	 -3.18871E-003	 -2.78906E-004
  3.07200E+000	  1.08553E-003	  1.46754E-003	 -4.67884E-003	 -4.41199E-003
  3.27680E+000	 -1.76431E-003	  8.14408E-003	 -2.06225E-003	  2.52116E-003
  3.68640E+000	 -5.59928E-004	  3.24588E-003	  1.34063E-003	  1.49802E-003
  4.09600E+000	 -2.18969E-003	  3.84308E-003	 -7.48297E-005	  5.37179E-003
  4.50560E+000	 -2.31519E-003	  5.76461E-003	 -8.63423E-004	 -4.65387E-003
  4.91520E+000	 -2.05101E-004	 -3.64412E-003	 -2.86366E-003	 -3.03598E-003
  5.32480E+000	 -1.60810E-003	 -3.36115E-003	  3.06436E-003	  5.21525E-003
  5.73440E+000	  4.75994E-004	 -9.28703E-006	 -3.77173E-004	 -6.44096E-004
  6.14400E+000	 -3.07997E-003	 -4.29194E-003	 -1.27586E-003	 -2.51641E-003
  6.55360E+000	  6.51844E-004	 -1.17719E-003	 -9.95566E-004	 -1.32476E-003
  7.37280E+000	  7.00311E-004	 -2.04871E-003	 -7.21987E-004	  1.17899E-003
  8.19200E+000	 -1.24054E-003	 -8.53651E-004	  9.37928E-004	  2.59491E-004
  9.01120E+000	  1.31966E-004	 -2.76406E-003	  2.51763E-003	 -3.38822E-005
  9.83040E+000	  1.00269E-003	 -1.32337E-003	 -2.34785E-003	  2.41807E-003
  1.06496E+001	  2.84606E-003	  3.49911E-003	  2.56527E-003	  3.84120E-003
  1.14688E+001	  1.64361E-003	 -2.45281E-003	 -7.63949E-004	 -4.79435E-003
  1.22880E+001	 -2.50379E-003	 -3.44334E-003	  3.72652E-003	  8.36983E-004
  1.31072E+001	  6.89775E-005	 -1.76205E-003	  7.60241E-004	 -1.22051E-003
  1.47456E+001	  3.97314E-004	 -7.75113E-004	  3.28459E-004	  2.48124E-003
  1.63840E+001	  1.62811E-003	 -6.15909E-004	 -1.00272E-004	 -6.08531E-004
  1.80224E+001	 -1.00999E-003	  7.62592E-004	  2.22041E-004	 -1.54116E-003
  1.96608E+001	 -1.54436E-003	 -2.31356E-004	 -2.55024E-003	 -2.36910E-003
  2.12992E+001	 -4.83996E-004	 -2.53787E-003	  1.87286E-003	 -4.09233E-004
  2.29376E+001	  2.01397E-003	  8.20903E-004	  6.16705E-004	  2.41712E-003
  2.45760E+001	 -2.36871E-003	 -6.24085E-004	  1.80472E-003	 -3.03243E-004
  2.62144E+001	  1.47112E-004	  9.38150E-005	  1.10645E-004	  4.43138E-005
  2.94912E+001	 -1.19183E-003	 -9.10702E-004	  9.02584E-005	  3.46892E-003
  3.27680E+001	 -6.78726E-004	  2.52815E-004	 -2.04217E-003	  2.94435E-004
  3.60448E+001	 -1.85130E-003	  9.28852E-004	  1.15207E-004	 -1.20178E-003
  3.93216E+001	  1.36734E-003	 -1.62043E-003	  2.94689E-004	 -1.56440E-004
  4.25984E+001	 -1.86144E-004	 -1.11234E-003	  1.59797E-003	  5.02545E-004
  4.58752E+001	 -5.90865E-004	  3.70626E-004	  1.39279E-004	  1.22691E-003
  4.91520E+001	  9.64409E-004	 -1.50210E-003	  2.97903E-004	 -8.95529E-004
  5.24288E+001	  1.44445E-004	 -2.31349E-004	 -1.97083E-004	  7.36121E-004
  5.89824E+001	  1.07009E-003	 -4.69920E-004	 -7.08029E-004	 -6.57604E-004
  6.55360E+001	  1.15108E-003	 -1.23725E-004	  7.37048E-004	 -1.93201E-003
  7.20896E+001	 -8.31822E-004	 -2.31932E-004	 -5.23118E-004	 -4.00946E-005
  7.86432E+001	  3.50679E-004	  3.91329E-004	  1.48823E-003	 -1.77444E-003
  8.51968E+001	  8.07055E-004	  9.42460E-004	  6.35353E-004	  6.14993E-004
  9.17504E+001	 -1.58006E-003	  9.04079E-004	  8.19873E-004	  7.65549E-004
  9.83040E+001	 -4.58698E-004	 -3.52265E-004	  4.39115E-004	 -2.05283E-005
  1.04858E+002	  2.68378E-004	 -1.07582E-003	  1.16799E-003	 -1.54253E-003
  1.17965E+002	 -3.10728E-004	 -5.19353E-004	  6.76844E-005	 -9.24677E-004
  1.31072E+002	  1.89051E-004	  3.03832E-004	 -1.34796E-003	 -2.13449E-004
  1.44179E+002	  5.38761E-004	  4.97922E-004	  3.16621E-004	  1.05527E-004
  1.57286E+002	 -6.10942E-005	 -2.98224E-004	  4.07001E-004	 -4.63313E-004
  1.70394E+002	  2.48861E-004	 -6.23629E-004	  1.01365E-003	 -1.49048E-003
  1.83501E+002	 -2.39073E-004	 -5.23302E-004	  1.73268E-004	  7.41613E-005
  1.96608E+002	 -1.38224E-003	 -1.07009E-004	 -2.14195E-004	 -2.09427E-003
  2.09715E+002	  1.90412E-004	 -1.92490E-004	 -8.90616E-004	 -1.00665E-003
  2.35930E+002	  7.24524E-004	  2.71296E-007	 -6.95452E-004	 -1.75205E-005
  2.62144E+002	  1.13096E-005	 -4.78864E-004	  1.06206E-003	  4.29190E-004
  2.88358E+002	 -3.73762E-004	  4.95547E-004	 -4.98408E-004	  6.49355E-004
  3.14573E+002	 -3.50894E-004	 -1.99504E-004	 -9.53925E-004	  9.12002E-004
  3.40787E+002	 -9.93609E-004	  4.78745E-005	 -2.11700E-005	  3.28622E-004
  3.67002E+002	 -4.63305E-005	  1.26199E-004	  6.11735E-005	 -1.07232E-005
  3.93216E+002	  5.91107E-004	 -3.86769E-004	 -9.39649E-004	  2.20147E-004

"Count Rate"
       0.01311	      51.57471	      69.80896	      57.22046	      57.44934
       0.02621	      52.64282	      52.26135	      54.70276	      53.86353
       0.03932	      49.13330	      57.98340	      52.33765	      53.10059
       0.05243	      57.06787	      56.83899	      49.36218	      54.47388
       0.06554	      50.81177	      51.11694	      57.06787	      60.65369
       0.07864	      53.71094	      55.16052	      56.76270	      58.82263
       0.09175	      55.92346	      56.61011	      54.70276	      51.49841
       0.10486	      57.75452	      50.35400	      54.01611	      56.76270
       0.11796	      59.12781	      60.57739	      57.83081	      48.29407
       0.13107	      53.78723	      59.43298	      55.38940	      50.96436
       0.14418	      48.29407	      61.03516	      54.77905	      50.12512
       0.15729	      51.95618	      54.39758	      56.45752	      50.88806
       0.17039	      63.85803	      59.12781	      59.58557	      46.99707
       0.18350	      62.02698	      50.27771	      54.85535	      55.69458
       0.19661	      48.59924	      54.47388	      55.92346	      56.22864
       0.20972	      50.65918	      53.86353	      54.47388	      56.99158
       0.22282	      53.25317	      58.59375	      59.43298	      58.89893
       0.23593	      56.91528	      56.15234	      55.92346	      63.47656
       0.24904	      50.04883	      62.02698	      53.86353	      53.40576
       0.26214	      51.04065	      58.44116	      59.50928	      49.28589
       0.27525	      56.53381	      52.87170	      60.95886	      58.36487
       0.28836	      51.72729	      51.49841	      54.39758	      53.48206
       0.30147	      49.97253	      61.18774	      58.28857	      50.04883
       0.31457	      51.95618	      60.88257	      55.46570	      56.83899
       0.32768	      51.87988	      49.81995	      58.13599	      59.66187
       0.34079	      47.68372	      60.19592	      59.12781	      52.03247
       0.35389	      55.61829	      56.45752	      58.97522	      50.04883
       0.36700	      49.05701	      58.21228	      63.01880	      61.49292
       0.38011	      47.91260	      58.36487	      58.51746	      52.87170
       0.39322	      57.14417	      51.57471	      57.75452	      48.29407
       0.40632	      58.82263	      57.90710	      52.87170	      55.69458
       0.41943	      55.38940	      53.71094	      55.31311	      51.87988
       0.43254	      52.71912	      57.37305	      53.17688	      53.63464
       0.44564	      53.25317	      60.65369	      61.41663	      48.37036
       0.45875	      53.32947	      58.28857	      54.70276	      58.97522
       0.47186	      51.26953	      52.94800	      58.51746	      51.95618
       0.48497	      55.99976	      55.46570	      56.45752	      55.77087
       0.49807	      51.65100	      60.88257	      53.93982	      52.18506
       0.51118	      53.02429	      61.79810	      55.08423	      55.23682
       0.52429	      50.43030	      54.70276	      60.57739	      60.11963
       0.53740	      54.70276	      56.83899	      58.36487	      51.49841
       0.55050	      50.04883	      60.19592	      55.00793	      61.79810
       0.56361	      57.29675	      57.14417	      51.57471	      56.30493
       0.57672	      53.32947	      56.76270	      48.06519	      56.91528
       0.58982	      52.49023	      64.23950	      56.07605	      57.22046
       0.60293	      50.73547	      52.79541	      53.02429	      58.97522
       0.61604	      53.93982	      51.65100	      56.53381	      61.72180
       0.62915	      53.02429	      57.60193	      54.01611	      51.72729
       0.64225	      56.22864	      61.34033	      57.14417	      50.50659
       0.65536	      62.02698	      59.05151	      51.80359	      50.35400
       0.66847	      59.20410	      60.57739	      47.83630	      53.25317
       0.68157	      56.91528	      57.06787	      45.85266	      52.71912
       0.69468	      46.99707	      46.38672	      62.63733	      51.34583
       0.70779	      57.67822	      55.69458	      54.09241	      56.61011
       0.72090	      56.61011	      54.16870	      53.25317	      45.92896
       0.73400	      51.95618	      57.75452	      57.60193	      55.99976
       0.74711	      51.04065	      55.99976	      53.93982	      43.71643
