ALV-7004/USB-FAST
Date :	"11/11/2025"
Time :	"3:53:33 PM"
Samplename : 	""
SampMemo(0) : 	""
SampMemo(1) : 	""
SampMemo(2) : 	""
SampMemo(3) : 	""
SampMemo(4) : 	""
SampMemo(5) : 	""
SampMemo(6) : 	""
SampMemo(7) : 	""
SampMemo(8) : 	""
SampMemo(9) : 	""
Temperature [K] :	     298.16000
Viscosity [cp]  :	       0.89000
Refractive Index:	       1.33200
Wavelength [nm] :	       0.00000
Angle [°]       :	       0.00000
Duration [s]    :	         1
FloatDur [ms]   :	          944
Stop TP [ms]   :	     58172
Runs            :	         1
Mode            :	"A-CH0+1  A-CH2+3 "
MeanCR0 [kHz]   :	      58.42527
MeanCR1 [kHz]   :	      59.28993
MeanCR2 [kHz]   :	      57.77465
MeanCR3 [kHz]   :	      55.94254

"Correlation"
  3.12500E-006	 -1.00000E+000	 -1.00000E+000	 -1.00000E+000	 -1.00000E+000
  6.25000E-006	 -1.00000E+000	 -1.00000E+000	 -1.00000E+000	 -1.00000E+000
  9.37500E-006	 -1.00000E+000	 -1.00000E+000	 -1.00000E+000	 -1.00000E+000
  1.25000E-005	 -1.00000E+000	 -1.00000E+000	 -1.00000E+000	 -1.00000E+000
  1.56250E-005	 -1.00000E+000	 -1.00000E+000	 -1.00000E+000	 -1.00000E+000
  1.87500E-005	 -1.00000E+000	 -1.00000E+000	 -1.00000E+000	 -1.00000E+000
  2.18750E-005	 -9.00664E-001	 -1.31863E-001	  7.26958E-001	 -2.41560E-001
  2.50000E-005	  1.29070E+001	  1.28902E+001	  1.15966E+001	  2.55454E+001
  2.81250E-005	  2.57609E+000	  2.18317E+000	  1.33647E+000	  8.42633E+000
  3.12500E-005	  1.38406E+000	  1.21857E+000	  1.23489E+000	  5.06752E+000
  3.43750E-005	  4.90038E-001	  1.21857E+000	  1.94599E+000	  3.33394E+000
  3.75000E-005	  7.88046E-001	  7.36273E-001	  9.30130E-001	  4.30908E+000
  4.06250E-005	  7.88046E-001	  2.53975E-001	  6.25372E-001	  2.46715E+000
  4.37500E-005	  6.88710E-001	  5.43354E-001	  1.03172E+000	  3.33394E+000
  4.68750E-005	  6.88710E-001	  1.41149E+000	  1.23489E+000	  2.57550E+000
  5.00000E-005	  6.88710E-001	  1.07388E+000	  1.38727E+000	  2.08793E+000
  5.62500E-005	  7.88046E-001	  9.29193E-001	  5.74579E-001	  1.60037E+000
  6.25000E-005	  8.37714E-001	  6.88044E-001	  4.72994E-001	  1.54619E+000
  6.87500E-005	  9.37049E-001	  6.88044E-001	  8.28544E-001	  1.87124E+000
  7.50000E-005	  7.38378E-001	  2.53975E-001	  7.77751E-001	  1.27532E+000
  8.12500E-005	  4.90038E-001	  4.46894E-001	  5.74579E-001	  9.50274E-001
  8.75000E-005	  7.38378E-001	  3.50435E-001	  6.76165E-001	  7.33577E-001
  9.37500E-005	  1.92030E-001	  8.32733E-001	  1.03172E+000	  1.22115E+000
  1.00000E-004	  1.67196E-001	  7.60388E-001	  7.26958E-001	  1.11280E+000
  1.12500E-004	  6.63876E-001	  7.12158E-001	  6.50769E-001	  8.41926E-001
  1.25000E-004	  6.14208E-001	  6.15699E-001	  3.71408E-001	  4.08531E-001
  1.37500E-004	  1.17528E-001	  7.60388E-001	  8.03147E-001	  5.71054E-001
  1.50000E-004	  4.90038E-001	  4.95124E-001	  8.53940E-001	  4.35619E-001
  1.62500E-004	  5.14872E-001	  4.95124E-001	  5.49183E-001	  6.25229E-001
  1.75000E-004	  5.14872E-001	  3.26320E-001	  3.71408E-001	  1.64747E-001
  1.87500E-004	  3.90702E-001	  9.29192E-001	  6.76165E-001	  5.16880E-001
  2.00000E-004	  7.38377E-001	  6.51871E-001	  6.50768E-001	  4.35618E-001
  2.25000E-004	  4.27953E-001	  4.58951E-001	  5.23786E-001	  3.40813E-001
  2.50000E-004	  7.88045E-001	  1.93688E-001	  4.72993E-001	  4.22075E-001
  2.75000E-004	  5.14871E-001	  5.91583E-001	  5.61881E-001	  4.35618E-001
  3.00000E-004	  2.66532E-001	  8.93020E-001	  4.72993E-001	  5.71054E-001
  3.25000E-004	  4.15536E-001	  4.58951E-001	  5.74579E-001	  7.47120E-001
  3.50000E-004	  6.63875E-001	  7.12158E-001	  5.87277E-001	  5.03336E-001
  3.75000E-004	  4.65204E-001	  4.46894E-001	  5.87277E-001	  7.74207E-001
  4.00000E-004	  6.26624E-001	  3.50434E-001	  4.72993E-001	  6.45543E-001
  4.50000E-004	  5.70747E-001	  5.25267E-001	  5.42833E-001	  3.88215E-001
  5.00000E-004	  6.82500E-001	  5.07181E-001	  5.93626E-001	  6.59086E-001
  5.50000E-004	  4.65203E-001	  5.01152E-001	  5.04738E-001	  3.20497E-001
  6.00000E-004	  5.83164E-001	  5.85554E-001	  5.23785E-001	  4.42389E-001
  6.50000E-004	  5.45913E-001	  5.67468E-001	  5.55531E-001	  5.43966E-001
  7.00000E-004	  6.26624E-001	  3.80577E-001	  5.87276E-001	  3.34041E-001
  7.50000E-004	  7.32168E-001	  6.88042E-001	  4.60294E-001	  5.37194E-001
  8.00000E-004	  6.57665E-001	  5.79524E-001	  4.53944E-001	  5.60894E-001
  9.00000E-004	  3.37928E-001	  5.25266E-001	  4.72991E-001	  5.03334E-001
  1.00000E-003	  4.03117E-001	  3.98662E-001	  3.71406E-001	  5.16878E-001
  1.10000E-003	  5.21078E-001	  5.34309E-001	  4.92039E-001	  5.16878E-001
  1.20000E-003	  4.31055E-001	  5.10194E-001	  5.36482E-001	  5.30421E-001
  1.30000E-003	  5.42808E-001	  5.01151E-001	  4.85689E-001	  4.69475E-001
  1.40000E-003	  4.90036E-001	  4.98136E-001	  4.79340E-001	  4.69475E-001
  1.50000E-003	  5.52120E-001	  5.07179E-001	  4.69817E-001	  4.93176E-001
  1.60000E-003	  4.90033E-001	  5.25263E-001	  3.71403E-001	  5.32112E-001
  1.80000E-003	  4.23292E-001	  4.61962E-001	  4.03149E-001	  5.16875E-001
  2.00000E-003	  4.76064E-001	  4.13732E-001	  4.34894E-001	  4.27149E-001
  2.20000E-003	  3.82937E-001	  5.38828E-001	  4.25371E-001	  5.15182E-001
  2.40000E-003	  4.55887E-001	  3.97153E-001	  4.38069E-001	  4.15299E-001
  2.60000E-003	  4.62122E-001	  4.52918E-001	  3.63467E-001	  5.35497E-001
  2.80000E-003	  4.74539E-001	  4.13732E-001	  4.95211E-001	  4.30535E-001
  3.00000E-003	  4.03140E-001	  4.39354E-001	  5.47591E-001	  4.54236E-001
  3.20000E-003	  4.52028E-001	  4.36335E-001	  4.88090E-001	  4.79625E-001
  3.60000E-003	  4.45043E-001	  5.01143E-001	  4.09519E-001	  3.54348E-001
  4.00000E-003	  4.36506E-001	  4.31060E-001	  3.74598E-001	  5.03326E-001
  4.40000E-003	  3.70540E-001	  4.41610E-001	  4.41265E-001	  4.63543E-001
  4.80000E-003	  3.91494E-001	  4.19756E-001	  4.17455E-001	  4.05136E-001
  5.20000E-003	  4.76862E-001	  4.63464E-001	  4.19043E-001	  4.09369E-001
  5.60000E-003	  3.82181E-001	  4.54421E-001	  4.16662E-001	  4.15294E-001
  6.00000E-003	  4.18657E-001	  4.25784E-001	  3.82535E-001	  4.29684E-001
  6.40000E-003	  4.10886E-001	  4.21655E-001	  4.03583E-001	  3.97958E-001
  7.20000E-003	  4.35332E-001	  4.28815E-001	  4.25805E-001	  4.13618E-001
  8.00000E-003	  3.75187E-001	  3.94149E-001	  4.24985E-001	  4.58481E-001
  8.80000E-003	  3.86828E-001	  4.35220E-001	  4.06732E-001	  4.06423E-001
  9.60000E-003	  3.84888E-001	  4.00178E-001	  4.21414E-001	  3.75527E-001
  1.04000E-002	  3.99245E-001	  4.02439E-001	  4.00383E-001	  4.26315E-001
  1.12000E-002	  3.79456E-001	  4.36727E-001	  4.01573E-001	  3.89493E-001
  1.20000E-002	  3.51905E-001	  3.49310E-001	  3.69827E-001	  3.71717E-001
  1.28000E-002	  3.75363E-001	  3.96278E-001	  3.91089E-001	  3.53551E-001
  1.44000E-002	  3.42793E-001	  3.75930E-001	  3.65494E-001	  3.63761E-001
  1.60000E-002	  3.48807E-001	  3.58384E-001	  3.67478E-001	  3.63337E-001
  1.76000E-002	  3.43569E-001	  3.57442E-001	  3.50414E-001	  3.43842E-001
  1.92000E-002	  2.96229E-001	  3.21080E-001	  3.25017E-001	  3.33472E-001
  2.08000E-002	  3.23221E-001	  3.13732E-001	  3.24794E-001	  3.09558E-001
  2.24000E-002	  3.10804E-001	  3.21457E-001	  3.47215E-001	  3.29239E-001
  2.40000E-002	  2.90626E-001	  2.98848E-001	  3.25985E-001	  2.94744E-001
  2.56000E-002	  2.94203E-001	  2.74036E-001	  3.09256E-001	  2.63638E-001
  2.88000E-002	  2.88189E-001	  2.64804E-001	  2.73640E-001	  2.89882E-001
  3.20000E-002	  2.82077E-001	  2.53194E-001	  2.74533E-001	  2.55360E-001
  3.52000E-002	  2.43079E-001	  2.36520E-001	  2.78402E-001	  2.49222E-001
  3.84000E-002	  2.46132E-001	  2.32186E-001	  2.22227E-001	  2.33138E-001
  4.16000E-002	  2.09461E-001	  2.21520E-001	  2.26295E-001	  2.04777E-001
  4.48000E-002	  2.07327E-001	  2.07672E-001	  2.05583E-001	  1.91421E-001
  4.80000E-002	  1.79387E-001	  1.92317E-001	  1.86116E-001	  1.74407E-001
  5.12000E-002	  1.70789E-001	  1.87858E-001	  1.80062E-001	  1.79796E-001
  5.76000E-002	  1.71420E-001	  1.72523E-001	  1.47637E-001	  1.69243E-001
  6.40000E-002	  1.31690E-001	  1.42592E-001	  1.35048E-001	  1.55219E-001
  7.04000E-002	  1.14954E-001	  1.29800E-001	  1.24112E-001	  1.18684E-001
  7.68000E-002	  1.21289E-001	  1.29423E-001	  9.61792E-002	  1.15541E-001
  8.32000E-002	  9.91686E-002	  1.04646E-001	  8.38748E-002	  9.87454E-002
  8.96000E-002	  8.94183E-002	  9.65439E-002	  7.26123E-002	  7.54095E-002
  9.60000E-002	  7.22946E-002	  8.68681E-002	  6.04568E-002	  7.32196E-002
  1.02400E-001	  6.33295E-002	  7.16865E-002	  5.31103E-002	  5.78484E-002
  1.15200E-001	  5.77309E-002	  5.42900E-002	  3.72688E-002	  3.83791E-002
  1.28000E-001	  3.71040E-002	  4.25793E-002	  3.20699E-002	  4.63903E-002
  1.40800E-001	  2.75171E-002	  4.14297E-002	  2.73249E-002	  2.33702E-002
  1.53600E-001	  1.60495E-002	  1.96421E-002	  2.33113E-002	  2.75244E-002
  1.66400E-001	  7.02613E-003	  2.87612E-002	  1.67610E-002	  1.68152E-002
  1.79200E-001	  1.80928E-002	  2.28467E-002	  1.77100E-002	  1.92638E-002
  1.92000E-001	  1.06403E-002	  9.83967E-003	  1.27415E-002	  5.28629E-003
  2.04800E-001	  7.19182E-003	  5.30899E-003	  2.14312E-002	  6.26627E-003
  2.30400E-001	  1.07163E-002	  2.64055E-004	  9.27565E-003	  2.03181E-003
  2.56000E-001	 -1.04576E-003	 -1.45153E-003	  1.04422E-002	  1.56118E-003
  2.81600E-001	  2.66661E-003	 -4.88744E-003	  5.78882E-003	 -3.76604E-003
  3.07200E-001	 -1.96163E-003	  2.77935E-003	  2.97831E-003	 -7.52427E-003
  3.32800E-001	  5.60836E-003	  1.50078E-003	  3.89735E-003	 -5.82279E-003
  3.58400E-001	  5.14731E-003	  4.33513E-003	  3.68680E-003	 -9.13998E-003
  3.84000E-001	 -4.19308E-003	 -1.75867E-003	  2.75622E-003	  3.28363E-004
  4.09600E-001	 -4.34715E-003	  4.85749E-003	  7.23326E-003	 -6.33217E-003
  4.60800E-001	 -6.24652E-003	  3.74365E-003	  1.94632E-003	  5.00717E-003
  5.12000E-001	 -3.92187E-003	  5.90175E-003	 -7.07121E-003	  6.57742E-003
  5.63200E-001	 -3.27205E-003	  1.40820E-003	 -1.16063E-002	  2.83868E-003
  6.14400E-001	 -7.55593E-003	  8.93446E-004	 -1.27280E-002	 -1.41801E-003
  6.65600E-001	 -1.02674E-002	  4.92824E-003	 -4.49578E-004	 -5.37719E-004
  7.16800E-001	 -2.23407E-003	  6.72687E-004	 -5.35184E-003	 -5.87242E-003
  7.68000E-001	 -4.98825E-005	  1.60962E-003	 -2.52233E-003	 -2.40609E-003
  8.19200E-001	 -4.94299E-004	  7.23338E-003	 -1.02233E-004	  2.57555E-003
  9.21600E-001	 -8.07461E-003	  1.80498E-003	  4.34610E-003	 -6.36053E-003
  1.02400E+000	 -1.02348E-003	  4.57125E-003	  8.47163E-003	  1.60469E-003
  1.12640E+000	  1.56736E-003	  3.10542E-003	  8.18291E-003	  3.55747E-003
  1.22880E+000	  5.34607E-003	  3.05258E-003	  4.05411E-003	  8.65093E-003
  1.33120E+000	  2.67308E-003	 -3.10396E-004	  8.57135E-003	  1.66185E-003
  1.43360E+000	  4.03078E-003	 -9.96596E-003	  9.40362E-003	  1.82986E-003
  1.53600E+000	 -6.04593E-003	  5.13230E-004	 -3.85355E-003	  3.64778E-004
  1.63840E+000	 -8.08263E-003	  2.82410E-003	 -3.79512E-003	 -4.21151E-003
  1.84320E+000	 -1.47865E-004	 -7.27625E-003	 -9.11350E-003	 -6.23783E-003
  2.04800E+000	  1.05293E-003	 -3.27992E-003	 -1.07674E-003	 -7.27421E-004
  2.25280E+000	  2.64879E-003	  1.11816E-005	 -2.99997E-003	  2.42409E-003
  2.45760E+000	 -7.19417E-004	 -3.47418E-003	  8.90134E-003	 -9.19488E-004
  2.66240E+000	  5.94085E-003	 -3.74438E-003	  5.68726E-003	 -6.29911E-004
  2.86720E+000	  5.19354E-004	 -2.66774E-003	 -5.66364E-004	  2.77664E-003
  3.07200E+000	  7.26494E-003	  7.40378E-004	  6.98961E-004	 -4.98688E-003
  3.27680E+000	 -1.09848E-004	  4.63435E-003	  4.00496E-003	 -2.44435E-003
  3.68640E+000	 -5.33240E-003	  4.29970E-004	  7.99624E-003	 -4.88164E-004
  4.09600E+000	 -4.29054E-003	 -2.31780E-003	 -5.45330E-003	 -5.50902E-003
  4.50560E+000	 -8.68100E-004	 -2.16573E-003	  1.52236E-003	 -4.79591E-004
  4.91520E+000	 -2.60393E-003	  6.36096E-004	  2.16364E-003	  8.19473E-004
  5.32480E+000	  1.78011E-003	 -1.87192E-003	  5.70470E-004	  3.88688E-003
  5.73440E+000	  1.84199E-003	  1.41199E-003	 -6.23811E-003	 -2.75593E-004
  6.14400E+000	  5.69454E-003	  3.32962E-003	  2.20911E-003	  6.61899E-004
  6.55360E+000	  4.73856E-004	  5.65520E-003	  4.85852E-003	  1.70049E-003
  7.37280E+000	 -3.89430E-003	 -8.60955E-004	  2.14466E-004	  3.29051E-003
  8.19200E+000	 -3.05998E-003	  4.35293E-003	 -1.74884E-003	 -3.10787E-003
  9.01120E+000	 -1.01476E-003	 -6.61453E-003	  9.26798E-004	 -3.57454E-003
  9.83040E+000	  2.43269E-003	 -1.06772E-003	 -1.74579E-003	  6.21471E-003
  1.06496E+001	 -1.94868E-004	  1.20817E-003	  2.87866E-003	 -1.56487E-003
  1.14688E+001	  1.86856E-003	  3.17879E-003	 -2.51007E-003	  2.91415E-003
  1.22880E+001	  9.70534E-004	 -3.17812E-003	  2.90442E-003	  2.69314E-003
  1.31072E+001	  1.28335E-003	 -9.65516E-004	 -1.96475E-003	  2.01668E-003
  1.47456E+001	  2.08785E-004	  1.75304E-003	 -2.87353E-003	 -1.61204E-003
  1.63840E+001	 -2.46221E-004	  8.27765E-004	  1.38744E-003	 -2.60410E-003
  1.80224E+001	 -3.55140E-004	  8.03483E-004	  1.37417E-003	  1.48604E-003
  1.96608E+001	 -6.89826E-004	 -5.14934E-004	 -7.35455E-004	  1.64724E-003
  2.12992E+001	 -4.01176E-004	  1.37593E-003	  2.13885E-003	 -7.51162E-004
  2.29376E+001	  1.08137E-004	 -1.20912E-004	 -2.22125E-003	  3.40362E-003
  2.45760E+001	  3.87173E-003	  2.86992E-003	  2.01055E-003	 -2.01834E-004
  2.62144E+001	  1.39072E-003	  2.40951E-003	  2.33459E-003	  2.02889E-003
  2.94912E+001	  9.01701E-004	 -1.58755E-003	 -9.75188E-004	 -1.28636E-003
  3.27680E+001	 -3.99488E-004	  2.03957E-003	 -1.55217E-003	  8.37476E-004
  3.60448E+001	 -4.73266E-004	 -1.53136E-003	  1.11416E-003	  7.01868E-004
  3.93216E+001	  9.53644E-004	 -1.92574E-004	  3.13762E-004	  1.16678E-003
  4.25984E+001	  3.44565E-004	 -6.74173E-004	 -3.43530E-004	 -1.11679E-003
  4.58752E+001	 -1.83504E-003	  1.55451E-003	  1.40593E-003	 -1.40016E-003
  4.91520E+001	 -1.61944E-003	  1.72219E-004	 -7.03172E-004	 -8.40603E-004
  5.24288E+001	  8.68869E-004	  2.83930E-004	 -7.88978E-004	 -9.74043E-004
  5.89824E+001	 -1.17092E-003	 -8.72029E-004	  1.46330E-003	 -1.30674E-003
  6.55360E+001	 -2.54030E-004	 -1.23726E-003	  1.33206E-004	 -4.25592E-004
  7.20896E+001	 -1.30625E-003	  3.89480E-004	 -3.16206E-004	 -1.63117E-004
  7.86432E+001	  2.51893E-005	  3.21840E-004	 -2.95069E-004	  8.92869E-005
  8.51968E+001	  1.29485E-003	 -1.24105E-004	  1.09161E-003	 -1.12657E-003
  9.17504E+001	  6.70424E-004	 -7.23800E-005	 -5.89199E-004	  2.07274E-004
  9.83040E+001	  5.39613E-004	  2.10987E-004	 -7.88387E-004	 -1.21249E-004
  1.04858E+002	  7.79265E-004	 -1.27097E-003	  1.13268E-004	  2.64315E-004
  1.17965E+002	  8.33733E-005	 -1.73157E-003	 -1.84600E-003	  8.77498E-004
  1.31072E+002	 -3.98924E-004	 -1.64705E-004	 -5.30572E-004	  6.84451E-004
  1.44179E+002	 -4.88551E-004	  1.67294E-003	 -7.21743E-004	 -9.31564E-005
  1.57286E+002	 -5.14144E-004	  1.15023E-003	  2.71961E-005	 -3.49131E-004
  1.70394E+002	  3.57496E-004	  8.12582E-004	  2.17056E-005	 -1.35690E-003
  1.83501E+002	  3.68976E-004	 -1.27958E-004	 -7.19302E-004	 -9.04269E-004
  1.96608E+002	 -4.89075E-004	 -1.09411E-003	 -9.13984E-004	 -1.40975E-005
  2.09715E+002	 -7.40500E-005	 -7.16838E-004	 -6.70789E-004	 -3.81029E-004
  2.35930E+002	 -4.34285E-006	  1.83943E-004	 -5.91799E-006	  2.08303E-004
  2.62144E+002	  8.63592E-005	 -9.86427E-004	 -1.07492E-003	  4.82344E-004
  2.88358E+002	  6.74345E-004	  2.36161E-004	 -1.65912E-004	  8.75577E-004
  3.14573E+002	 -1.06481E-004	  8.94628E-004	 -2.55712E-004	 -4.23432E-004
  3.40787E+002	 -3.43692E-004	  9.58986E-005	 -2.51582E-004	 -5.51318E-004
  3.67002E+002	  2.66088E-004	  6.18941E-005	  2.16526E-004	 -1.17626E-003
  3.93216E+002	  2.99022E-004	  5.34857E-004	  9.01809E-004	  7.83112E-004

"Count Rate"
       0.01311	      61.11145	      60.42480	      53.32947	      52.33765
       0.02621	      57.14417	      57.98340	      55.61829	      49.89624
       0.03932	      55.99976	      56.45752	      54.09241	      57.14417
       0.05243	      55.38940	      60.95886	      65.61279	      56.15234
       0.06554	      58.82263	      58.13599	      60.80627	      57.29675
       0.07864	      62.48474	      64.16321	      54.24500	      66.45203
       0.09175	      53.63464	      64.77356	      65.76538	      52.49023
       0.10486	      52.03247	      60.72998	      62.40845	      54.85535
       0.11796	      64.23950	      59.12781	      58.21228	      57.83081
       0.13107	      55.23682	      54.85535	      58.28857	      53.86353
       0.14418	      54.62646	      60.27222	      56.83899	      56.15234
       0.15729	      56.68640	      56.76270	      50.20142	      54.85535
       0.17039	      57.22046	      60.88257	      56.38123	      61.34033
       0.18350	      57.75452	      59.81445	      56.22864	      61.26404
       0.19661	      57.67822	      53.10059	      57.37305	      55.08423
       0.20972	      58.05969	      63.55286	      52.10876	      50.81177
       0.22282	      57.67822	      61.56921	      52.10876	      47.37854
       0.23593	      55.84717	      68.43567	      50.04883	      48.82813
       0.24904	      57.22046	      70.64819	      53.32947	      53.48206
       0.26214	      54.93164	      62.17957	      58.05969	      50.20142
       0.27525	      56.07605	      58.36487	      60.88257	      56.68640
       0.28836	      63.24768	      55.46570	      55.99976	      55.92346
       0.30147	      59.50928	      55.23682	      56.45752	      58.36487
       0.31457	      52.64282	      54.32129	      59.20410	      53.40576
       0.32768	      63.55286	      61.72180	      59.12781	      57.67822
       0.34079	      58.89893	      52.87170	      51.04065	      52.71912
       0.35389	      61.41663	      55.84717	      64.46838	      50.50659
       0.36700	      61.79810	      52.18506	      54.77905	      61.49292
       0.38011	      64.31580	      63.70544	      56.76270	      50.20142
       0.39322	      59.58557	      54.70276	      52.03247	      59.35669
       0.40632	      58.97522	      58.89893	      51.72729	      52.26135
       0.41943	      54.47388	      60.11963	      59.58557	      53.71094
       0.43254	      55.08423	      58.36487	      65.53650	      56.38123
       0.44564	      59.89075	      48.82813	      56.07605	      52.56653
       0.45875	      55.00793	      57.37305	      56.07605	      56.83899
       0.47186	      61.41663	      64.08691	      56.99158	      59.28040
       0.48497	      60.04333	      55.46570	      58.36487	      48.21777
       0.49807	      58.97522	      55.16052	      66.45203	      49.81995
       0.51118	      59.43298	      57.22046	      58.51746	      53.10059
       0.52429	      56.07605	      59.50928	      58.36487	      50.73547
       0.53740	      54.47388	      56.99158	      61.95068	      49.43848
       0.55050	      54.09241	      61.41663	      55.16052	      55.16052
       0.56361	      56.76270	      69.12231	      54.93164	      55.99976
       0.57672	      61.34033	      57.60193	      59.96704	      54.93164
       0.58982	      56.83899	      49.13330	      55.31311	      61.79810
       0.60293	      53.55835	      64.31580	      64.31580	      54.16870
       0.61604	      56.53381	      53.71094	      49.13330	      56.15234
       0.62915	      53.63464	      63.47656	      59.05151	      51.34583
       0.64225	      57.22046	      59.35669	      54.55017	      50.73547
       0.65536	      59.66187	      58.82263	      53.55835	      52.87170
       0.66847	      57.44934	      54.24500	      56.15234	      56.83899
       0.68157	      58.13599	      57.83081	      50.88806	      58.28857
       0.69468	      57.90710	      58.21228	      54.24500	      57.60193
       0.70779	      54.01611	      56.61011	      56.61011	      61.03516
       0.72090	      56.38123	      59.81445	      56.76270	      57.67822
       0.73400	      55.54199	      55.31311	      64.62097	      55.23682
       0.74711	      62.17957	      56.99158	      54.24500	      57.75452
