ALV-7004/USB-FAST
Date :	"11/11/2025"
Time :	"3:55:56 PM"
Samplename : 	""
SampMemo(0) : 	""
SampMemo(1) : 	""
SampMemo(2) : 	""
SampMemo(3) : 	""
SampMemo(4) : 	""
SampMemo(5) : 	""
SampMemo(6) : 	""
SampMemo(7) : 	""
SampMemo(8) : 	""
SampMemo(9) : 	""
Temperature [K] :	     298.16000
Viscosity [cp]  :	       0.89000
Refractive Index:	       1.33200
Wavelength [nm] :	       0.00000
Angle [°]       :	       0.00000
Duration [s]    :	         1
FloatDur [ms]   :	          944
Stop TP [ms]   :	     65369
Runs            :	         1
Mode            :	"A-CH0+1  A-CH2+3 "
MeanCR0 [kHz]   :	      52.70746
MeanCR1 [kHz]   :	      54.57348
MeanCR2 [kHz]   :	      53.90591
MeanCR3 [kHz]   :	      54.90727

"Correlation"
  3.12500E-006	 -1.00000E+000	 -1.00000E+000	 -1.00000E+000	 -1.00000E+000
  6.25000E-006	 -1.00000E+000	 -1.00000E+000	 -1.00000E+000	 -1.00000E+000
  9.37500E-006	 -1.00000E+000	 -1.00000E+000	 -1.00000E+000	 -1.00000E+000
  1.25000E-005	 -1.00000E+000	 -1.00000E+000	 -1.00000E+000	 -1.00000E+000
  1.56250E-005	 -1.00000E+000	 -1.00000E+000	 -1.00000E+000	 -1.00000E+000
  1.87500E-005	 -1.00000E+000	 -1.00000E+000	 -1.00000E+000	 -1.00000E+000
  2.18750E-005	 -8.77943E-001	  1.50476E+000	  1.68388E+000	 -6.62581E-001
  2.50000E-005	  1.18160E+001	  1.17515E+001	  1.09024E+001	  2.53187E+001
  2.81250E-005	  4.37052E+000	  2.75715E+000	  1.91726E+000	  7.88536E+000
  3.12500E-005	  2.05143E+000	  1.39091E+000	  1.80057E+000	  5.29848E+000
  3.43750E-005	  1.19703E+000	  1.27706E+000	  6.33664E-001	  5.97332E+000
  3.75000E-005	  1.19703E+000	  1.16321E+000	  5.02127E-002	  2.93655E+000
  4.06250E-005	  1.19703E+000	  9.35500E-001	  5.16974E-001	  3.49892E+000
  4.37500E-005	  1.56320E+000	  1.61862E+000	  1.21712E+000	  3.04902E+000
  4.68750E-005	  8.30858E-001	  8.21647E-001	  5.16974E-001	  1.69935E+000
  5.00000E-005	  7.69829E-001	  8.21647E-001	  9.25390E-001	  2.09300E+000
  5.62500E-005	  1.07497E+000	  8.16027E-002	  9.83735E-001	  2.48666E+000
  6.25000E-005	  3.42629E-001	  5.93941E-001	  5.16974E-001	  2.48666E+000
  6.87500E-005	  4.64686E-001	  1.04935E+000	  2.83593E-001	  1.69935E+000
  7.50000E-005	  7.08800E-001	  5.93941E-001	  4.58629E-001	  9.12039E-001
  8.12500E-005	  4.64686E-001	  1.10628E+000	  9.25390E-001	  2.20548E+000
  8.75000E-005	  8.91886E-001	  1.22013E+000	  5.75319E-001	  1.64311E+000
  9.37500E-005	  1.07497E+000	  4.23161E-001	  2.25248E-001	  1.02451E+000
  1.00000E-004	  7.69829E-001	  4.23161E-001	  8.08699E-001	  7.43329E-001
  1.12500E-004	  3.42629E-001	  7.07794E-001	  2.54421E-001	  4.34029E-001
  1.25000E-004	  5.25715E-001	  7.93183E-001	  4.29456E-001	  8.55802E-001
  1.37500E-004	  7.39315E-001	  7.36257E-001	  5.75319E-001	  9.68275E-001
  1.50000E-004	  1.90057E-001	  7.64720E-001	  3.12766E-001	  5.18384E-001
  1.62500E-004	  5.25715E-001	  3.09308E-001	  7.21182E-001	  6.58975E-001
  1.75000E-004	  7.08800E-001	  5.65477E-001	  2.10400E-002	  7.15211E-001
  1.87500E-004	  4.64686E-001	  6.50867E-001	  4.29456E-001	  7.15211E-001
  2.00000E-004	  6.02000E-001	  7.78951E-001	  4.44042E-001	  5.04324E-001
  2.25000E-004	  6.93543E-001	  6.50867E-001	  4.58628E-001	  5.88679E-001
  2.50000E-004	  6.47771E-001	  4.23161E-001	  4.44042E-001	  6.87093E-001
  2.75000E-004	  5.40971E-001	  5.51246E-001	  5.16973E-001	  6.73034E-001
  3.00000E-004	  6.17257E-001	  5.79709E-001	  5.46146E-001	  5.18383E-001
  3.25000E-004	  8.30857E-001	  4.51624E-001	  3.12765E-001	  7.15211E-001
  3.50000E-004	  5.71486E-001	  6.93562E-001	  7.64940E-001	  5.46502E-001
  3.75000E-004	  4.95200E-001	  4.65856E-001	  4.87801E-001	  4.34029E-001
  4.00000E-004	  4.57056E-001	  3.44887E-001	  4.80507E-001	  4.76205E-001
  4.50000E-004	  5.56228E-001	  5.01434E-001	  4.36748E-001	  7.01151E-001
  5.00000E-004	  4.49428E-001	  5.01434E-001	  3.78403E-001	  3.56703E-001
  5.50000E-004	  5.25714E-001	  4.30276E-001	  6.77422E-001	  4.41058E-001
  6.00000E-004	  5.56228E-001	  5.37013E-001	  4.87800E-001	  3.35614E-001
  6.50000E-004	  4.87571E-001	  5.08550E-001	  6.40956E-001	  5.95708E-001
  7.00000E-004	  2.96857E-001	  5.08550E-001	  4.29455E-001	  5.11353E-001
  7.50000E-004	  5.48599E-001	  4.23160E-001	  5.24266E-001	  5.46501E-001
  8.00000E-004	  4.79941E-001	  3.94696E-001	  4.14868E-001	  6.55458E-001
  9.00000E-004	  3.50255E-001	  5.19222E-001	  5.46144E-001	  4.76204E-001
  1.00000E-003	  4.03655E-001	  6.01054E-001	  3.01824E-001	  5.28926E-001
  1.10000E-003	  4.45612E-001	  3.34212E-001	  5.09678E-001	  5.25411E-001
  1.20000E-003	  4.76127E-001	  4.37391E-001	  5.97196E-001	  4.26997E-001
  1.30000E-003	  4.15098E-001	  3.76907E-001	  5.24265E-001	  4.55116E-001
  1.40000E-003	  3.31184E-001	  5.33454E-001	  4.80506E-001	  5.60559E-001
  1.50000E-003	  5.21898E-001	  5.37012E-001	  4.18514E-001	  5.04322E-001
  1.60000E-003	  4.53239E-001	  4.76554E-001	  4.64094E-001	  5.34195E-001
  1.80000E-003	  4.79938E-001	  5.38818E-001	  4.42214E-001	  5.41225E-001
  2.00000E-003	  4.07467E-001	  5.70840E-001	  4.31275E-001	  5.46497E-001
  2.20000E-003	  5.14267E-001	  4.48090E-001	  4.23982E-001	  4.51598E-001
  2.40000E-003	  5.29524E-001	  5.29923E-001	  5.51642E-001	  5.53527E-001
  2.60000E-003	  4.39889E-001	  5.21028E-001	  5.37055E-001	  5.42982E-001
  2.80000E-003	  5.04731E-001	  5.92188E-001	  4.05776E-001	  3.86575E-001
  3.00000E-003	  4.87567E-001	  5.54829E-001	  5.33408E-001	  5.44740E-001
  3.20000E-003	  5.04726E-001	  5.12158E-001	  4.88732E-001	  5.84275E-001
  3.60000E-003	  4.32255E-001	  4.48113E-001	  4.02125E-001	  5.23646E-001
  4.00000E-003	  4.69444E-001	  5.83318E-001	  4.93290E-001	  5.37705E-001
  4.40000E-003	  5.06633E-001	  5.09489E-001	  4.86909E-001	  5.59672E-001
  4.80000E-003	  4.40837E-001	  5.11239E-001	  4.94202E-001	  5.23646E-001
  5.20000E-003	  4.25580E-001	  5.14797E-001	  4.85997E-001	  5.21010E-001
  5.60000E-003	  3.89345E-001	  4.91670E-001	  4.63206E-001	  5.18374E-001
  6.00000E-003	  4.27487E-001	  4.64096E-001	  4.46796E-001	  5.28918E-001
  6.40000E-003	  4.24140E-001	  5.04142E-001	  4.56359E-001	  5.23196E-001
  7.20000E-003	  4.64666E-001	  4.83683E-001	  4.24451E-001	  4.93321E-001
  8.00000E-003	  4.60852E-001	  4.48548E-001	  4.86443E-001	  5.11773E-001
  8.80000E-003	  4.77539E-001	  4.37874E-001	  4.75959E-001	  5.10895E-001
  9.60000E-003	  4.16035E-001	  4.32093E-001	  4.99662E-001	  5.17045E-001
  1.04000E-002	  4.78016E-001	  4.93913E-001	  4.71430E-001	  5.46481E-001
  1.12000E-002	  4.75632E-001	  4.66755E-001	  4.64136E-001	  5.03426E-001
  1.20000E-002	  5.17112E-001	  5.19234E-001	  4.11716E-001	  4.69157E-001
  1.28000E-002	  4.68222E-001	  4.93699E-001	  4.58020E-001	  5.08897E-001
  1.44000E-002	  4.63455E-001	  5.28167E-001	  5.06796E-001	  5.40529E-001
  1.60000E-002	  4.31749E-001	  4.59676E-001	  4.44601E-001	  4.93740E-001
  1.76000E-002	  4.37232E-001	  4.73463E-001	  4.66938E-001	  5.30234E-001
  1.92000E-002	  4.30319E-001	  4.61928E-001	  4.60556E-001	  5.29575E-001
  2.08000E-002	  4.60356E-001	  4.80385E-001	  4.53490E-001	  5.15516E-001
  2.24000E-002	  4.70368E-001	  5.05514E-001	  4.61468E-001	  5.01677E-001
  2.40000E-002	  4.29842E-001	  4.94173E-001	  4.57137E-001	  4.92671E-001
  2.56000E-002	  4.62104E-001	  4.74818E-001	  4.35616E-001	  4.73165E-001
  2.88000E-002	  4.42914E-001	  4.94389E-001	  4.59606E-001	  5.11389E-001
  3.20000E-002	  4.45179E-001	  5.00727E-001	  4.53708E-001	  4.96122E-001
  3.52000E-002	  4.41484E-001	  4.73566E-001	  4.60546E-001	  4.89641E-001
  3.84000E-002	  4.64011E-001	  4.94137E-001	  4.49548E-001	  4.75582E-001
  4.16000E-002	  4.69374E-001	  4.75345E-001	  4.57184E-001	  4.88461E-001
  4.48000E-002	  4.20864E-001	  4.75345E-001	  4.52967E-001	  4.95272E-001
  4.80000E-002	  4.66037E-001	  4.76123E-001	  4.45559E-001	  5.09112E-001
  5.12000E-002	  4.50493E-001	  4.67597E-001	  4.51350E-001	  5.03638E-001
  5.76000E-002	  4.30589E-001	  4.80136E-001	  4.57105E-001	  4.87653E-001
  6.40000E-002	  4.29397E-001	  4.66206E-001	  4.55281E-001	  4.86445E-001
  7.04000E-002	  4.39707E-001	  4.79300E-001	  4.67704E-001	  4.97708E-001
  7.68000E-002	  4.33032E-001	  4.64205E-001	  4.44569E-001	  4.77546E-001
  8.32000E-002	  4.37919E-001	  4.75577E-001	  4.48985E-001	  5.02869E-001
  8.96000E-002	  4.17717E-001	  4.76605E-001	  4.44597E-001	  4.87269E-001
  9.60000E-002	  4.17359E-001	  4.66430E-001	  4.38556E-001	  4.91773E-001
  1.02400E-001	  4.18602E-001	  4.70115E-001	  4.49939E-001	  4.93583E-001
  1.15200E-001	  4.26647E-001	  4.59438E-001	  4.45010E-001	  4.79493E-001
  1.28000E-001	  4.26469E-001	  4.47844E-001	  4.38940E-001	  4.78311E-001
  1.40800E-001	  4.21434E-001	  4.49234E-001	  4.33868E-001	  4.79050E-001
  1.53600E-001	  4.14728E-001	  4.58909E-001	  4.44268E-001	  4.75616E-001
  1.66400E-001	  4.20598E-001	  4.51596E-001	  4.44724E-001	  4.64436E-001
  1.79200E-001	  4.05403E-001	  4.55211E-001	  4.27912E-001	  4.68994E-001
  1.92000E-001	  4.08799E-001	  4.51291E-001	  4.24408E-001	  4.75534E-001
  2.04800E-001	  4.05388E-001	  4.56269E-001	  4.26356E-001	  4.69917E-001
  2.30400E-001	  3.96288E-001	  4.44603E-001	  4.11381E-001	  4.61132E-001
  2.56000E-001	  3.96841E-001	  4.34147E-001	  4.15570E-001	  4.55977E-001
  2.81600E-001	  3.93966E-001	  4.32200E-001	  4.12817E-001	  4.49876E-001
  3.07200E-001	  3.86146E-001	  4.19379E-001	  4.10395E-001	  4.50466E-001
  3.32800E-001	  3.86089E-001	  4.24149E-001	  3.95560E-001	  4.31499E-001
  3.58400E-001	  3.68125E-001	  4.09897E-001	  3.85996E-001	  4.22716E-001
  3.84000E-001	  3.62793E-001	  4.09509E-001	  3.86406E-001	  4.18126E-001
  4.09600E-001	  3.56948E-001	  4.02039E-001	  3.78642E-001	  4.07048E-001
  4.60800E-001	  3.43697E-001	  3.87666E-001	  3.63865E-001	  3.93267E-001
  5.12000E-001	  3.24130E-001	  3.76672E-001	  3.55063E-001	  3.79232E-001
  5.63200E-001	  3.12008E-001	  3.64334E-001	  3.29277E-001	  3.65021E-001
  6.14400E-001	  2.94872E-001	  3.50882E-001	  3.19112E-001	  3.50837E-001
  6.65600E-001	  2.89012E-001	  3.41721E-001	  3.09295E-001	  3.44199E-001
  7.16800E-001	  2.76042E-001	  3.23138E-001	  2.99088E-001	  3.20193E-001
  7.68000E-001	  2.62704E-001	  3.18459E-001	  2.81935E-001	  3.01709E-001
  8.19200E-001	  2.47087E-001	  3.01376E-001	  2.71571E-001	  2.86318E-001
  9.21600E-001	  2.17574E-001	  2.75151E-001	  2.52554E-001	  2.65221E-001
  1.02400E+000	  1.99366E-001	  2.55203E-001	  2.29335E-001	  2.37345E-001
  1.12640E+000	  1.76412E-001	  2.36904E-001	  2.10010E-001	  2.10312E-001
  1.22880E+000	  1.54610E-001	  2.16384E-001	  1.88231E-001	  1.84954E-001
  1.33120E+000	  1.33562E-001	  2.04149E-001	  1.70497E-001	  1.68155E-001
  1.43360E+000	  1.14185E-001	  1.84634E-001	  1.49222E-001	  1.47668E-001
  1.53600E+000	  9.98622E-002	  1.68125E-001	  1.30412E-001	  1.27139E-001
  1.63840E+000	  8.72961E-002	  1.55360E-001	  1.17149E-001	  1.14201E-001
  1.84320E+000	  6.16151E-002	  1.26804E-001	  9.19783E-002	  8.82442E-002
  2.04800E+000	  4.41810E-002	  1.01435E-001	  7.32736E-002	  6.96251E-002
  2.25280E+000	  3.25821E-002	  7.34635E-002	  5.51536E-002	  5.00539E-002
  2.45760E+000	  2.38237E-002	  5.25471E-002	  3.76839E-002	  3.86053E-002
  2.66240E+000	  1.96568E-002	  3.88978E-002	  2.14923E-002	  2.57337E-002
  2.86720E+000	  6.76822E-003	  2.57372E-002	  8.69139E-003	  1.67883E-002
  3.07200E+000	  4.27325E-003	  1.75733E-002	 -4.69136E-004	  8.19369E-003
  3.27680E+000	  1.56888E-004	  1.05176E-002	 -5.34308E-003	  4.12831E-003
  3.68640E+000	 -2.98704E-003	  1.02727E-003	 -1.34745E-002	 -2.76204E-003
  4.09600E+000	 -2.55755E-003	 -6.09397E-003	 -1.76929E-002	 -2.79675E-003
  4.50560E+000	 -4.57212E-004	 -8.69492E-003	 -2.07316E-002	  8.90537E-004
  4.91520E+000	  5.83538E-003	 -7.88792E-003	 -1.26303E-002	  5.19494E-003
  5.32480E+000	  1.03343E-002	  2.76439E-003	  5.70668E-004	  5.78916E-003
  5.73440E+000	  1.43667E-002	  8.84826E-003	  9.32502E-003	  6.32183E-003
  6.14400E+000	  2.03478E-002	  1.08376E-002	  1.26054E-002	  8.40080E-003
  6.55360E+000	  2.33943E-002	  9.07723E-003	  1.08480E-002	  3.83721E-004
  7.37280E+000	  1.94341E-002	  6.29509E-003	  1.07928E-003	 -1.76144E-002
  8.19200E+000	  7.12205E-003	  1.28608E-003	 -1.45384E-002	 -1.54349E-002
  9.01120E+000	 -7.77992E-003	 -1.65747E-002	 -2.49624E-002	 -1.12793E-002
  9.83040E+000	 -3.22971E-002	 -1.56681E-002	 -2.25664E-002	 -1.19173E-002
  1.06496E+001	 -3.37354E-002	 -5.50219E-003	 -1.82000E-002	  4.20529E-003
  1.14688E+001	 -2.18175E-002	  1.22289E-002	 -2.84821E-002	  1.58887E-002
  1.22880E+001	 -2.09304E-002	  1.35933E-002	 -3.17195E-002	  1.96997E-002
  1.31072E+001	 -1.77131E-002	  3.98508E-003	 -3.33390E-002	  1.30692E-002
  1.47456E+001	 -3.05725E-003	 -2.44101E-002	 -9.81486E-003	  7.66273E-003
  1.63840E+001	  1.19356E-002	 -2.11967E-002	 -1.74025E-003	 -6.23998E-003
  1.80224E+001	  1.95473E-002	 -5.64298E-004	 -1.18534E-002	  1.84937E-002
  1.96608E+001	  2.87159E-002	 -2.02810E-002	  1.82705E-003	  2.51238E-002
  2.12992E+001	  1.21797E-002	 -2.49738E-002	 -1.58608E-003	  8.33722E-003
  2.29376E+001	 -7.63829E-003	 -4.68877E-003	 -1.21706E-002	 -1.26754E-003
  2.45760E+001	 -8.52107E-003	 -4.78251E-003	 -9.40713E-003	  4.31864E-003
  2.62144E+001	 -1.38230E-002	 -5.81284E-003	 -2.13297E-003	  1.01185E-002
  2.94912E+001	 -3.50350E-003	  2.32423E-003	 -1.81179E-002	  1.29199E-002
  3.27680E+001	  7.44958E-003	  7.60941E-003	 -4.59056E-003	  9.56538E-003
  3.60448E+001	  1.30552E-002	  4.09089E-002	  7.19942E-003	 -1.91291E-002
  3.93216E+001	 -2.87747E-003	 -4.97954E-003	 -1.46401E-002	  1.28878E-002
  4.25984E+001	 -8.68833E-003	  3.33278E-002	  8.79626E-003	 -4.84353E-003
  4.58752E+001	 -2.14735E-002	  1.34142E-002	  9.00637E-003	 -3.05156E-002
  4.91520E+001	 -9.56891E-003	  1.32944E-003	 -9.08774E-003	 -1.89162E-002
  5.24288E+001	  6.25900E-003	 -1.63898E-003	 -1.05445E-002	 -1.48971E-002
  5.89824E+001	  1.54986E-002	 -1.25131E-002	 -2.53082E-003	 -9.84548E-003
  6.55360E+001	 -3.95900E-003	  1.00692E-002	  2.58728E-002	  7.07145E-003
  7.20896E+001	 -9.47628E-003	 -2.90438E-003	  6.27634E-003	 -1.67296E-003
  7.86432E+001	 -9.22161E-004	  1.95425E-002	  1.84121E-003	 -8.00758E-003
  8.51968E+001	 -3.35178E-003	  9.28484E-003	  7.49136E-003	  1.90185E-003
  9.17504E+001	 -8.65098E-003	  1.92256E-002	 -1.76924E-002	 -8.85417E-003
  9.83040E+001	 -1.48391E-002	 -1.23076E-002	 -2.44847E-003	  4.81064E-003
  1.04858E+002	  5.38743E-003	  3.08996E-003	  1.97563E-002	  8.17209E-003
  1.17965E+002	 -6.53475E-003	  2.78308E-002	 -8.06510E-003	  7.93273E-003
  1.31072E+002	 -1.27634E-002	 -1.26945E-002	 -2.03922E-003	  2.19057E-002
  1.44179E+002	 -2.24992E-003	 -1.08665E-003	  1.30207E-002	  8.23926E-003
  1.57286E+002	 -8.00417E-003	 -1.23137E-002	 -1.93290E-003	  3.38560E-003
  1.70394E+002	  1.32082E-002	 -1.69438E-003	  8.58454E-004	 -9.67597E-003
  1.83501E+002	 -1.77449E-003	  6.52722E-003	  5.58725E-003	 -1.41823E-002
  1.96608E+002	 -2.27272E-003	 -2.24636E-002	 -1.27060E-002	  1.34106E-003
  2.09715E+002	 -3.81482E-004	 -6.28456E-003	  3.92784E-003	  4.52319E-003
  2.35930E+002	  4.60891E-003	  1.28998E-002	 -1.43839E-002	 -3.46279E-003
  2.62144E+002	 -3.69709E-003	 -8.17611E-003	 -7.95627E-003	  5.02295E-004
  2.88358E+002	 -1.16656E-003	 -1.32019E-002	  3.35724E-003	  4.19728E-003
  3.14573E+002	 -4.05532E-003	 -2.10158E-002	  1.96281E-004	  5.39299E-003
  3.40787E+002	 -7.08586E-003	  6.24435E-003	  6.04530E-003	  4.96818E-003
  3.67002E+002	 -5.51215E-003	 -3.87611E-003	 -7.74141E-003	 -1.01189E-002
  3.93216E+002	 -4.52976E-003	 -2.24363E-002	  9.40765E-003	 -4.00881E-003

"Count Rate"
       0.01311	      52.41394	      39.44397	      59.50928	      45.08972
       0.02621	      82.32117	      66.14685	      27.54211	      45.47119
       0.03932	      38.14697	      73.16589	      50.65918	      70.57190
       0.05243	      49.36218	      31.28052	      79.80347	      68.51196
       0.06554	      44.86084	      28.30505	      48.29407	      58.97522
       0.07864	      59.43298	      62.78992	      46.84448	      41.12244
       0.09175	      50.27771	      33.34045	      37.07886	      31.66199
       0.10486	      66.14685	      48.67554	      56.76270	      50.50659
       0.11796	      47.45483	      75.37842	      38.45215	      54.01611
       0.13107	      35.55298	      39.90173	      55.61829	      65.38391
       0.14418	      64.69727	      45.39490	      45.01343	      64.39209
       0.15729	      43.41125	      36.23962	      67.21497	      58.59375
       0.17039	      42.95349	      44.32678	      37.00256	      51.34583
       0.18350	      32.42493	      43.41125	      56.53381	      42.64832
       0.19661	      41.04614	      40.96985	      45.16602	      50.96436
       0.20972	      47.83630	      36.77368	      59.96704	      39.52026
       0.22282	      28.91541	      46.08154	      48.44666	      27.38953
       0.23593	      50.88806	      29.90723	      59.43298	      52.56653
       0.24904	      46.38672	      72.47925	      66.75720	      46.08154
       0.26214	      54.85535	      65.61279	      60.72998	      45.39490
       0.27525	      57.75452	      38.22327	      43.25867	      66.90979
       0.28836	      58.67004	      54.39758	      35.93445	      68.05420
       0.30147	      63.70544	      73.77625	      48.90442	      60.50110
       0.31457	      65.99426	      37.30774	      80.03235	      33.64563
       0.32768	      62.02698	      74.46289	      39.06250	      54.32129
       0.34079	      79.95605	      62.71362	      34.63745	      31.81458
       0.35389	      55.69458	      55.84717	      38.83362	      67.59644
       0.36700	      50.43030	      94.90967	      60.65369	      38.29956
       0.38011	      52.94800	      48.14148	      38.98621	      24.87183
       0.39322	      40.20691	      75.75989	      47.98889	      58.89893
       0.40632	      47.53113	      47.98889	      68.28308	      56.61011
       0.41943	      59.43298	      62.40845	      62.33215	      59.81445
       0.43254	      63.17139	      51.72729	      42.72461	      76.90430
       0.44564	      52.56653	      56.83899	      42.57202	      36.23962
       0.45875	      65.15503	      46.31042	      33.95081	      44.63196
       0.47186	      31.89087	      53.78723	      32.88269	      54.85535
       0.48497	      56.45752	     111.84692	      54.70276	      47.37854
       0.49807	      52.33765	      57.52563	      33.56934	      52.87170
       0.51118	      73.77625	      62.86621	      55.84717	      41.50391
       0.52429	      55.00793	      41.73279	      63.93433	      57.60193
       0.53740	      54.70276	      64.23950	      30.97534	      50.27771
       0.55050	      36.69739	      60.19592	      67.82532	      53.32947
       0.56361	      74.00513	      31.28052	      71.48743	      43.48755
       0.57672	      48.67554	      48.52295	      59.66187	      48.90442
       0.58982	      62.78992	     100.09766	      57.06787	      44.09790
       0.60293	      37.99438	      65.00244	      54.93164	      60.34851
       0.61604	      48.14148	      30.59387	      36.01074	      53.17688
       0.62915	      67.13867	      65.07874	      88.11951	      69.04602
       0.64225	      38.45215	      41.12244	      43.94531	      35.70557
       0.65536	      51.57471	      44.78455	      82.70264	      48.14148
       0.66847	      44.63196	      66.07056	      33.95081	      36.84998
       0.68157	      58.82263	      51.65100	      40.58838	      46.92078
       0.69468	      38.60474	      38.37585	      88.34839	      63.62915
       0.70779	      54.39758	      76.98059	      59.66187	      58.44116
       0.72090	      33.41675	      52.64282	      55.16052	      75.98877
       0.73400	      91.32385	      45.01343	      63.55286	      64.62097
       0.74711	      64.62097	      38.07068	      40.05432	      56.91528
