ALV-7004/USB-FAST
Date :	"11/11/2025"
Time :	"3:57:17 PM"
Samplename : 	""
SampMemo(0) : 	""
SampMemo(1) : 	""
SampMemo(2) : 	""
SampMemo(3) : 	""
SampMemo(4) : 	""
SampMemo(5) : 	""
SampMemo(6) : 	""
SampMemo(7) : 	""
SampMemo(8) : 	""
SampMemo(9) : 	""
Temperature [K] :	     298.16000
Viscosity [cp]  :	       0.89000
Refractive Index:	       1.33200
Wavelength [nm] :	       0.00000
Angle [°]       :	       0.00000
Duration [s]    :	         1
FloatDur [ms]   :	          944
Stop TP [ms]   :	     67782
Runs            :	         1
Mode            :	"A-CH0+1  A-CH2+3 "
MeanCR0 [kHz]   :	      48.98071
MeanCR1 [kHz]   :	      51.04701
MeanCR2 [kHz]   :	      50.07214
MeanCR3 [kHz]   :	      49.44484

"Correlation"
  3.12500E-006	 -1.00000E+000	 -1.00000E+000	 -1.00000E+000	 -1.00000E+000
  6.25000E-006	 -1.00000E+000	 -1.00000E+000	 -1.00000E+000	 -1.00000E+000
  9.37500E-006	 -1.00000E+000	 -1.00000E+000	 -1.00000E+000	 -1.00000E+000
  1.25000E-005	 -1.00000E+000	 -1.00000E+000	 -1.00000E+000	 -1.00000E+000
  1.56250E-005	 -1.00000E+000	 -1.00000E+000	 -1.00000E+000	 -1.00000E+000
  1.87500E-005	 -1.00000E+000	 -1.00000E+000	 -1.00000E+000	 -1.00000E+000
  2.18750E-005	 -1.00000E+000	  9.51903E-001	  1.56962E+000	 -7.22607E-001
  2.50000E-005	  1.03070E+001	  1.26633E+001	  1.22538E+001	  2.66006E+001
  2.81250E-005	  2.53344E+000	  2.64355E+000	  1.97535E+000	  8.43137E+000
  3.12500E-005	  2.10942E+000	  6.91649E-001	  6.22918E-001	  6.76701E+000
  3.43750E-005	  8.37387E-001	  9.51903E-001	  1.29913E+000	  3.71568E+000
  3.75000E-005	  1.26140E+000	  1.34228E+000	  3.52431E-001	  3.85438E+000
  4.06250E-005	  1.40274E+000	  1.47241E+000	  6.22918E-001	  2.88350E+000
  4.37500E-005	  6.96050E-001	  9.51903E-001	  7.58161E-001	  2.46741E+000
  4.68750E-005	  5.54712E-001	  4.31396E-001	  8.93404E-001	  2.74481E+000
  5.00000E-005	  1.26140E+000	  1.40735E+000	  1.09627E+000	  1.01110E+000
  5.62500E-005	  6.25381E-001	  1.01697E+000	  3.52431E-001	  1.63523E+000
  6.25000E-005	  5.54712E-001	  6.91649E-001	  8.93404E-001	  1.56589E+000
  6.87500E-005	  1.75608E+000	 -8.91120E-002	  8.93404E-001	  1.77393E+000
  7.50000E-005	  8.37387E-001	  7.56713E-001	  7.58161E-001	  7.33707E-001
  8.12500E-005	  1.04939E+000	  1.40735E+000	  1.49567E-001	  6.64359E-001
  8.75000E-005	  8.37387E-001	  8.86839E-001	  6.22918E-001	  4.56314E-001
  9.37500E-005	  9.78725E-001	  3.66332E-001	  5.55296E-001	  1.98198E+000
  1.00000E-004	  1.22606E+000	  5.28990E-001	  5.89107E-001	  1.04577E+000
  1.12500E-004	  5.90046E-001	  7.56712E-001	  4.53863E-001	  5.95010E-001
  1.25000E-004	  5.54712E-001	  7.89244E-001	  5.55296E-001	  3.17617E-001
  1.37500E-004	  6.25381E-001	  5.94054E-001	  6.56728E-001	  7.33707E-001
  1.50000E-004	  7.66718E-001	  8.86839E-001	  6.90539E-001	  7.33707E-001
  1.62500E-004	  6.96049E-001	  7.35465E-002	  7.58160E-001	  3.86965E-001
  1.75000E-004	  3.07371E-001	  3.98864E-001	  7.58160E-001	  6.29684E-001
  1.87500E-004	  8.02052E-001	  2.36205E-001	  4.87674E-001	  5.25662E-001
  2.00000E-004	  4.13374E-001	  1.87407E-001	  6.06012E-001	  4.38976E-001
  2.25000E-004	  1.03173E+000	  7.40446E-001	  2.34093E-001	  4.21639E-001
  2.50000E-004	  8.19719E-001	  4.47661E-001	  6.56728E-001	  3.86965E-001
  2.75000E-004	  6.43048E-001	  3.50066E-001	  4.53863E-001	  4.56313E-001
  3.00000E-004	  5.01710E-001	  4.80193E-001	  3.35525E-001	  4.90987E-001
  3.25000E-004	  6.43048E-001	  4.15129E-001	  2.67904E-001	  5.42999E-001
  3.50000E-004	  3.95707E-001	  6.10319E-001	  3.69336E-001	  4.90987E-001
  3.75000E-004	  6.25380E-001	  7.07914E-001	  3.52431E-001	  8.55066E-001
  4.00000E-004	  5.37044E-001	  5.04591E-001	  4.96126E-001	  4.56313E-001
  4.50000E-004	  5.19377E-001	  5.45255E-001	  4.62315E-001	  5.51666E-001
  5.00000E-004	  6.07713E-001	  4.80192E-001	  4.03146E-001	  3.17616E-001
  5.50000E-004	  6.25380E-001	  4.15129E-001	  4.20052E-001	  4.38976E-001
  6.00000E-004	  5.72378E-001	  4.23261E-001	  3.94694E-001	  4.12970E-001
  6.50000E-004	  3.16204E-001	  5.69654E-001	  6.22916E-001	  4.21639E-001
  7.00000E-004	  4.39874E-001	  3.90730E-001	  2.84809E-001	  7.25037E-001
  7.50000E-004	  5.28210E-001	  5.12724E-001	  2.50998E-001	  5.34329E-001
  8.00000E-004	  5.41493E-001	  4.23260E-001	  3.98919E-001	  5.38662E-001
  9.00000E-004	  4.92907E-001	  5.00523E-001	  5.80652E-001	  3.78295E-001
  1.00000E-003	  4.75239E-001	  4.84257E-001	  4.41213E-001	  5.73336E-001
  1.10000E-003	  5.41493E-001	  6.63181E-001	  3.98948E-001	  4.30306E-001
  1.20000E-003	  4.39904E-001	  4.23260E-001	  5.04609E-001	  5.34328E-001
  1.30000E-003	  4.17820E-001	  5.00523E-001	  5.00383E-001	  3.34952E-001
  1.40000E-003	  5.54743E-001	  4.63925E-001	  3.60911E-001	  4.12969E-001
  1.50000E-003	  5.54743E-001	  4.88324E-001	  5.04609E-001	  3.52289E-001
  1.60000E-003	  4.70852E-001	  3.64294E-001	  4.32757E-001	  4.43337E-001
  1.80000E-003	  4.55392E-001	  5.06620E-001	  4.60229E-001	  5.01851E-001
  2.00000E-003	  3.89138E-001	  4.90354E-001	  4.20078E-001	  4.30334E-001
  2.20000E-003	  4.13401E-001	  4.92387E-001	  4.20078E-001	  4.12997E-001
  2.40000E-003	  3.38314E-001	  4.29357E-001	  4.26418E-001	  3.67486E-001
  2.60000E-003	  3.71440E-001	  4.37490E-001	  3.56682E-001	  4.58507E-001
  2.80000E-003	  3.95733E-001	  4.63922E-001	  3.90493E-001	  3.45814E-001
  3.00000E-003	  3.95733E-001	  4.43590E-001	  4.05286E-001	  4.06495E-001
  3.20000E-003	  4.05697E-001	  4.45648E-001	  3.90547E-001	  3.93517E-001
  3.60000E-003	  3.49381E-001	  4.43615E-001	  3.89491E-001	  4.08688E-001
  4.00000E-003	  3.88029E-001	  3.87700E-001	  3.68358E-001	  4.42249E-001
  4.40000E-003	  4.55388E-001	  4.91397E-001	  3.12356E-001	  4.08658E-001
  4.80000E-003	  2.51103E-001	  3.84651E-001	  3.60961E-001	  3.36058E-001
  5.20000E-003	  3.50514E-001	  3.40935E-001	  4.75079E-001	  4.53084E-001
  5.60000E-003	  2.84230E-001	  4.19216E-001	  3.46168E-001	  3.97822E-001
  6.00000E-003	  3.31713E-001	  4.77164E-001	  4.52890E-001	  3.81568E-001
  6.40000E-003	  3.21823E-001	  3.79078E-001	  4.02719E-001	  3.82189E-001
  7.20000E-003	  3.62681E-001	  4.09069E-001	  3.76831E-001	  3.38844E-001
  8.00000E-003	  3.82558E-001	  3.71933E-001	  3.53584E-001	  3.47513E-001
  8.80000E-003	  3.89184E-001	  3.85658E-001	  3.21856E-001	  3.74604E-001
  9.60000E-003	  3.48325E-001	  3.29235E-001	  3.57254E-001	  3.75146E-001
  1.04000E-002	  3.22375E-001	  3.66850E-001	  3.13932E-001	  3.42066E-001
  1.12000E-002	  2.82069E-001	  3.75492E-001	  2.85931E-001	  3.26353E-001
  1.20000E-002	  3.41671E-001	  3.20086E-001	  3.03894E-001	  2.99263E-001
  1.28000E-002	  3.01128E-001	  3.33057E-001	  2.80921E-001	  3.04476E-001
  1.44000E-002	  2.61926E-001	  3.02304E-001	  2.76695E-001	  3.33436E-001
  1.60000E-002	  2.80119E-001	  2.88580E-001	  2.56883E-001	  2.86026E-001
  1.76000E-002	  2.71837E-001	  2.71551E-001	  2.53713E-001	  2.41840E-001
  1.92000E-002	  2.50028E-001	  3.27466E-001	  2.46580E-001	  2.52677E-001
  2.08000E-002	  2.23525E-001	  2.54751E-001	  2.19636E-001	  2.40215E-001
  2.24000E-002	  2.38709E-001	  2.45347E-001	  1.96892E-001	  2.59720E-001
  2.40000E-002	  2.11654E-001	  2.24506E-001	  2.08251E-001	  2.12041E-001
  2.56000E-002	  2.23592E-001	  2.18957E-001	  2.03251E-001	  2.06151E-001
  2.88000E-002	  1.86731E-001	  2.08815E-001	  1.59821E-001	  2.06151E-001
  3.20000E-002	  1.55531E-001	  1.72465E-001	  1.53373E-001	  1.77704E-001
  3.52000E-002	  1.62571E-001	  1.67890E-001	  1.56807E-001	  1.53050E-001
  3.84000E-002	  1.37470E-001	  1.66238E-001	  1.56543E-001	  1.61067E-001
  4.16000E-002	  1.46419E-001	  1.29888E-001	  1.26560E-001	  1.42078E-001
  4.48000E-002	  1.39792E-001	  1.33192E-001	  1.01463E-001	  1.22818E-001
  4.80000E-002	  8.81591E-002	  1.04954E-001	  1.32107E-001	  1.10492E-001
  5.12000E-002	  8.76687E-002	  9.72018E-002	  9.90104E-002	  1.01521E-001
  5.76000E-002	  7.16054E-002	  9.60758E-002	  7.63565E-002	  9.27833E-002
  6.40000E-002	  6.53225E-002	  9.79776E-002	  7.00594E-002	  4.79422E-002
  7.04000E-002	  6.16174E-002	  7.90580E-002	  5.71807E-002	  4.53005E-002
  7.68000E-002	  2.97902E-002	  6.01205E-002	  5.50672E-002	  5.30224E-002
  8.32000E-002	  4.70501E-002	  6.27895E-002	  5.05324E-002	  4.28620E-002
  8.96000E-002	  4.03983E-002	  5.30884E-002	  3.89743E-002	  2.24735E-002
  9.60000E-002	  3.83045E-002	  5.30884E-002	  3.86660E-002	  1.67401E-002
  1.02400E-001	  2.33491E-002	  5.54710E-002	  3.45130E-002	  1.31437E-002
  1.15200E-001	  2.12871E-002	  3.31622E-002	  2.59378E-002	  1.02091E-002
  1.28000E-001	  1.14810E-002	  2.72196E-002	  6.60675E-003	  6.86829E-003
  1.40800E-001	  1.72127E-002	  1.01334E-002	  2.93716E-002	 -4.93807E-004
  1.53600E-001	  1.57971E-002	  2.11604E-002	  1.06009E-002	 -3.96991E-003
  1.66400E-001	  1.58414E-003	  1.33331E-002	  9.10302E-003	  4.83613E-003
  1.79200E-001	 -6.22313E-003	  3.09169E-003	  8.70669E-003	  3.08729E-003
  1.92000E-001	  7.82819E-003	  9.12867E-003	  3.92972E-004	 -3.67311E-004
  2.04800E-001	  7.64314E-003	 -2.81125E-004	  1.04704E-002	  8.00722E-004
  2.30400E-001	  4.93271E-003	 -7.62721E-004	  1.25353E-002	  1.63518E-003
  2.56000E-001	  1.71719E-003	 -3.90912E-003	  1.26442E-002	 -2.26491E-003
  2.81600E-001	  2.54141E-003	 -5.35385E-004	  7.73795E-003	  6.77646E-004
  3.07200E-001	 -1.86176E-004	  4.99381E-003	  2.95674E-003	  1.95576E-003
  3.32800E-001	 -2.12399E-003	  6.01092E-003	  2.36912E-003	  1.04549E-002
  3.58400E-001	 -3.43596E-003	  9.81998E-003	 -3.18418E-003	  1.07624E-003
  3.84000E-001	  5.68682E-004	 -1.09151E-002	  3.61049E-003	  9.82072E-003
  4.09600E-001	 -2.67761E-003	  6.69956E-004	 -1.72114E-003	 -8.77491E-004
  4.60800E-001	 -6.30830E-003	  8.67621E-003	 -1.97734E-003	  1.09242E-003
  5.12000E-001	 -6.91692E-003	  5.26416E-003	  5.03659E-003	 -3.29509E-003
  5.63200E-001	 -6.23072E-003	 -1.64478E-003	 -2.25840E-004	 -2.80772E-003
  6.14400E-001	 -4.46076E-003	  7.34765E-004	  7.01026E-003	 -2.98647E-003
  6.65600E-001	 -1.57215E-003	  2.12074E-003	  9.63946E-003	 -5.87039E-003
  7.16800E-001	  5.26371E-004	 -1.79579E-003	  3.72972E-003	 -2.60035E-003
  7.68000E-001	  2.88665E-004	 -1.48756E-003	  1.10198E-003	 -5.89962E-003
  8.19200E-001	  2.57332E-003	 -4.15391E-003	 -2.05923E-003	 -4.00093E-003
  9.21600E-001	  3.32057E-003	 -6.73113E-004	  7.02111E-003	 -2.77126E-003
  1.02400E+000	  2.59492E-003	  1.53700E-003	  8.24842E-003	  3.40148E-003
  1.12640E+000	  6.74786E-005	  6.21245E-003	 -1.28292E-003	  2.04327E-003
  1.22880E+000	  1.22494E-003	  1.23976E-003	 -1.60452E-004	  2.28562E-003
  1.33120E+000	 -3.68966E-004	  9.94440E-004	  4.51398E-003	 -4.60050E-003
  1.43360E+000	 -2.43626E-004	 -1.28532E-003	  1.52851E-003	  4.39069E-004
  1.53600E+000	 -2.33443E-003	 -1.22304E-003	 -3.21877E-003	 -8.01459E-003
  1.63840E+000	  1.03494E-003	 -4.48158E-003	 -1.44747E-004	 -3.07894E-003
  1.84320E+000	 -3.01580E-003	 -4.43439E-003	 -2.79526E-003	  1.54934E-003
  2.04800E+000	  3.28478E-003	  5.16054E-003	  5.89006E-004	  4.55134E-004
  2.25280E+000	 -1.04573E-003	  1.62694E-003	 -3.93327E-003	  2.53181E-003
  2.45760E+000	 -2.56821E-003	 -1.13830E-003	 -6.60806E-004	  1.92881E-003
  2.66240E+000	  2.02307E-003	  6.19725E-004	  4.68721E-004	 -2.82420E-004
  2.86720E+000	 -6.76962E-003	  1.04879E-004	  5.93637E-003	 -2.80222E-003
  3.07200E+000	 -3.94971E-004	 -2.94454E-003	  5.96199E-003	  1.74179E-003
  3.27680E+000	 -2.69350E-003	 -8.66883E-004	  7.47106E-004	 -6.74273E-003
  3.68640E+000	  5.03021E-003	  2.78511E-003	  4.15407E-003	 -4.29800E-003
  4.09600E+000	  3.07885E-003	  4.26969E-003	  5.51321E-004	 -6.01274E-004
  4.50560E+000	  1.23775E-004	  1.19571E-003	 -3.42775E-003	  2.33187E-003
  4.91520E+000	  1.78764E-004	 -1.07383E-003	 -5.86911E-003	 -8.96320E-004
  5.32480E+000	  4.39675E-003	 -1.89517E-003	 -1.69776E-003	 -6.02951E-004
  5.73440E+000	  2.28684E-003	 -2.22990E-004	 -4.39719E-003	  1.09803E-003
  6.14400E+000	 -1.01864E-003	  3.76351E-003	  3.11848E-003	 -4.01622E-003
  6.55360E+000	 -2.86177E-004	  2.15751E-003	  1.52310E-003	 -1.77722E-003
  7.37280E+000	  2.30662E-003	 -1.38451E-003	  1.46566E-003	 -2.06975E-003
  8.19200E+000	  8.43000E-004	  1.35805E-003	  1.41493E-003	  2.61960E-003
  9.01120E+000	  2.21816E-003	 -2.33814E-003	  7.66299E-004	  3.59394E-003
  9.83040E+000	 -4.96013E-004	  3.23297E-003	  2.14562E-004	 -3.25703E-003
  1.06496E+001	 -2.25815E-003	 -2.55235E-003	 -1.79459E-003	  2.81593E-003
  1.14688E+001	  1.43019E-003	  2.40225E-003	 -8.08149E-004	  7.83883E-004
  1.22880E+001	 -2.48347E-003	  1.90581E-003	 -3.00679E-003	  2.81076E-003
  1.31072E+001	 -1.41952E-003	  6.66627E-004	 -7.16892E-004	  2.47482E-003
  1.47456E+001	  1.10319E-003	  2.13719E-003	  2.46796E-003	 -1.30135E-004
  1.63840E+001	 -5.46444E-004	  2.64689E-003	  1.18094E-003	  7.28369E-004
  1.80224E+001	 -1.04909E-003	  3.75300E-004	 -1.34578E-003	 -5.03814E-004
  1.96608E+001	  5.61308E-004	  2.24575E-003	 -6.26096E-004	 -1.81052E-003
  2.12992E+001	 -7.85663E-004	  7.33977E-004	  1.33234E-004	  9.44754E-004
  2.29376E+001	 -1.16639E-003	  8.13398E-004	 -7.44118E-004	 -4.05744E-004
  2.45760E+001	 -1.77461E-003	  1.38078E-003	  2.09143E-005	 -3.07555E-004
  2.62144E+001	 -1.86428E-003	  8.07631E-004	 -8.67766E-004	  4.07880E-004
  2.94912E+001	 -2.43197E-004	 -5.58917E-004	 -5.15463E-004	 -1.19009E-003
  3.27680E+001	 -1.23702E-004	 -3.89606E-004	  6.29072E-004	  9.66995E-005
  3.60448E+001	 -4.31852E-004	 -1.45363E-003	 -9.48931E-004	  1.07933E-003
  3.93216E+001	 -2.11642E-003	  4.23450E-004	  4.26913E-004	 -4.29622E-004
  4.25984E+001	  1.11694E-003	 -2.27800E-003	 -2.06593E-003	  2.00863E-004
  4.58752E+001	 -4.88664E-004	 -4.05525E-005	 -2.63138E-004	  9.06949E-004
  4.91520E+001	 -1.16779E-003	 -2.02483E-003	 -1.23955E-003	  1.77598E-003
  5.24288E+001	 -2.33037E-004	 -1.39586E-003	  2.62931E-004	 -1.96513E-004
  5.89824E+001	  2.77974E-004	 -4.79096E-004	 -2.22552E-004	  3.17485E-004
  6.55360E+001	 -3.90872E-004	 -1.41029E-003	  2.62983E-004	 -4.25780E-004
  7.20896E+001	  2.75458E-005	 -6.50295E-004	  6.11030E-004	 -5.03836E-004
  7.86432E+001	 -1.38944E-004	 -5.89218E-004	 -1.27146E-004	  8.67774E-004
  8.51968E+001	 -8.45143E-004	 -4.67333E-004	 -1.55933E-004	 -3.23831E-004
  9.17504E+001	  4.17446E-004	 -1.41881E-003	 -6.51456E-004	  3.79644E-004
  9.83040E+001	 -4.86095E-004	  7.32350E-005	  5.39226E-004	 -2.30182E-004
  1.04858E+002	  1.09010E-003	  8.67402E-004	  2.48320E-004	 -1.87040E-004
  1.17965E+002	  1.38533E-004	  1.37636E-003	 -5.14369E-004	 -7.42976E-004
  1.31072E+002	 -6.06087E-004	  9.56490E-004	 -1.07908E-004	  3.89754E-005
  1.44179E+002	 -7.63945E-004	  7.66945E-005	  9.83087E-005	  3.10824E-004
  1.57286E+002	 -2.17541E-004	  1.50620E-004	  2.79588E-004	 -7.61598E-004
  1.70394E+002	  5.22483E-004	  2.80427E-005	  1.50796E-004	 -4.07224E-004
  1.83501E+002	 -1.06761E-004	 -5.49740E-004	 -5.59794E-004	  2.58183E-004
  1.96608E+002	 -1.94324E-004	 -5.42927E-004	 -3.77254E-004	  2.87023E-004
  2.09715E+002	 -4.34516E-004	  1.90649E-004	 -1.29907E-005	 -4.10866E-004
  2.35930E+002	  5.47264E-004	 -2.48820E-004	 -5.57888E-004	 -1.42235E-004
  2.62144E+002	 -1.53272E-005	 -8.39576E-005	  3.83166E-004	  5.26031E-005
  2.88358E+002	  9.98594E-005	  3.55935E-004	  4.60449E-004	 -7.33394E-006
  3.14573E+002	  2.01355E-005	 -1.39577E-004	  2.70055E-004	  5.53349E-004
  3.40787E+002	  1.96387E-004	 -9.31528E-005	 -8.36244E-004	 -4.86339E-005
  3.67002E+002	  5.31406E-004	 -8.23331E-004	 -1.88616E-005	  3.28523E-004
  3.93216E+002	 -1.19366E-003	  1.13297E-003	  5.08356E-004	  7.16081E-005

"Count Rate"
       0.01311	      49.89624	      51.57471	      51.11694	      41.80908
       0.02621	      53.10059	      45.31860	      44.47937	      48.90442
       0.03932	      49.66736	      52.26135	      48.67554	      46.92078
       0.05243	      50.88806	      50.12512	      48.14148	      42.19055
       0.06554	      41.42761	      49.66736	      48.67554	      47.07336
       0.07864	      46.08154	      46.38672	      55.92346	      43.71643
       0.09175	      45.62378	      44.17419	      54.55017	      49.05701
       0.10486	      52.71912	      44.63196	      52.49023	      49.89624
       0.11796	      43.71643	      53.40576	      52.26135	      46.00525
       0.13107	      44.70825	      50.96436	      49.05701	      47.53113
       0.14418	      48.67554	      47.98889	      48.98071	      53.63464
       0.15729	      49.43848	      49.36218	      48.98071	      53.32947
       0.17039	      45.92896	      52.71912	      50.50659	      49.36218
       0.18350	      47.60742	      55.61829	      50.81177	      48.67554
       0.19661	      52.49023	      58.05969	      42.57202	      50.73547
       0.20972	      43.41125	      53.48206	      49.43848	      49.20959
       0.22282	      51.95618	      51.87988	      49.28589	      49.97253
       0.23593	      48.82813	      46.15784	      49.74365	      51.72729
       0.24904	      43.02979	      47.76001	      53.17688	      45.62378
       0.26214	      54.70276	      47.07336	      52.49023	      46.15784
       0.27525	      46.69189	      49.66736	      42.34314	      50.58289
       0.28836	      46.92078	      50.58289	      47.76001	      51.26953
       0.30147	      53.40576	      54.16870	      46.15784	      48.82813
       0.31457	      50.43030	      56.76270	      51.04065	      49.74365
       0.32768	      47.14966	      52.79541	      47.91260	      49.89624
       0.34079	      47.37854	      49.66736	      51.49841	      46.53931
       0.35389	      44.55566	      53.78723	      45.24231	      44.47937
       0.36700	      53.10059	      46.00525	      45.24231	      52.94800
       0.38011	      43.64014	      47.98889	      45.70007	      45.62378
       0.39322	      49.13330	      49.36218	      49.89624	      46.99707
       0.40632	      46.15784	      50.27771	      52.49023	      49.74365
       0.41943	      50.88806	      56.61011	      48.44666	      52.03247
       0.43254	      47.14966	      54.01611	      46.84448	      46.08154
       0.44564	      47.30225	      47.37854	      47.53113	      49.28589
       0.45875	      48.37036	      46.23413	      51.11694	      50.50659
       0.47186	      46.76819	      53.40576	      44.55566	      53.63464
       0.48497	      46.69189	      46.46301	      50.65918	      47.83630
       0.49807	      48.75183	      46.92078	      48.37036	      46.15784
       0.51118	      51.72729	      50.27771	      51.87988	      51.11694
       0.52429	      48.06519	      47.53113	      54.47388	      52.71912
       0.53740	      49.89624	      53.17688	      53.17688	      48.75183
       0.55050	      52.33765	      52.87170	      47.07336	      50.65918
       0.56361	      49.97253	      47.14966	      50.96436	      48.21777
       0.57672	      48.29407	      52.18506	      48.52295	      47.07336
       0.58982	      49.59106	      56.15234	      52.33765	      48.75183
       0.60293	      48.06519	      54.32129	      45.24231	      50.43030
       0.61604	      42.19055	      53.93982	      49.97253	      52.71912
       0.62915	      42.95349	      50.96436	      54.01611	      46.76819
       0.64225	      44.78455	      51.26953	      47.30225	      47.37854
       0.65536	      52.03247	      45.31860	      49.36218	      48.59924
       0.66847	      50.35400	      45.39490	      51.04065	      47.45483
       0.68157	      51.80359	      51.80359	      45.47119	      44.78455
       0.69468	      42.72461	      49.97253	      49.51477	      47.91260
       0.70779	      46.00525	      51.04065	      47.68372	      46.76819
       0.72090	      49.13330	      53.63464	      51.11694	      49.20959
       0.73400	      44.40308	      47.83630	      50.12512	      48.14148
       0.74711	      46.53931	      54.85535	      46.15784	      44.17419
