ALV-7004/USB-FAST
Date :	"11/11/2025"
Time :	"3:52:45 PM"
Samplename : 	""
SampMemo(0) : 	""
SampMemo(1) : 	""
SampMemo(2) : 	""
SampMemo(3) : 	""
SampMemo(4) : 	""
SampMemo(5) : 	""
SampMemo(6) : 	""
SampMemo(7) : 	""
SampMemo(8) : 	""
SampMemo(9) : 	""
Temperature [K] :	     298.16000
Viscosity [cp]  :	       0.89000
Refractive Index:	       1.33200
Wavelength [nm] :	       0.00000
Angle [°]       :	       0.00000
Duration [s]    :	         1
FloatDur [ms]   :	          944
Stop TP [ms]   :	     58014
Runs            :	         1
Mode            :	"A-CH0+1  A-CH2+3 "
MeanCR0 [kHz]   :	      59.36411
MeanCR1 [kHz]   :	      60.95780
MeanCR2 [kHz]   :	      61.15489
MeanCR3 [kHz]   :	      59.01337

"Correlation"
  3.12500E-006	 -1.00000E+000	 -1.00000E+000	 -1.00000E+000	 -1.00000E+000
  6.25000E-006	 -1.00000E+000	 -1.00000E+000	 -1.00000E+000	 -1.00000E+000
  9.37500E-006	 -1.00000E+000	 -1.00000E+000	 -1.00000E+000	 -1.00000E+000
  1.25000E-005	 -1.00000E+000	 -1.00000E+000	 -1.00000E+000	 -1.00000E+000
  1.56250E-005	 -1.00000E+000	 -1.00000E+000	 -1.00000E+000	 -1.00000E+000
  1.87500E-005	 -1.00000E+000	 -1.00000E+000	 -1.00000E+000	 -1.00000E+000
  2.18750E-005	 -9.03781E-001	  7.33844E-001	  2.69326E-001	 -8.05268E-001
  2.50000E-005	  1.22782E+001	  1.21407E+001	  1.10586E+001	  2.65545E+001
  2.81250E-005	  3.23362E+000	  1.92016E+000	  2.08265E+000	  7.66556E+000
  3.12500E-005	  9.24375E-001	  1.19012E+000	  1.62932E+000	  5.71825E+000
  3.43750E-005	  2.46387E+000	  1.19012E+000	  3.59992E-001	  4.16039E+000
  3.75000E-005	  9.24375E-001	  9.16354E-001	  1.44799E+000	  2.79727E+000
  4.06250E-005	  1.21303E+000	  8.25099E-001	  9.03989E-001	  4.35512E+000
  4.37500E-005	  9.24375E-001	  9.16354E-001	  1.17599E+000	  2.31044E+000
  4.68750E-005	  8.28156E-001	  1.46388E+000	  2.69326E-001	  2.50517E+000
  5.00000E-005	  1.21303E+000	  8.70727E-001	  5.86657E-001	  1.92098E+000
  5.62500E-005	  8.28156E-001	  8.70727E-001	  7.67989E-001	  2.21307E+000
  6.25000E-005	  5.87609E-001	  5.96962E-001	  9.94655E-001	  1.67756E+000
  6.87500E-005	  6.35718E-001	  4.60079E-001	  2.23993E-001	  1.53151E+000
  7.50000E-005	  1.02059E+000	  6.42589E-001	  5.41324E-001	  1.19073E+000
  8.12500E-005	  2.50844E-001	  5.51334E-001	  3.14659E-001	  9.47317E-001
  8.75000E-005	  6.83828E-001	  3.68824E-001	  1.26665E+000	  8.49951E-001
  9.37500E-005	  3.47062E-001	  6.42589E-001	  6.77323E-001	  1.23941E+000
  1.00000E-004	  2.98953E-001	  7.56658E-001	  8.58655E-001	  8.25610E-001
  1.12500E-004	  4.43281E-001	  2.54755E-001	  7.45323E-001	  9.22976E-001
  1.25000E-004	  6.59773E-001	  9.50593E-002	  6.54657E-001	  5.82195E-001
  1.37500E-004	  5.15445E-001	  3.46010E-001	  5.86657E-001	  5.82195E-001
  1.50000E-004	  5.15445E-001	  7.33844E-001	  6.77323E-001	  8.01268E-001
  1.62500E-004	  8.04101E-001	  5.51334E-001	  9.03988E-001	  3.14439E-001
  1.75000E-004	  5.63554E-001	  1.40687E-001	  6.99990E-001	  7.52585E-001
  1.87500E-004	  3.47062E-001	  6.42589E-001	  9.49322E-001	  5.09171E-001
  2.00000E-004	  6.71800E-001	  5.85554E-001	  8.81321E-001	  6.06536E-001
  2.25000E-004	  7.07882E-001	  1.97721E-001	  4.73324E-001	  5.82195E-001
  2.50000E-004	  6.47745E-001	  4.60079E-001	  5.41324E-001	  5.21341E-001
  2.75000E-004	  4.79363E-001	  4.25858E-001	  4.27991E-001	  7.40414E-001
  3.00000E-004	  3.59089E-001	  6.65402E-001	  5.18657E-001	  4.11805E-001
  3.25000E-004	  6.59773E-001	  6.08368E-001	  5.52657E-001	  5.33512E-001
  3.50000E-004	  5.51527E-001	  4.94299E-001	  6.09323E-001	  4.97000E-001
  3.75000E-004	  3.35034E-001	  4.71486E-001	  5.86657E-001	  5.70024E-001
  4.00000E-004	  5.27471E-001	  4.77188E-001	  5.18656E-001	  3.87463E-001
  4.50000E-004	  6.23690E-001	  4.94299E-001	  3.76991E-001	  4.17889E-001
  5.00000E-004	  6.23690E-001	  6.59698E-001	  5.29990E-001	  4.11804E-001
  5.50000E-004	  3.65102E-001	  2.71865E-001	  5.18656E-001	  6.61304E-001
  6.00000E-004	  4.31253E-001	  4.08747E-001	  5.63990E-001	  5.21340E-001
  6.50000E-004	  5.45512E-001	  4.14451E-001	  5.18656E-001	  5.88279E-001
  7.00000E-004	  4.85376E-001	  4.82892E-001	  6.82989E-001	  6.12621E-001
  7.50000E-004	  5.27471E-001	  5.96960E-001	  5.07323E-001	  4.30060E-001
  8.00000E-004	  4.46286E-001	  4.23005E-001	  4.84655E-001	  4.57443E-001
  9.00000E-004	  4.91388E-001	  3.48860E-001	  3.96823E-001	  5.36553E-001
  1.00000E-003	  5.18449E-001	  5.45628E-001	  6.60321E-001	  5.60894E-001
  1.10000E-003	  4.31251E-001	  4.62929E-001	  4.59156E-001	  4.72656E-001
  1.20000E-003	  4.49292E-001	  4.42967E-001	  4.64822E-001	  3.93547E-001
  1.30000E-003	  5.03415E-001	  5.71294E-001	  4.95989E-001	  5.03083E-001
  1.40000E-003	  4.25238E-001	  6.39735E-001	  5.75321E-001	  5.12211E-001
  1.50000E-003	  6.02641E-001	  4.45818E-001	  3.99656E-001	  5.54809E-001
  1.60000E-003	  4.91385E-001	  4.52945E-001	  4.32237E-001	  4.63526E-001
  1.80000E-003	  4.73345E-001	  4.38687E-001	  4.52070E-001	  4.19407E-001
  2.00000E-003	  4.05691E-001	  4.17299E-001	  4.20904E-001	  4.92431E-001
  2.20000E-003	  4.97399E-001	  4.30132E-001	  5.31402E-001	  4.65047E-001
  2.40000E-003	  4.76351E-001	  5.08554E-001	  4.27987E-001	  3.57032E-001
  2.60000E-003	  4.68834E-001	  4.44390E-001	  4.15237E-001	  4.86346E-001
  2.80000E-003	  4.25235E-001	  5.05702E-001	  3.71321E-001	  3.25084E-001
  3.00000E-003	  4.13208E-001	  4.98573E-001	  3.38738E-001	  4.81808E-001
  3.20000E-003	  4.62816E-001	  4.37256E-001	  3.93982E-001	  5.21386E-001
  3.60000E-003	  4.16962E-001	  4.59357E-001	  4.42148E-001	  4.00436E-001
  4.00000E-003	  4.32748E-001	  4.20146E-001	  4.29399E-001	  4.49881E-001
  4.40000E-003	  3.69604E-001	  4.29414E-001	  4.75440E-001	  3.76854E-001
  4.80000E-003	  3.47805E-001	  3.75232E-001	  4.38607E-001	  4.50668E-001
  5.20000E-003	  3.74115E-001	  4.30127E-001	  3.92566E-001	  3.49494E-001
  5.60000E-003	  4.59057E-001	  4.01610E-001	  4.60565E-001	  3.73100E-001
  6.00000E-003	  4.13203E-001	  3.58834E-001	  3.81941E-001	  4.01247E-001
  6.40000E-003	  3.96280E-001	  4.09467E-001	  3.75202E-001	  4.27914E-001
  7.20000E-003	  4.29355E-001	  3.93426E-001	  3.90077E-001	  4.15767E-001
  8.00000E-003	  3.98911E-001	  3.70256E-001	  4.24785E-001	  4.07779E-001
  8.80000E-003	  4.15073E-001	  3.57779E-001	  3.66726E-001	  3.92564E-001
  9.60000E-003	  4.19583E-001	  3.49937E-001	  3.81247E-001	  4.16148E-001
  1.04000E-002	  4.19207E-001	  3.27123E-001	  3.73810E-001	  4.08160E-001
  1.12000E-002	  3.60199E-001	  3.68473E-001	  3.85497E-001	  4.08540E-001
  1.20000E-002	  3.52682E-001	  4.07328E-001	  4.04268E-001	  3.39311E-001
  1.28000E-002	  3.90085E-001	  3.83855E-001	  3.77687E-001	  3.37629E-001
  1.44000E-002	  3.93280E-001	  3.28600E-001	  3.68656E-001	  3.49778E-001
  1.60000E-002	  3.82944E-001	  3.36799E-001	  3.53958E-001	  3.82871E-001
  1.76000E-002	  3.26754E-001	  3.07545E-001	  3.04375E-001	  3.50538E-001
  1.92000E-002	  3.50245E-001	  3.45153E-001	  3.32000E-001	  3.49397E-001
  2.08000E-002	  3.68310E-001	  2.99703E-001	  3.31823E-001	  3.56434E-001
  2.24000E-002	  3.33167E-001	  3.25725E-001	  3.30052E-001	  3.42716E-001
  2.40000E-002	  3.19448E-001	  3.16635E-001	  3.17479E-001	  3.20084E-001
  2.56000E-002	  3.14738E-001	  3.05953E-001	  3.11977E-001	  3.16244E-001
  2.88000E-002	  3.11637E-001	  2.96327E-001	  2.84021E-001	  3.29297E-001
  3.20000E-002	  2.79784E-001	  2.87036E-001	  2.78443E-001	  3.10657E-001
  3.52000E-002	  2.64163E-001	  2.54684E-001	  2.67818E-001	  2.82888E-001
  3.84000E-002	  2.51854E-001	  2.58494E-001	  2.52058E-001	  2.65553E-001
  4.16000E-002	  2.24229E-001	  2.43789E-001	  2.40636E-001	  2.51002E-001
  4.48000E-002	  2.40015E-001	  2.18012E-001	  2.40813E-001	  2.64412E-001
  4.80000E-002	  2.27612E-001	  2.23936E-001	  2.32069E-001	  2.33861E-001
  5.12000E-002	  2.30289E-001	  2.09779E-001	  2.17585E-001	  2.38993E-001
  5.76000E-002	  2.04825E-001	  1.88789E-001	  2.24028E-001	  2.23513E-001
  6.40000E-002	  1.76543E-001	  1.85556E-001	  2.00120E-001	  1.90225E-001
  7.04000E-002	  1.80087E-001	  1.71295E-001	  1.79754E-001	  1.76028E-001
  7.68000E-002	  1.62234E-001	  1.47080E-001	  1.52035E-001	  1.78955E-001
  8.32000E-002	  1.58711E-001	  1.47015E-001	  1.53979E-001	  1.51088E-001
  8.96000E-002	  1.48072E-001	  1.43965E-001	  1.34207E-001	  1.47780E-001
  9.60000E-002	  1.46428E-001	  1.24472E-001	  1.30064E-001	  1.21856E-001
  1.02400E-001	  1.33024E-001	  1.12208E-001	  1.22757E-001	  1.35014E-001
  1.15200E-001	  9.81145E-002	  1.08398E-001	  1.01972E-001	  1.06102E-001
  1.28000E-001	  7.84944E-002	  7.28730E-002	  9.17427E-002	  9.15364E-002
  1.40800E-001	  7.69439E-002	  6.62805E-002	  7.32365E-002	  8.07982E-002
  1.53600E-001	  6.56675E-002	  6.52108E-002	  7.18566E-002	  6.97396E-002
  1.66400E-001	  6.74866E-002	  4.92513E-002	  6.92919E-002	  6.20295E-002
  1.79200E-001	  5.38837E-002	  4.54488E-002	  5.71289E-002	  5.36197E-002
  1.92000E-001	  5.52040E-002	  4.02428E-002	  3.87044E-002	  4.62418E-002
  2.04800E-001	  4.79150E-002	  2.82331E-002	  3.91063E-002	  4.54222E-002
  2.30400E-001	  3.15010E-002	  2.20726E-002	  2.69028E-002	  3.63895E-002
  2.56000E-001	  3.11435E-002	  2.44619E-002	  1.75507E-002	  2.32323E-002
  2.81600E-001	  2.40777E-002	  1.59013E-002	  1.11980E-002	  1.88868E-002
  3.07200E-001	  1.72380E-002	  1.55716E-002	  1.47310E-002	  1.95897E-002
  3.32800E-001	  1.61807E-002	  6.75705E-003	  7.87832E-003	  1.81977E-002
  3.58400E-001	  1.19571E-002	  9.93770E-003	  1.67316E-002	  1.53368E-002
  3.84000E-001	  1.32791E-002	  9.20697E-003	  1.57681E-002	  1.26312E-002
  4.09600E-001	  6.35310E-003	  8.93572E-003	  1.06809E-002	  6.11527E-003
  4.60800E-001	  2.43939E-003	  1.49233E-002	  7.38001E-003	  2.27685E-003
  5.12000E-001	 -1.37423E-003	  1.58246E-002	  6.63380E-003	  4.31253E-003
  5.63200E-001	  3.52565E-003	  9.22670E-003	  6.87334E-003	  5.93191E-003
  6.14400E-001	  8.73568E-003	  8.22225E-003	  2.94826E-004	  5.12740E-003
  6.65600E-001	  4.17619E-003	  1.20612E-002	  4.48887E-003	  3.64467E-003
  7.16800E-001	  1.70826E-003	  1.11554E-002	 -1.73394E-003	  1.33533E-002
  7.68000E-001	  4.26862E-003	  1.51872E-002	  9.33670E-004	  7.52132E-003
  8.19200E-001	  6.59416E-003	  1.54370E-002	  5.42777E-004	  2.86093E-003
  9.21600E-001	  5.33824E-003	  4.53478E-003	  8.46097E-005	  1.37424E-003
  1.02400E+000	  5.67461E-004	  1.92260E-003	  8.30664E-003	  1.24052E-004
  1.12640E+000	  3.29841E-003	  7.56174E-003	 -1.54413E-003	 -2.75583E-003
  1.22880E+000	  8.57078E-004	 -3.89556E-004	 -4.71278E-003	  1.77031E-003
  1.33120E+000	 -4.00611E-003	 -2.94685E-003	 -1.38548E-004	  8.34979E-003
  1.43360E+000	 -6.95453E-003	 -5.38482E-003	 -7.50723E-003	  1.25870E-002
  1.53600E+000	 -5.31726E-003	  5.18999E-003	 -2.77017E-004	  9.73503E-003
  1.63840E+000	 -5.15975E-003	  8.79897E-003	 -2.67732E-003	  9.49611E-003
  1.84320E+000	  8.11245E-004	  4.65352E-003	  4.44580E-003	  1.50973E-002
  2.04800E+000	  1.12555E-002	  2.39005E-003	  3.25229E-003	  1.08707E-002
  2.25280E+000	  1.03005E-002	  6.40665E-003	 -1.60018E-004	  1.10806E-002
  2.45760E+000	 -2.00359E-003	  3.47039E-003	 -9.16263E-003	  1.55268E-003
  2.66240E+000	 -5.36511E-003	  1.97309E-003	 -7.70185E-003	 -1.45356E-003
  2.86720E+000	  1.03479E-003	  3.56485E-003	 -2.16705E-003	 -1.04038E-002
  3.07200E+000	 -2.05728E-003	  1.06991E-003	 -9.47517E-003	 -9.04688E-003
  3.27680E+000	 -1.90260E-004	 -1.23992E-003	 -2.45079E-003	  9.89686E-004
  3.68640E+000	 -1.06675E-003	  1.07077E-003	 -4.32211E-003	  2.87420E-003
  4.09600E+000	  3.80368E-003	  2.63645E-003	  1.41554E-003	  1.18254E-003
  4.50560E+000	 -2.35989E-006	 -6.38042E-003	  1.72509E-003	  3.71178E-003
  4.91520E+000	 -4.18962E-004	  2.41552E-004	  9.92226E-003	 -2.33400E-003
  5.32480E+000	  9.13188E-004	 -2.46637E-004	  2.30420E-003	  3.06315E-003
  5.73440E+000	  3.74089E-004	  2.01975E-003	  6.20312E-003	  6.36692E-003
  6.14400E+000	  4.93940E-003	 -1.17387E-004	  9.64514E-003	  2.70318E-003
  6.55360E+000	  2.69715E-004	  4.05665E-003	  1.31802E-003	  1.67962E-003
  7.37280E+000	 -3.85717E-004	 -4.83677E-004	 -2.51155E-003	  4.84061E-003
  8.19200E+000	  2.81962E-003	 -3.39803E-003	 -1.92021E-003	 -1.58870E-003
  9.01120E+000	 -1.76502E-003	 -1.00333E-003	 -4.17064E-004	  1.58935E-003
  9.83040E+000	  3.07708E-004	 -3.48898E-004	 -3.72666E-003	 -1.48462E-003
  1.06496E+001	 -1.56558E-003	 -5.57940E-004	 -2.18615E-003	  4.04392E-004
  1.14688E+001	 -1.20147E-003	 -8.92018E-004	 -6.93666E-003	 -5.94080E-004
  1.22880E+001	  2.94787E-003	 -1.23422E-003	  1.29655E-003	 -6.97193E-003
  1.31072E+001	 -1.69962E-003	 -6.54197E-004	 -8.61524E-004	 -1.64260E-003
  1.47456E+001	 -6.52596E-004	  1.10719E-003	  2.82476E-003	 -3.89464E-003
  1.63840E+001	 -2.42390E-003	 -2.60861E-003	  4.55457E-004	  1.41157E-003
  1.80224E+001	 -1.33064E-003	  2.22142E-003	 -3.38634E-003	  5.44058E-003
  1.96608E+001	 -2.55053E-004	  1.22282E-003	  2.70586E-003	 -2.10739E-003
  2.12992E+001	  3.26417E-003	 -4.38859E-003	  8.46912E-004	 -2.39229E-003
  2.29376E+001	 -9.13340E-004	 -2.90686E-003	 -1.50033E-003	  2.29497E-003
  2.45760E+001	 -3.17362E-003	 -3.91309E-004	 -3.82105E-003	  4.52895E-003
  2.62144E+001	 -1.02217E-003	  3.41157E-003	  6.31454E-004	  1.06901E-003
  2.94912E+001	  3.72011E-003	  5.13826E-004	 -3.98612E-005	 -3.95956E-003
  3.27680E+001	 -1.57043E-003	 -1.01103E-003	  3.07893E-003	 -8.70242E-004
  3.60448E+001	  1.07532E-003	 -6.49581E-004	  8.51887E-004	 -1.91088E-003
  3.93216E+001	  5.40965E-004	 -4.29141E-003	 -6.10401E-004	 -5.67447E-003
  4.25984E+001	 -5.62805E-004	  1.46637E-003	 -9.52794E-004	  9.84774E-004
  4.58752E+001	  3.07279E-003	  2.74876E-003	 -1.62388E-003	 -7.41178E-004
  4.91520E+001	 -5.07818E-004	 -1.12892E-003	 -6.39547E-004	 -1.14487E-003
  5.24288E+001	  1.35771E-003	  7.57097E-005	 -1.80254E-004	 -2.23731E-003
  5.89824E+001	  1.74855E-003	 -2.07737E-004	  8.92355E-004	 -1.88647E-003
  6.55360E+001	  1.10379E-003	 -2.39352E-005	 -5.15556E-004	 -1.79516E-003
  7.20896E+001	  5.61545E-004	  1.58345E-003	 -1.32805E-003	 -2.71968E-005
  7.86432E+001	  8.24453E-004	 -2.16681E-003	  2.44822E-004	 -2.94962E-003
  8.51968E+001	 -1.75855E-004	 -3.91851E-003	 -1.38288E-003	  2.21203E-004
  9.17504E+001	  5.31479E-004	  1.01644E-003	 -6.06425E-004	  2.67119E-003
  9.83040E+001	  5.73803E-005	  5.92010E-004	 -6.70275E-004	 -1.17313E-004
  1.04858E+002	  1.78680E-003	 -5.18738E-004	 -5.47353E-004	  1.18901E-003
  1.17965E+002	 -2.24376E-003	  1.71841E-004	 -1.83528E-004	 -2.21603E-003
  1.31072E+002	 -4.08833E-004	 -2.47766E-003	  8.77405E-004	  1.13564E-003
  1.44179E+002	  1.15242E-003	  6.24577E-004	 -2.08431E-004	  1.80685E-004
  1.57286E+002	 -6.71822E-004	  7.42409E-004	  4.58173E-005	  1.76715E-004
  1.70394E+002	 -7.09697E-004	 -1.26822E-004	 -2.04985E-004	 -5.22837E-004
  1.83501E+002	  5.44414E-004	  6.00380E-004	 -9.38310E-005	  8.65178E-004
  1.96608E+002	 -5.55746E-004	 -1.40599E-003	  2.46590E-004	  7.51537E-004
  2.09715E+002	 -1.14922E-003	 -5.15501E-004	  5.70306E-004	  2.80012E-004
  2.35930E+002	  1.21348E-004	  2.59245E-003	  1.10607E-003	  5.92341E-004
  2.62144E+002	 -1.45170E-003	 -6.48906E-004	 -1.40372E-003	 -1.72529E-003
  2.88358E+002	  7.39636E-004	  1.16126E-003	  1.30858E-003	  8.23469E-004
  3.14573E+002	 -1.61990E-003	 -7.03658E-004	 -5.11290E-004	 -3.08429E-003
  3.40787E+002	  6.78525E-004	  1.16473E-004	  4.56066E-004	  1.66193E-003
  3.67002E+002	 -1.35535E-003	 -7.60653E-004	 -4.08251E-004	  1.88913E-003
  3.93216E+002	 -1.03593E-004	 -3.30384E-004	 -8.36806E-004	 -1.08159E-004

"Count Rate"
       0.01311	      54.85535	      58.44116	      62.56104	      65.23132
       0.02621	      52.03247	      58.59375	      64.84985	      52.56653
       0.03932	      52.26135	      59.66187	      57.67822	      56.61011
       0.05243	      55.31311	      65.61279	      67.52014	      52.41394
       0.06554	      53.71094	      58.97522	      54.70276	      57.22046
       0.07864	      59.58557	      57.98340	      56.15234	      61.11145
       0.09175	      58.36487	      66.98608	      60.57739	      63.01880
       0.10486	      53.32947	      61.26404	      57.37305	      59.50928
       0.11796	      55.38940	      66.07056	      58.59375	      59.12781
       0.13107	      54.70276	      69.12231	      55.31311	      61.26404
       0.14418	      62.25586	      54.32129	      56.68640	      49.74365
       0.15729	      56.07605	      62.10327	      56.76270	      57.83081
       0.17039	      49.43848	      56.15234	      73.77625	      52.26135
       0.18350	      67.44385	      57.98340	      54.39758	      68.89343
       0.19661	      51.80359	      55.69458	      57.67822	      49.74365
       0.20972	      54.85535	      56.76270	      54.55017	      54.70276
       0.22282	      52.94800	      58.74634	      60.11963	      55.54199
       0.23593	      60.80627	      63.09509	      55.46570	      57.22046
       0.24904	      60.50110	      57.75452	      60.95886	      60.34851
       0.26214	      56.99158	      68.58826	      59.89075	      62.56104
       0.27525	      57.98340	      58.89893	      53.93982	      63.55286
       0.28836	      70.49561	      66.29944	      59.58557	      60.95886
       0.30147	      52.87170	      54.55017	      72.09778	      44.09790
       0.31457	      56.76270	      61.56921	      59.58557	      53.93982
       0.32768	      61.49292	      45.54749	      60.80627	      59.12781
       0.34079	      59.81445	      54.39758	      51.11694	      62.40845
       0.35389	      53.86353	      62.86621	      59.89075	      60.57739
       0.36700	      59.96704	      66.45203	      57.60193	      57.14417
       0.38011	      67.13867	      55.69458	      62.17957	      62.86621
       0.39322	      64.54468	      61.87439	      55.92346	      54.32129
       0.40632	      50.35400	      56.99158	      59.66187	      53.10059
       0.41943	      57.22046	      59.35669	      73.16589	      52.79541
       0.43254	      62.71362	      58.97522	      60.57739	      54.39758
       0.44564	      56.91528	      59.58557	      59.43298	      57.60193
       0.45875	      65.99426	      73.85254	      67.29126	      63.01880
       0.47186	      60.19592	      53.48206	      68.05420	      64.69727
       0.48497	      52.87170	      64.69727	      58.44116	      61.95068
       0.49807	      60.65369	      53.63464	      60.19592	      54.85535
       0.51118	      59.35669	      61.41663	      64.77356	      63.47656
       0.52429	      70.57190	      59.73816	      58.97522	      56.53381
       0.53740	      60.95886	      62.56104	      57.98340	      54.01611
       0.55050	      56.22864	      65.07874	      52.94800	      55.23682
       0.56361	      69.19861	      49.97253	      57.37305	      57.67822
       0.57672	      55.23682	      55.46570	      50.73547	      51.95618
       0.58982	      53.17688	      53.32947	      61.72180	      52.87170
       0.60293	      70.19043	      71.48743	      64.62097	      50.27771
       0.61604	      65.53650	      57.14417	      63.17139	      77.28577
       0.62915	      64.16321	      45.92896	      64.84985	      56.83899
       0.64225	      54.39758	      61.11145	      66.75720	      53.78723
       0.65536	      60.42480	      59.89075	      60.72998	      59.05151
       0.66847	      60.80627	      62.17957	      62.02698	      56.22864
       0.68157	      64.39209	      51.04065	      57.06787	      57.52563
       0.69468	      56.61011	      63.01880	      61.64551	      57.37305
       0.70779	      53.17688	      70.57190	      68.28308	      59.89075
       0.72090	      61.26404	      64.39209	      57.44934	      60.50110
       0.73400	      56.15234	      62.78992	      62.40845	      50.50659
       0.74711	      55.92346	      65.91797	      62.71362	      59.81445
