ALV-7004/USB-FAST
Date :	"11/11/2025"
Time :	"3:55:54 PM"
Samplename : 	""
SampMemo(0) : 	""
SampMemo(1) : 	""
SampMemo(2) : 	""
SampMemo(3) : 	""
SampMemo(4) : 	""
SampMemo(5) : 	""
SampMemo(6) : 	""
SampMemo(7) : 	""
SampMemo(8) : 	""
SampMemo(9) : 	""
Temperature [K] :	     298.16000
Viscosity [cp]  :	       0.89000
Refractive Index:	       1.33200
Wavelength [nm] :	       0.00000
Angle [°]       :	       0.00000
Duration [s]    :	         1
FloatDur [ms]   :	          944
Stop TP [ms]   :	     65207
Runs            :	         1
Mode            :	"A-CH0+1  A-CH2+3 "
MeanCR0 [kHz]   :	      54.16340
MeanCR1 [kHz]   :	      56.61223
MeanCR2 [kHz]   :	      51.62663
MeanCR3 [kHz]   :	      54.72183

"Correlation"
  3.12500E-006	 -1.00000E+000	 -1.00000E+000	 -1.00000E+000	 -1.00000E+000
  6.25000E-006	 -1.00000E+000	 -1.00000E+000	 -1.00000E+000	 -1.00000E+000
  9.37500E-006	 -1.00000E+000	 -1.00000E+000	 -1.00000E+000	 -1.00000E+000
  1.25000E-005	 -1.00000E+000	 -1.00000E+000	 -1.00000E+000	 -1.00000E+000
  1.56250E-005	 -1.00000E+000	 -1.00000E+000	 -1.00000E+000	 -1.00000E+000
  1.87500E-005	 -1.00000E+000	 -1.00000E+000	 -1.00000E+000	 -1.00000E+000
  2.18750E-005	 -1.00000E+000	  6.92805E-001	  1.03554E+000	 -5.47054E-001
  2.50000E-005	  1.32168E+001	  1.05322E+001	  1.32488E+001	  2.90077E+001
  2.81250E-005	  3.50775E+000	  1.43341E+000	  3.32553E+000	  8.96481E+000
  3.12500E-005	  2.23634E+000	  1.85661E+000	  1.41721E+000	  4.09564E+000
  3.43750E-005	  2.00517E+000	  1.85661E+000	  7.81099E-001	  4.88830E+000
  3.75000E-005	  1.77400E+000	  9.04406E-001	  9.08320E-001	  2.85004E+000
  4.06250E-005	  8.49335E-001	  1.64501E+000	  1.16276E+000	  2.17062E+000
  4.37500E-005	  2.71418E-001	  1.75081E+000	  1.28998E+000	  3.41622E+000
  4.68750E-005	  2.35192E+000	  9.04406E-001	  1.16276E+000	  2.28386E+000
  5.00000E-005	  1.13829E+000	  7.98606E-001	  1.28998E+000	  1.88753E+000
  5.62500E-005	  9.07127E-001	  7.98606E-001	  5.26656E-001	  2.00077E+000
  6.25000E-005	  5.60376E-001	  6.39905E-001	  7.17488E-001	  1.71767E+000
  6.87500E-005	  8.49335E-001	  7.98606E-001	  7.17488E-001	  1.37797E+000
  7.50000E-005	  6.18168E-001	  8.51506E-001	  8.13814E-002	  1.09487E+000
  8.12500E-005	  6.18168E-001	  9.04406E-001	  4.63045E-001	  1.54782E+000
  8.75000E-005	  7.91543E-001	  7.98606E-001	  3.35824E-001	  6.98547E-001
  9.37500E-005	  9.64918E-001	  6.39905E-001	  6.53877E-001	  8.11783E-001
  1.00000E-004	  5.89272E-001	  6.92805E-001	  7.17488E-001	  1.06657E+000
  1.12500E-004	  7.04856E-001	  7.19255E-001	  5.90267E-001	  9.81638E-001
  1.25000E-004	  7.62647E-001	  4.81205E-001	  7.49293E-001	  6.41928E-001
  1.37500E-004	  6.75960E-001	  6.39905E-001	  2.72213E-001	  7.26856E-001
  1.50000E-004	  6.47064E-001	  7.45705E-001	  5.90267E-001	  9.53329E-001
  1.62500E-004	  5.60376E-001	  5.60555E-001	  3.99435E-001	  2.73910E-001
  1.75000E-004	  1.05161E+000	  5.60555E-001	  6.85683E-001	  8.40092E-001
  1.87500E-004	  5.60376E-001	  4.28304E-001	  1.06735E+000	  1.06657E+000
  2.00000E-004	  7.19303E-001	  2.69604E-001	  5.26656E-001	  7.41010E-001
  2.25000E-004	  3.58105E-001	  4.15079E-001	  3.51726E-001	  9.81637E-001
  2.50000E-004	  8.63782E-001	  5.34104E-001	  4.94850E-001	  4.43764E-001
  2.75000E-004	  5.02584E-001	  3.48954E-001	  4.47142E-001	  4.01301E-001
  3.00000E-004	  4.59240E-001	  3.09279E-001	  3.99434E-001	  6.27773E-001
  3.25000E-004	  7.91543E-001	  1.90253E-001	  6.22072E-001	  6.56083E-001
  3.50000E-004	  5.31480E-001	  4.54754E-001	  4.63045E-001	  6.70237E-001
  3.75000E-004	  6.75959E-001	  3.35729E-001	  5.90266E-001	  4.01301E-001
  4.00000E-004	  4.66464E-001	  5.14266E-001	  6.37974E-001	  5.14536E-001
  4.50000E-004	  5.53151E-001	  5.20879E-001	  4.15336E-001	  5.71155E-001
  5.00000E-004	  5.67599E-001	  5.53941E-001	  4.78947E-001	  6.70236E-001
  5.50000E-004	  6.03719E-001	  5.80391E-001	  4.86898E-001	  3.72991E-001
  6.00000E-004	  5.96495E-001	  4.81204E-001	  5.82314E-001	  6.41927E-001
  6.50000E-004	  6.03719E-001	  6.13454E-001	  5.34606E-001	  5.85309E-001
  7.00000E-004	  3.65328E-001	  5.80391E-001	  4.78947E-001	  7.48120E-001
  7.50000E-004	  5.74823E-001	  5.14266E-001	  7.01584E-001	  4.50869E-001
  8.00000E-004	  4.12283E-001	  5.67165E-001	  4.98824E-001	  4.50868E-001
  9.00000E-004	  6.39838E-001	  4.87815E-001	  5.62435E-001	  4.26097E-001
  1.00000E-003	  6.36226E-001	  4.67977E-001	  5.86289E-001	  4.82716E-001
  1.10000E-003	  5.35090E-001	  5.53940E-001	  5.34605E-001	  4.89794E-001
  1.20000E-003	  6.61509E-001	  5.37409E-001	  5.86289E-001	  4.75639E-001
  1.30000E-003	  3.86999E-001	  5.40715E-001	  5.82313E-001	  4.89794E-001
  1.40000E-003	  5.49538E-001	  3.98546E-001	  4.82921E-001	  6.63190E-001
  1.50000E-003	  4.98970E-001	  4.41527E-001	  5.70386E-001	  5.14564E-001
  1.60000E-003	  5.51341E-001	  4.96078E-001	  6.32006E-001	  5.30486E-001
  1.80000E-003	  4.17699E-001	  6.11797E-001	  4.88882E-001	  4.33172E-001
  2.00000E-003	  6.28999E-001	  5.62203E-001	  5.40566E-001	  5.05715E-001
  2.20000E-003	  4.28534E-001	  4.77894E-001	  6.41945E-001	  5.19870E-001
  2.40000E-003	  5.26058E-001	  4.26647E-001	  4.80931E-001	  4.45557E-001
  2.60000E-003	  5.51341E-001	  5.07650E-001	  6.37969E-001	  4.77406E-001
  2.80000E-003	  6.57895E-001	  5.65509E-001	  5.82310E-001	  6.17184E-001
  3.00000E-003	  5.58565E-001	  5.25834E-001	  5.64420E-001	  4.88022E-001
  3.20000E-003	  5.25149E-001	  5.39881E-001	  5.09780E-001	  5.04825E-001
  3.60000E-003	  4.97157E-001	  5.60544E-001	  5.16738E-001	  5.56136E-001
  4.00000E-003	  4.72776E-001	  4.68796E-001	  6.08180E-001	  4.96863E-001
  4.40000E-003	  4.95351E-001	  5.02685E-001	  4.87914E-001	  5.12787E-001
  4.80000E-003	  6.11836E-001	  5.72943E-001	  5.88301E-001	  5.11018E-001
  5.20000E-003	  5.17926E-001	  5.21696E-001	  5.55501E-001	  4.63246E-001
  5.60000E-003	  5.96486E-001	  5.22523E-001	  4.57102E-001	  5.63214E-001
  6.00000E-003	  5.41403E-001	  5.14257E-001	  5.40592E-001	  5.62329E-001
  6.40000E-003	  5.42296E-001	  5.27058E-001	  5.38160E-001	  5.51702E-001
  7.20000E-003	  5.22430E-001	  4.99369E-001	  5.46112E-001	  5.25605E-001
  8.00000E-003	  5.45005E-001	  5.28298E-001	  5.60492E-001	  5.24720E-001
  8.80000E-003	  5.67128E-001	  5.52682E-001	  5.54032E-001	  5.09710E-001
  9.60000E-003	  5.17915E-001	  4.68786E-001	  5.10298E-001	  5.05729E-001
  1.04000E-002	  5.46359E-001	  5.18793E-001	  5.78880E-001	  4.83612E-001
  1.12000E-002	  5.91057E-001	  5.41936E-001	  5.51547E-001	  5.03960E-001
  1.20000E-002	  5.82930E-001	  5.17553E-001	  5.80371E-001	  4.95997E-001
  1.28000E-002	  5.35277E-001	  4.99762E-001	  5.37769E-001	  5.29816E-001
  1.44000E-002	  5.52885E-001	  5.25385E-001	  5.81755E-001	  5.14334E-001
  1.60000E-002	  5.46790E-001	  5.23112E-001	  5.32550E-001	  4.99295E-001
  1.76000E-002	  5.71847E-001	  5.15673E-001	  5.55445E-001	  4.91775E-001
  1.92000E-002	  5.55594E-001	  5.54520E-001	  5.10681E-001	  5.03055E-001
  2.08000E-002	  5.30762E-001	  5.22905E-001	  5.19596E-001	  5.19200E-001
  2.24000E-002	  5.27150E-001	  5.23318E-001	  5.71285E-001	  5.06151E-001
  2.40000E-002	  5.05027E-001	  5.02655E-001	  5.34009E-001	  4.87130E-001
  2.56000E-002	  5.39637E-001	  4.92132E-001	  5.30305E-001	  4.97816E-001
  2.88000E-002	  5.16048E-001	  4.93165E-001	  5.35896E-001	  4.84104E-001
  3.20000E-002	  5.47651E-001	  5.25917E-001	  5.45867E-001	  4.96379E-001
  3.52000E-002	  5.06680E-001	  5.14270E-001	  4.94052E-001	  4.92840E-001
  3.84000E-002	  5.41669E-001	  5.13237E-001	  5.12815E-001	  4.82999E-001
  4.16000E-002	  5.35265E-001	  5.13989E-001	  5.36423E-001	  4.99475E-001
  4.48000E-002	  5.34927E-001	  5.08409E-001	  5.47077E-001	  4.97595E-001
  4.80000E-002	  5.53099E-001	  5.09677E-001	  5.29402E-001	  4.93836E-001
  5.12000E-002	  5.34843E-001	  5.16298E-001	  5.22550E-001	  4.76560E-001
  5.76000E-002	  5.38568E-001	  5.01367E-001	  5.11303E-001	  4.86014E-001
  6.40000E-002	  5.21243E-001	  4.87442E-001	  4.92848E-001	  4.96714E-001
  7.04000E-002	  5.12327E-001	  4.88475E-001	  5.05400E-001	  4.78137E-001
  7.68000E-002	  5.25900E-001	  4.89739E-001	  5.22612E-001	  4.79408E-001
  8.32000E-002	  5.12977E-001	  4.91654E-001	  5.21276E-001	  4.69954E-001
  8.96000E-002	  5.39332E-001	  4.89123E-001	  5.14193E-001	  4.78690E-001
  9.60000E-002	  5.16506E-001	  4.99146E-001	  5.11552E-001	  4.73271E-001
  1.02400E-001	  5.13690E-001	  4.75784E-001	  4.98955E-001	  4.82599E-001
  1.15200E-001	  5.24976E-001	  4.85057E-001	  5.09646E-001	  4.68917E-001
  1.28000E-001	  4.98652E-001	  4.70953E-001	  4.93578E-001	  4.64714E-001
  1.40800E-001	  4.91401E-001	  4.76535E-001	  4.92460E-001	  4.62724E-001
  1.53600E-001	  4.85871E-001	  4.65968E-001	  4.85530E-001	  4.56200E-001
  1.66400E-001	  4.88665E-001	  4.58398E-001	  4.75244E-001	  4.42543E-001
  1.79200E-001	  4.89710E-001	  4.55144E-001	  4.65329E-001	  4.45086E-001
  1.92000E-001	  4.78847E-001	  4.53519E-001	  4.63872E-001	  4.35245E-001
  2.04800E-001	  4.79110E-001	  4.49389E-001	  4.61472E-001	  4.27429E-001
  2.30400E-001	  4.69221E-001	  4.52842E-001	  4.54712E-001	  4.28548E-001
  2.56000E-001	  4.49767E-001	  4.37580E-001	  4.49536E-001	  4.11283E-001
  2.81600E-001	  4.39088E-001	  4.17103E-001	  4.36246E-001	  3.96591E-001
  3.07200E-001	  4.33784E-001	  4.04294E-001	  4.23658E-001	  3.99839E-001
  3.32800E-001	  4.23302E-001	  3.94304E-001	  4.12244E-001	  3.87702E-001
  3.58400E-001	  4.08375E-001	  3.85025E-001	  4.10085E-001	  3.67617E-001
  3.84000E-001	  4.05863E-001	  3.85800E-001	  3.90903E-001	  3.54539E-001
  4.09600E-001	  3.88367E-001	  3.66846E-001	  3.82852E-001	  3.46792E-001
  4.60800E-001	  3.71734E-001	  3.51690E-001	  3.64638E-001	  3.31577E-001
  5.12000E-001	  3.55260E-001	  3.30621E-001	  3.48957E-001	  3.10133E-001
  5.63200E-001	  3.41461E-001	  3.12722E-001	  3.28284E-001	  2.94925E-001
  6.14400E-001	  3.19236E-001	  2.97147E-001	  3.10392E-001	  2.79949E-001
  6.65600E-001	  3.10290E-001	  2.80372E-001	  2.89616E-001	  2.64707E-001
  7.16800E-001	  2.96449E-001	  2.65194E-001	  2.73129E-001	  2.48003E-001
  7.68000E-001	  2.74836E-001	  2.51058E-001	  2.48788E-001	  2.35120E-001
  8.19200E-001	  2.60587E-001	  2.35039E-001	  2.44582E-001	  2.17845E-001
  9.21600E-001	  2.32802E-001	  2.07031E-001	  2.17573E-001	  1.97269E-001
  1.02400E+000	  2.10417E-001	  1.89204E-001	  1.91149E-001	  1.75947E-001
  1.12640E+000	  1.87621E-001	  1.76114E-001	  1.64111E-001	  1.60714E-001
  1.22880E+000	  1.66763E-001	  1.60197E-001	  1.47452E-001	  1.44638E-001
  1.33120E+000	  1.47792E-001	  1.45793E-001	  1.27924E-001	  1.31276E-001
  1.43360E+000	  1.28169E-001	  1.30996E-001	  1.18687E-001	  1.23675E-001
  1.53600E+000	  1.09475E-001	  1.16847E-001	  1.08964E-001	  1.07793E-001
  1.63840E+000	  9.62303E-002	  1.07299E-001	  1.02484E-001	  1.00955E-001
  1.84320E+000	  7.22573E-002	  8.99405E-002	  8.76798E-002	  8.06356E-002
  2.04800E+000	  5.65727E-002	  7.30748E-002	  7.64837E-002	  6.50072E-002
  2.25280E+000	  3.61638E-002	  5.95211E-002	  6.14842E-002	  5.62421E-002
  2.45760E+000	  2.21987E-002	  4.97444E-002	  4.74263E-002	  4.43772E-002
  2.66240E+000	  8.58533E-003	  4.71465E-002	  3.91545E-002	  3.32179E-002
  2.86720E+000	  2.99613E-003	  4.82358E-002	  3.01681E-002	  3.54201E-002
  3.07200E+000	 -1.14276E-002	  4.89686E-002	  2.19207E-002	  2.90752E-002
  3.27680E+000	 -2.06723E-002	  4.69497E-002	  1.44798E-002	  3.46931E-002
  3.68640E+000	 -3.00247E-002	  3.70487E-002	  4.40293E-003	  3.04616E-002
  4.09600E+000	 -3.46445E-002	  3.07312E-002	  1.62131E-003	  2.88763E-002
  4.50560E+000	 -3.78688E-002	  2.76971E-002	  1.71442E-003	  1.80654E-002
  4.91520E+000	 -3.90431E-002	  2.03503E-002	 -1.55559E-003	  1.18991E-002
  5.32480E+000	 -3.62218E-002	  2.88819E-002	 -1.12678E-002	 -5.93994E-003
  5.73440E+000	 -2.48111E-002	  4.47742E-002	 -1.73942E-002	 -9.28149E-003
  6.14400E+000	 -1.68060E-002	  4.78593E-002	 -1.58810E-002	 -1.24409E-002
  6.55360E+000	 -1.19260E-002	  4.01152E-002	 -8.37540E-003	 -5.92518E-003
  7.37280E+000	  5.49031E-003	  1.87929E-002	  1.31792E-002	 -1.01089E-002
  8.19200E+000	  5.80143E-003	  6.79997E-003	  1.59792E-002	 -5.14004E-003
  9.01120E+000	 -5.55407E-003	 -2.07117E-003	  1.23115E-002	 -2.68661E-003
  9.83040E+000	 -1.12523E-002	 -3.20715E-003	  2.75410E-002	 -8.11037E-003
  1.06496E+001	 -1.12341E-002	 -8.54451E-003	  2.88065E-002	 -6.38337E-003
  1.14688E+001	 -2.22273E-002	 -8.33317E-003	  8.04918E-003	 -7.46798E-003
  1.22880E+001	 -1.80641E-002	 -1.64020E-003	  1.69092E-002	 -1.51776E-002
  1.31072E+001	 -9.86191E-003	 -2.49106E-003	  5.81290E-003	 -3.20359E-003
  1.47456E+001	  6.23081E-003	 -1.40256E-002	 -1.18841E-002	 -1.46795E-002
  1.63840E+001	  6.70940E-003	 -4.81418E-003	  8.45628E-003	 -2.08730E-002
  1.80224E+001	 -7.40188E-004	 -8.96027E-003	  1.78692E-002	 -1.99651E-002
  1.96608E+001	 -1.46131E-002	 -8.50439E-003	  1.92379E-002	  8.07292E-003
  2.12992E+001	 -4.06256E-003	 -2.28055E-002	  7.60273E-003	  2.07904E-002
  2.29376E+001	  1.18903E-002	 -3.07194E-002	 -1.07083E-002	  1.00375E-002
  2.45760E+001	  1.31366E-002	 -2.59201E-002	 -3.21410E-002	  8.58605E-003
  2.62144E+001	 -2.01943E-004	 -2.30490E-002	 -1.39561E-002	  1.06534E-002
  2.94912E+001	 -2.50544E-002	 -7.97676E-003	 -5.85787E-003	  1.56977E-002
  3.27680E+001	 -1.88577E-002	 -7.23982E-003	  3.34919E-003	  2.02380E-002
  3.60448E+001	 -1.09412E-002	  8.21550E-003	  1.25995E-002	  1.48516E-002
  3.93216E+001	 -2.61777E-003	  1.93260E-002	  2.31726E-002	 -5.19858E-004
  4.25984E+001	 -2.80913E-003	  2.90112E-003	 -5.03030E-003	 -1.85626E-002
  4.58752E+001	 -2.60932E-002	  2.94361E-003	 -2.31853E-003	 -1.45202E-003
  4.91520E+001	 -1.68496E-002	 -1.81403E-002	 -6.47743E-003	  1.50087E-002
  5.24288E+001	  2.19555E-002	 -1.34102E-002	 -1.90174E-003	 -8.81824E-004
  5.89824E+001	 -1.22247E-002	 -1.25090E-002	 -1.26678E-002	 -6.67053E-003
  6.55360E+001	  4.58918E-003	  1.09341E-003	 -7.92676E-003	 -1.85490E-003
  7.20896E+001	 -4.21359E-003	  1.08371E-002	  7.52968E-003	 -1.42686E-002
  7.86432E+001	  1.26528E-002	  5.56105E-003	 -1.49663E-002	 -7.75259E-003
  8.51968E+001	  2.11195E-002	 -2.24817E-002	  1.75729E-002	  7.71636E-003
  9.17504E+001	 -1.27201E-002	 -4.85274E-003	 -1.59971E-002	  8.66225E-003
  9.83040E+001	 -2.32274E-002	 -2.25847E-002	 -5.02799E-003	  8.61696E-003
  1.04858E+002	 -5.58618E-003	 -1.85660E-002	  2.43229E-002	 -6.40934E-003
  1.17965E+002	  1.29376E-003	  2.27701E-003	  1.16288E-002	  4.32801E-003
  1.31072E+002	 -3.05901E-003	 -1.25072E-002	 -2.46230E-002	  1.29245E-002
  1.44179E+002	 -9.90207E-003	 -8.64232E-003	  3.72472E-004	  4.49944E-004
  1.57286E+002	 -6.09541E-003	 -5.49642E-004	  2.76116E-003	  9.18716E-003
  1.70394E+002	  7.33195E-003	 -1.20732E-002	 -1.28903E-002	  1.29822E-003
  1.83501E+002	 -7.55813E-003	  1.54010E-002	  2.32421E-003	  1.96074E-002
  1.96608E+002	  1.34212E-002	  4.40235E-003	 -1.30087E-004	 -8.78664E-003
  2.09715E+002	  1.02489E-002	 -2.36240E-002	  3.27290E-002	 -6.06182E-003
  2.35930E+002	 -7.89720E-003	  1.36688E-002	 -1.70576E-002	 -2.32410E-003
  2.62144E+002	 -1.18169E-004	 -5.90440E-003	  3.08033E-003	 -4.98309E-003
  2.88358E+002	  4.82273E-003	  1.94288E-003	 -1.31915E-002	 -3.75466E-003
  3.14573E+002	  1.34761E-002	  1.51315E-003	  1.17229E-002	  8.63164E-004
  3.40787E+002	 -4.46347E-003	  2.96870E-003	 -1.76114E-002	  1.03262E-002
  3.67002E+002	  1.12695E-003	  4.95262E-004	  5.80690E-003	 -8.62367E-004
  3.93216E+002	 -4.32393E-004	  3.49027E-003	 -4.91449E-003	 -4.77383E-003

"Count Rate"
       0.01311	      41.58020	      58.28857	      44.17419	      52.79541
       0.02621	      51.42212	      62.17957	      37.30774	      27.08435
       0.03932	      49.81995	      57.14417	      54.47388	      57.52563
       0.05243	      53.25317	      37.84180	      68.66455	      31.89087
       0.06554	      52.71912	      72.17407	      55.99976	      54.85535
       0.07864	      57.60193	      75.14954	      47.22595	      42.72461
       0.09175	      54.24500	      61.11145	      43.94531	      55.16052
       0.10486	      49.81995	      47.98889	      47.68372	      39.97803
       0.11796	      54.32129	      63.70544	      41.04614	      62.94250
       0.13107	      49.81995	      39.13879	      54.85535	      46.99707
       0.14418	      54.39758	      34.17969	      49.28589	      50.88806
       0.15729	      51.26953	      51.57471	      45.31860	      53.71094
       0.17039	      47.07336	      54.16870	      87.12769	      51.57471
       0.18350	      47.76001	      67.13867	      47.14966	      60.19592
       0.19661	      55.92346	      73.16589	      38.37585	      33.18787
       0.20972	      40.58838	      69.27490	      48.98071	      84.76257
       0.22282	      48.44666	      78.35388	      55.23682	      61.64551
       0.23593	      55.77087	      62.17957	      59.50928	      52.56653
       0.24904	      43.41125	      71.18225	      61.49292	      40.89355
       0.26214	      50.12512	      56.53381	      38.83362	      53.86353
       0.27525	      43.41125	      53.63464	      50.12512	      29.06799
       0.28836	      41.73279	      54.09241	      72.09778	      48.98071
       0.30147	      80.41382	      73.77625	      49.28589	      53.48206
       0.31457	      58.59375	      47.98889	      59.12781	      50.58289
       0.32768	      42.03796	      33.49304	      61.49292	      40.96985
       0.34079	      70.19043	      61.79810	      59.28040	      61.72180
       0.35389	      58.97522	      45.54749	      77.13318	      47.91260
       0.36700	      92.84973	      50.27771	      40.13062	      54.85535
       0.38011	      51.42212	      57.90710	      47.98889	      42.41943
       0.39322	      40.43579	      48.14148	      99.33472	      76.06506
       0.40632	      46.00525	      67.36755	      35.24780	      36.77368
       0.41943	      67.29126	      37.30774	      23.04077	      56.38123
       0.43254	      57.44934	      28.76282	      71.25854	      27.31323
       0.44564	      35.78186	      56.07605	      56.30493	      42.80090
       0.45875	      55.69458	      61.49292	      59.89075	      55.61829
       0.47186	      53.32947	      51.87988	      62.40845	      62.86621
       0.48497	      45.01343	      48.52295	      61.18774	      91.40015
       0.49807	      50.81177	      35.55298	      42.26685	      59.50928
       0.51118	      51.72729	      39.82544	      28.61023	      53.71094
       0.52429	      42.34314	      82.85522	      36.77368	      59.28040
       0.53740	      91.47644	      61.11145	      59.81445	      53.78723
       0.55050	      49.20959	      36.84998	      73.39478	      42.57202
       0.56361	      46.99707	      69.19861	      54.47388	      45.39490
       0.57672	      40.51208	      37.38403	      52.64282	      63.55286
       0.58982	      54.62646	      48.82813	      60.88257	      34.40857
       0.60293	      32.95898	     105.59082	      40.66467	     103.83606
       0.61604	      48.52295	      44.47937	      28.76282	      46.00525
       0.62915	      97.35107	      31.58569	      17.77649	      58.89893
       0.64225	      54.39758	      89.49280	      48.14148	     106.43005
       0.65536	      47.53113	      69.65637	      50.43030	      47.45483
       0.66847	      54.85535	      45.01343	      56.38123	      77.05688
       0.68157	      69.19861	      35.93445	      43.33496	      49.59106
       0.69468	      57.67822	      62.48474	      49.05701	      85.44922
       0.70779	      48.75183	      45.47119	      51.49841	      48.52295
       0.72090	      53.10059	      45.31860	      48.98071	      60.88257
       0.73400	      56.22864	      33.49304	      54.85535	      67.52014
       0.74711	      50.81177	      53.48206	      37.76550	      50.04883
