ALV-7004/USB-FAST
Date :	"11/11/2025"
Time :	"3:59:27 PM"
Samplename : 	""
SampMemo(0) : 	""
SampMemo(1) : 	""
SampMemo(2) : 	""
SampMemo(3) : 	""
SampMemo(4) : 	""
SampMemo(5) : 	""
SampMemo(6) : 	""
SampMemo(7) : 	""
SampMemo(8) : 	""
SampMemo(9) : 	""
Temperature [K] :	     298.16000
Viscosity [cp]  :	       0.89000
Refractive Index:	       1.33200
Wavelength [nm] :	       0.00000
Angle [°]       :	       0.00000
Duration [s]    :	         1
FloatDur [ms]   :	          944
Stop TP [ms]   :	     68331
Runs            :	         1
Mode            :	"A-CH0+1  A-CH2+3 "
MeanCR0 [kHz]   :	      57.03184
MeanCR1 [kHz]   :	      59.83353
MeanCR2 [kHz]   :	      58.65415
MeanCR3 [kHz]   :	      57.30523

"Correlation"
  3.12500E-006	 -1.00000E+000	 -1.00000E+000	 -1.00000E+000	 -1.00000E+000
  6.25000E-006	 -1.00000E+000	 -1.00000E+000	 -1.00000E+000	 -1.00000E+000
  9.37500E-006	 -1.00000E+000	 -1.00000E+000	 -1.00000E+000	 -1.00000E+000
  1.25000E-005	 -1.00000E+000	 -1.00000E+000	 -1.00000E+000	 -1.00000E+000
  1.56250E-005	 -1.00000E+000	 -1.00000E+000	 -1.00000E+000	 -1.00000E+000
  1.87500E-005	 -1.00000E+000	 -1.00000E+000	 -1.00000E+000	 -1.00000E+000
  2.18750E-005	 -1.00000E+000	  3.26009E-001	  7.74118E-001	 -8.96743E-001
  2.50000E-005	  1.04674E+001	  1.17865E+001	  9.05334E+000	  2.68794E+001
  2.81250E-005	  4.00396E+000	  2.03088E+000	  2.44967E+000	  6.74427E+000
  3.12500E-005	  1.60623E+000	  1.36787E+000	  1.06980E+000	  4.78239E+000
  3.43750E-005	  1.81473E+000	  8.94298E-001	  9.71242E-001	  4.78239E+000
  3.75000E-005	  1.29348E+000	  1.08373E+000	  3.79870E-001	  2.71725E+000
  4.06250E-005	  6.67987E-001	  1.27316E+000	  4.78432E-001	  2.40748E+000
  4.37500E-005	  1.39773E+000	  7.04868E-001	  3.79870E-001	  2.40748E+000
  4.68750E-005	  1.29348E+000	  6.10153E-001	  1.26693E+000	  1.89119E+000
  5.00000E-005	  6.15862E-001	  5.15438E-001	  6.75556E-001	  2.25259E+000
  5.62500E-005	  6.67987E-001	  4.20723E-001	  1.11909E+000	  1.94282E+000
  6.25000E-005	  3.03115E-001	  5.62796E-001	  7.24837E-001	  1.99445E+000
  6.87500E-005	  9.28610E-001	  8.46941E-001	  2.81308E-001	  7.55367E-001
  7.50000E-005	  1.08498E+000	  4.20723E-001	  6.75556E-001	  1.27165E+000
  8.12500E-005	  4.07364E-001	  9.41655E-001	  7.24837E-001	  9.61881E-001
  8.75000E-005	  1.98866E-001	  5.62796E-001	  3.30589E-001	  6.52110E-001
  9.37500E-005	  1.98866E-001	  4.68081E-001	  2.81308E-001	  7.55367E-001
  1.00000E-004	  4.33426E-001	  3.97045E-001	  3.55229E-001	  5.48853E-001
  1.12500E-004	  5.63738E-001	  7.75904E-001	  7.24837E-001	  5.23039E-001
  1.25000E-004	  6.67987E-001	  7.75904E-001	  6.50915E-001	  8.84438E-001
  1.37500E-004	  4.85551E-001	  2.31294E-001	  4.78432E-001	  3.68153E-001
  1.50000E-004	  6.94049E-001	  2.78651E-001	  3.30588E-001	  8.32809E-001
  1.62500E-004	  5.89800E-001	  7.28547E-001	  6.26275E-001	  5.74667E-001
  1.75000E-004	  8.50423E-001	  1.83936E-001	  6.50915E-001	  3.68153E-001
  1.87500E-004	  4.85551E-001	  3.02330E-001	  3.79870E-001	  8.58624E-001
  2.00000E-004	  6.28893E-001	  4.32562E-001	  3.55229E-001	  8.84437E-001
  2.25000E-004	  5.76769E-001	  4.20723E-001	  4.16830E-001	  4.71410E-001
  2.50000E-004	  6.67987E-001	  6.10153E-001	  6.87876E-001	  4.45596E-001
  2.75000E-004	  5.76769E-001	  6.21992E-001	  4.29150E-001	  4.84317E-001
  3.00000E-004	  5.11613E-001	  4.68080E-001	  3.92189E-001	  3.93967E-001
  3.25000E-004	  5.37675E-001	  5.86474E-001	  2.93627E-001	  3.29432E-001
  3.50000E-004	  3.68270E-001	  5.62795E-001	  5.64673E-001	  4.58503E-001
  3.75000E-004	  4.33426E-001	  4.68080E-001	  5.52353E-001	  4.06875E-001
  4.00000E-004	  5.89799E-001	  5.86473E-001	  5.70833E-001	  4.77863E-001
  4.50000E-004	  4.52972E-001	  3.97044E-001	  5.15391E-001	  4.13327E-001
  5.00000E-004	  3.74785E-001	  5.33196E-001	  5.76993E-001	  3.87513E-001
  5.50000E-004	  4.07363E-001	  3.20088E-001	  5.40032E-001	  4.06874E-001
  6.00000E-004	  5.44190E-001	  4.26642E-001	  3.98349E-001	  3.10071E-001
  6.50000E-004	  2.83567E-001	  5.74634E-001	  7.06355E-001	  3.74606E-001
  7.00000E-004	  5.44190E-001	  6.45670E-001	  3.79869E-001	  5.10131E-001
  7.50000E-004	  5.11612E-001	  4.68080E-001	  5.09231E-001	  5.74666E-001
  8.00000E-004	  4.88806E-001	  6.19030E-001	  4.99990E-001	  5.42397E-001
  9.00000E-004	  4.52971E-001	  5.62793E-001	  3.70627E-001	  4.68181E-001
  1.00000E-003	  5.70251E-001	  5.47994E-001	  4.81509E-001	  3.55244E-001
  1.10000E-003	  3.91073E-001	  3.85203E-001	  4.35309E-001	  4.45594E-001
  1.20000E-003	  5.80024E-001	  4.71038E-001	  4.22988E-001	  4.84315E-001
  1.30000E-003	  3.81300E-001	  4.97677E-001	  3.79867E-001	  4.84315E-001
  1.40000E-003	  5.34415E-001	  5.59834E-001	  4.69189E-001	  3.26203E-001
  1.50000E-003	  5.40931E-001	  3.61525E-001	  3.76787E-001	  4.84315E-001
  1.60000E-003	  5.55588E-001	  4.63636E-001	  4.21446E-001	  4.29458E-001
  1.80000E-003	  4.57855E-001	  4.35518E-001	  4.10666E-001	  4.64952E-001
  2.00000E-003	  4.25277E-001	  4.56237E-001	  4.47626E-001	  4.27844E-001
  2.20000E-003	  4.70886E-001	  4.35518E-001	  4.18366E-001	  4.43978E-001
  2.40000E-003	  4.72515E-001	  4.68076E-001	  4.93827E-001	  4.11711E-001
  2.60000E-003	  4.00844E-001	  4.57717E-001	  3.89105E-001	  4.21391E-001
  2.80000E-003	  5.06722E-001	  4.47357E-001	  4.02966E-001	  4.21391E-001
  3.00000E-003	  3.45462E-001	  4.31078E-001	  3.82945E-001	  3.81056E-001
  3.20000E-003	  3.56859E-001	  4.58452E-001	  4.21467E-001	  3.98799E-001
  3.60000E-003	  4.57036E-001	  4.68811E-001	  4.26087E-001	  4.39133E-001
  4.00000E-003	  4.20412E-001	  4.31073E-001	  3.95286E-001	  3.84278E-001
  4.40000E-003	  4.44846E-001	  3.99995E-001	  3.90666E-001	  3.53624E-001
  4.80000E-003	  4.34285E-001	  4.19974E-001	  4.05296E-001	  3.55237E-001
  5.20000E-003	  3.86231E-001	  4.22194E-001	  4.26857E-001	  4.23806E-001
  5.60000E-003	  4.37542E-001	  3.65957E-001	  3.29064E-001	  4.43167E-001
  6.00000E-003	  4.25325E-001	  3.65957E-001	  3.90666E-001	  3.58464E-001
  6.40000E-003	  4.15542E-001	  3.95546E-001	  3.75355E-001	  3.64102E-001
  7.20000E-003	  4.00474E-001	  4.06275E-001	  3.72275E-001	  3.77412E-001
  8.00000E-003	  3.91108E-001	  3.85187E-001	  3.93837E-001	  4.11696E-001
  8.80000E-003	  4.15135E-001	  4.04056E-001	  3.97687E-001	  3.63295E-001
  9.60000E-003	  3.63009E-001	  4.28844E-001	  3.60314E-001	  3.78219E-001
  1.04000E-002	  3.91515E-001	  4.15895E-001	  3.50303E-001	  3.73782E-001
  1.12000E-002	  4.31831E-001	  3.70018E-001	  3.09105E-001	  3.91126E-001
  1.20000E-002	  3.64231E-001	  3.80377E-001	  3.68785E-001	  3.59665E-001
  1.28000E-002	  3.35503E-001	  3.71318E-001	  3.62729E-001	  3.19539E-001
  1.44000E-002	  3.96180E-001	  3.62439E-001	  3.30576E-001	  3.48983E-001
  1.60000E-002	  3.33059E-001	  3.52450E-001	  3.22466E-001	  3.46765E-001
  1.76000E-002	  3.44258E-001	  3.60452E-001	  3.08797E-001	  3.17522E-001
  1.92000E-002	  3.17992E-001	  3.67112E-001	  3.09158E-001	  3.21152E-001
  2.08000E-002	  3.48127E-001	  3.21418E-001	  3.40925E-001	  3.16716E-001
  2.24000E-002	  3.20843E-001	  3.28448E-001	  2.87572E-001	  3.32043E-001
  2.40000E-002	  3.30616E-001	  2.78500E-001	  2.91230E-001	  3.10665E-001
  2.56000E-002	  3.11465E-001	  2.85170E-001	  2.89194E-001	  2.88720E-001
  2.88000E-002	  2.94056E-001	  2.98582E-001	  2.68208E-001	  3.00518E-001
  3.20000E-002	  2.92427E-001	  2.84315E-001	  2.52902E-001	  2.85795E-001
  3.52000E-002	  2.85708E-001	  2.94582E-001	  2.63010E-001	  2.73873E-001
  3.84000E-002	  2.64023E-001	  2.57398E-001	  2.40654E-001	  2.58949E-001
  4.16000E-002	  2.87642E-001	  2.64798E-001	  2.41039E-001	  2.38502E-001
  4.48000E-002	  2.57813E-001	  2.34758E-001	  2.30020E-001	  2.46771E-001
  4.80000E-002	  2.44578E-001	  2.38273E-001	  2.16522E-001	  2.16519E-001
  5.12000E-002	  2.35016E-001	  2.33481E-001	  2.03561E-001	  2.13972E-001
  5.76000E-002	  2.06432E-001	  2.00920E-001	  1.96966E-001	  1.86819E-001
  6.40000E-002	  1.83504E-001	  1.91418E-001	  1.87628E-001	  1.87504E-001
  7.04000E-002	  1.81977E-001	  1.89938E-001	  1.50200E-001	  1.91588E-001
  7.68000E-002	  1.60365E-001	  1.62742E-001	  1.48997E-001	  1.68896E-001
  8.32000E-002	  1.38935E-001	  1.46693E-001	  1.44953E-001	  1.36724E-001
  8.96000E-002	  1.34812E-001	  1.55409E-001	  1.24861E-001	  1.29139E-001
  9.60000E-002	  1.27228E-001	  1.35838E-001	  1.48212E-001	  1.24449E-001
  1.02400E-001	  1.12637E-001	  1.30999E-001	  1.18872E-001	  1.14527E-001
  1.15200E-001	  1.11135E-001	  1.07086E-001	  1.00800E-001	  9.29715E-002
  1.28000E-001	  9.36256E-002	  9.42276E-002	  8.46304E-002	  7.48732E-002
  1.40800E-001	  7.98064E-002	  8.32462E-002	  8.77353E-002	  6.16688E-002
  1.53600E-001	  7.19424E-002	  6.92967E-002	  6.38591E-002	  6.32183E-002
  1.66400E-001	  6.50003E-002	  6.45326E-002	  7.11713E-002	  4.34335E-002
  1.79200E-001	  5.06469E-002	  6.47176E-002	  6.75080E-002	  4.02057E-002
  1.92000E-001	  5.51710E-002	  4.67017E-002	  5.71100E-002	  4.15986E-002
  2.04800E-001	  4.07426E-002	  4.30544E-002	  5.00703E-002	  3.77841E-002
  2.30400E-001	  4.08699E-002	  3.91872E-002	  3.73049E-002	  2.98140E-002
  2.56000E-001	  2.67624E-002	  3.73688E-002	  3.05407E-002	  2.37634E-002
  2.81600E-001	  2.16717E-002	  2.31170E-002	  1.70215E-002	  2.25962E-002
  3.07200E-001	  1.50344E-002	  1.52136E-002	  1.87302E-002	  1.78519E-002
  3.32800E-001	  9.14714E-003	  2.25815E-002	  1.07909E-002	  1.94356E-002
  3.58400E-001	  1.52183E-002	  1.13209E-002	  2.01379E-002	  1.52729E-002
  3.84000E-001	  7.81672E-003	  8.06451E-003	  1.14771E-002	  1.49326E-002
  4.09600E-001	  1.35899E-002	  9.67480E-003	  6.24426E-003	  1.59889E-002
  4.60800E-001	  2.99065E-003	  3.09185E-004	  3.40777E-003	  1.34649E-002
  5.12000E-001	  1.75068E-003	 -2.35038E-003	  4.14537E-004	  6.49701E-003
  5.63200E-001	  4.92885E-003	 -3.14280E-003	  3.15397E-003	  3.41319E-003
  6.14400E-001	  5.46949E-003	 -3.99670E-004	  2.91299E-003	  4.63334E-003
  6.65600E-001	  1.18856E-003	  1.53974E-003	  7.74195E-003	  2.23643E-003
  7.16800E-001	  4.22818E-003	  2.84262E-003	  6.36301E-003	 -5.74564E-003
  7.68000E-001	 -7.05061E-003	  1.69055E-003	  4.40604E-003	  1.26283E-004
  8.19200E-001	 -6.81741E-003	  1.21792E-006	 -7.99517E-004	 -3.53335E-003
  9.21600E-001	 -3.56268E-003	  4.44593E-003	  6.01435E-004	  2.96616E-003
  1.02400E+000	  6.88363E-004	  2.44837E-003	  1.97796E-004	  3.18243E-003
  1.12640E+000	  2.89708E-003	 -3.55318E-003	  3.51303E-004	  2.09274E-003
  1.22880E+000	  7.30972E-003	 -8.99163E-003	 -2.74538E-003	 -2.36440E-003
  1.33120E+000	  8.04110E-003	 -9.25602E-003	 -2.51443E-004	  2.53355E-003
  1.43360E+000	  4.20177E-003	 -6.29777E-004	  3.28111E-003	  2.68874E-003
  1.53600E+000	  8.40709E-003	 -5.73871E-003	  2.14290E-003	 -3.84648E-003
  1.63840E+000	  1.29872E-002	  1.35146E-003	  3.76310E-004	  4.75386E-003
  1.84320E+000	 -4.90213E-003	  5.00947E-003	  3.81546E-003	  6.18812E-003
  2.04800E+000	 -6.94755E-004	 -3.56000E-003	 -1.15681E-003	  4.81141E-003
  2.25280E+000	 -1.09988E-004	  1.48668E-004	 -4.27632E-003	  4.39864E-003
  2.45760E+000	  2.55819E-003	 -1.32484E-003	 -1.28985E-003	 -2.08901E-004
  2.66240E+000	  3.16576E-003	 -5.57771E-003	  7.22117E-003	  5.85254E-003
  2.86720E+000	 -5.73423E-004	 -7.80258E-003	 -8.58080E-004	  1.25923E-003
  3.07200E+000	  8.54211E-004	  1.02367E-003	  1.05342E-003	  1.60031E-004
  3.27680E+000	 -7.66338E-004	  5.69184E-003	  1.54291E-003	  2.94846E-003
  3.68640E+000	 -6.49364E-003	  2.17463E-003	 -1.51528E-004	  1.08119E-002
  4.09600E+000	  1.03156E-003	  6.25832E-003	  4.51972E-003	  2.07623E-003
  4.50560E+000	 -4.64301E-003	  1.70994E-003	  6.89043E-003	 -3.28785E-003
  4.91520E+000	  2.42744E-003	  3.76622E-003	  5.07257E-003	 -1.70539E-003
  5.32480E+000	  5.31969E-003	  2.91925E-003	  1.68937E-003	  2.38889E-003
  5.73440E+000	 -1.68856E-003	 -1.88866E-003	 -4.07691E-003	 -5.59596E-003
  6.14400E+000	  2.97652E-004	  2.94458E-003	 -3.96577E-003	 -6.68320E-003
  6.55360E+000	 -1.80774E-003	 -1.99778E-003	 -1.48847E-003	 -2.08104E-003
  7.37280E+000	 -2.13733E-003	  3.18230E-003	 -8.02061E-004	 -1.90832E-003
  8.19200E+000	 -1.14630E-003	 -6.83101E-003	 -5.70208E-003	 -3.09292E-003
  9.01120E+000	 -3.91999E-005	 -5.95282E-003	  1.15813E-003	 -1.78497E-003
  9.83040E+000	 -2.59871E-003	  4.75604E-004	 -4.59261E-004	  6.11647E-004
  1.06496E+001	  5.06208E-003	  2.11538E-003	  1.49871E-003	 -2.24290E-003
  1.14688E+001	 -3.68159E-004	  4.26091E-004	 -1.26564E-003	 -2.67758E-003
  1.22880E+001	 -4.54201E-003	 -5.20573E-004	  3.36847E-003	 -3.10266E-004
  1.31072E+001	 -4.38077E-004	 -1.72866E-004	  9.59796E-004	  2.18543E-003
  1.47456E+001	  2.12842E-004	 -1.85800E-004	  2.70669E-004	 -2.83465E-003
  1.63840E+001	  1.48194E-003	 -2.41595E-004	  1.22852E-003	 -1.29059E-003
  1.80224E+001	 -1.46265E-003	 -3.94781E-004	 -1.06007E-003	 -3.21636E-004
  1.96608E+001	  3.27566E-003	  2.41429E-003	  1.39968E-003	 -1.91023E-003
  2.12992E+001	  2.36032E-003	  2.08582E-003	 -1.36887E-003	 -8.30054E-004
  2.29376E+001	  1.08006E-003	 -3.01847E-004	  7.90154E-004	  1.95053E-003
  2.45760E+001	 -1.91691E-003	  1.41629E-003	  5.09546E-004	 -4.47519E-004
  2.62144E+001	 -7.59395E-004	 -1.43557E-003	  9.31849E-004	  2.61827E-003
  2.94912E+001	  8.23523E-004	 -1.16950E-003	  1.69809E-003	  3.72346E-004
  3.27680E+001	 -1.08964E-003	 -6.73488E-004	  2.90099E-005	 -1.32109E-003
  3.60448E+001	 -8.28781E-004	 -5.50911E-004	  2.06818E-003	  1.57789E-003
  3.93216E+001	  9.52516E-004	  9.76957E-004	  2.31038E-003	  1.43569E-003
  4.25984E+001	 -7.51600E-004	  2.84811E-004	 -4.84347E-004	 -5.78948E-004
  4.58752E+001	 -1.64246E-003	 -3.69369E-004	 -6.12667E-004	 -2.00029E-003
  4.91520E+001	 -2.03729E-003	 -3.47899E-003	  2.48855E-003	  2.55894E-003
  5.24288E+001	 -1.16052E-003	 -2.12724E-003	  1.38272E-003	 -6.58251E-004
  5.89824E+001	  2.52200E-003	  6.97034E-004	  4.17315E-004	  3.74562E-004
  6.55360E+001	 -4.05857E-004	  1.40154E-003	  1.86123E-004	  3.81348E-004
  7.20896E+001	 -3.23988E-004	  6.04966E-004	 -1.28917E-003	  6.31470E-004
  7.86432E+001	  1.23243E-003	  6.61425E-004	  2.15399E-003	 -4.85887E-005
  8.51968E+001	  4.07778E-004	 -1.25540E-003	 -1.77425E-003	  8.67012E-004
  9.17504E+001	  5.69647E-004	 -1.70482E-003	  1.74505E-004	 -8.25268E-004
  9.83040E+001	  1.71304E-003	 -5.01226E-004	 -6.61090E-004	  1.09125E-004
  1.04858E+002	 -1.23315E-003	 -7.61850E-004	 -1.47049E-004	  4.35523E-005
  1.17965E+002	 -1.57640E-003	  2.13740E-004	 -6.26122E-004	 -1.56159E-003
  1.31072E+002	  9.27270E-004	  1.05095E-003	 -1.52605E-004	  7.93196E-004
  1.44179E+002	 -1.79029E-003	  1.00093E-003	 -1.34117E-003	 -8.47126E-004
  1.57286E+002	  9.37239E-004	 -7.42264E-004	 -2.74183E-004	 -1.35778E-004
  1.70394E+002	  8.63644E-004	 -1.64687E-003	 -1.40577E-003	  2.24153E-003
  1.83501E+002	  7.15100E-004	 -2.72470E-005	 -2.02959E-004	 -1.80480E-003
  1.96608E+002	  1.43486E-004	 -3.69701E-004	 -1.11066E-004	  1.14228E-004
  2.09715E+002	 -5.38240E-005	  1.18388E-003	 -6.63228E-004	  4.69267E-004
  2.35930E+002	  5.51097E-004	 -9.48426E-004	 -5.01416E-004	 -3.50072E-005
  2.62144E+002	  7.53911E-005	 -2.27947E-004	 -1.64983E-003	 -1.22191E-003
  2.88358E+002	 -6.90780E-004	  1.35101E-003	 -1.71926E-003	  1.10565E-004
  3.14573E+002	  7.10150E-004	 -1.04287E-003	 -1.88994E-003	 -3.90319E-004
  3.40787E+002	 -2.79318E-005	  2.79024E-003	 -1.69150E-004	 -4.66822E-004
  3.67002E+002	 -1.16358E-004	 -1.63381E-004	 -1.11142E-003	 -5.97268E-004
  3.93216E+002	  1.29928E-003	 -2.02897E-004	  5.40870E-004	 -7.42048E-004

"Count Rate"
       0.01311	      53.10059	      55.84717	      62.56104	      56.83899
       0.02621	      53.32947	      55.38940	      58.59375	      56.83899
       0.03932	      54.62646	      56.07605	      55.92346	      51.72729
       0.05243	      59.89075	      55.54199	      62.17957	      50.04883
       0.06554	      55.16052	      57.60193	      59.66187	      60.72998
       0.07864	      64.77356	      59.28040	      51.95618	      53.63464
       0.09175	      64.01062	      46.31042	      53.63464	      60.27222
       0.10486	      51.26953	      51.80359	      54.39758	      50.50659
       0.11796	      46.99707	      60.72998	      55.23682	      66.52832
       0.13107	      57.22046	      57.37305	      56.38123	      52.18506
       0.14418	      52.87170	      66.45203	      66.45203	      53.40576
       0.15729	      55.46570	      56.91528	      55.00793	      51.34583
       0.17039	      54.93164	      64.92615	      61.56921	      51.34583
       0.18350	      58.28857	      52.94800	      69.88525	      53.17688
       0.19661	      64.31580	      60.95886	      54.09241	      52.94800
       0.20972	      50.73547	      63.70544	      62.48474	      47.91260
       0.22282	      70.49561	      49.43848	      56.22864	      64.54468
       0.23593	      52.64282	      53.86353	      56.30493	      54.93164
       0.24904	      66.07056	      66.07056	      62.86621	      58.89893
       0.26214	      65.53650	      54.70276	      63.55286	      56.15234
       0.27525	      60.11963	      62.48474	      53.10059	      57.75452
       0.28836	      55.77087	      59.28040	      55.38940	      66.98608
       0.30147	      54.09241	      57.75452	      57.75452	      63.40027
       0.31457	      60.72998	      63.47656	      58.21228	      56.91528
       0.32768	      59.81445	      54.77905	      51.19324	      55.38940
       0.34079	      56.15234	      58.97522	      59.89075	      51.19324
       0.35389	      58.44116	      69.35120	      55.61829	      59.50928
       0.36700	      46.99707	      60.42480	      59.73816	      57.90710
       0.38011	      55.84717	      59.50928	      58.13599	      58.13599
       0.39322	      53.10059	      57.14417	      60.42480	      65.23132
       0.40632	      58.28857	      69.04602	      51.19324	      50.12512
       0.41943	      56.68640	      64.39209	      58.51746	      57.75452
       0.43254	      52.71912	      60.80627	      54.47388	      59.50928
       0.44564	      58.89893	      44.86084	      55.69458	      60.04333
       0.45875	      59.20410	      52.33765	      50.12512	      53.71094
       0.47186	      53.86353	      62.02698	      50.96436	      66.52832
       0.48497	      60.50110	      59.20410	      50.65918	      51.80359
       0.49807	      57.83081	      59.43298	      57.67822	      54.62646
       0.51118	      55.61829	      49.66736	      46.84448	      58.59375
       0.52429	      49.05701	      54.47388	      55.92346	      57.67822
       0.53740	      57.29675	      61.64551	      50.81177	      58.82263
       0.55050	      54.09241	      59.43298	      54.70276	      54.09241
       0.56361	      55.61829	      66.14685	      56.07605	      57.67822
       0.57672	      59.96704	      51.19324	      56.99158	      55.31311
       0.58982	      53.02429	      61.34033	      70.41931	      50.81177
       0.60293	      51.04065	      56.38123	      60.95886	      63.70544
       0.61604	      57.06787	      65.15503	      61.03516	      50.65918
       0.62915	      58.21228	      61.41663	      55.16052	      58.36487
       0.64225	      52.79541	      63.40027	      61.11145	      64.39209
       0.65536	      67.67273	      55.46570	      61.49292	      45.54749
       0.66847	      51.19324	      53.55835	      54.62646	      64.01062
       0.68157	      52.10876	      60.57739	      62.86621	      52.64282
       0.69468	      52.33765	      62.78992	      58.82263	      58.36487
       0.70779	      52.71912	      66.45203	      59.58557	      49.05701
       0.72090	      55.77087	      59.58557	      54.93164	      56.61011
       0.73400	      52.64282	      62.94250	      63.85803	      52.33765
       0.74711	      59.58557	      66.22314	      58.74634	      52.64282
