ALV-7004/USB-FAST
Date :	"11/11/2025"
Time :	"3:54:52 PM"
Samplename : 	""
SampMemo(0) : 	""
SampMemo(1) : 	""
SampMemo(2) : 	""
SampMemo(3) : 	""
SampMemo(4) : 	""
SampMemo(5) : 	""
SampMemo(6) : 	""
SampMemo(7) : 	""
SampMemo(8) : 	""
SampMemo(9) : 	""
Temperature [K] :	     298.16000
Viscosity [cp]  :	       0.89000
Refractive Index:	       1.33200
Wavelength [nm] :	       0.00000
Angle [°]       :	       0.00000
Duration [s]    :	         1
FloatDur [ms]   :	          944
Stop TP [ms]   :	     61896
Runs            :	         1
Mode            :	"A-CH0+1  A-CH2+3 "
MeanCR0 [kHz]   :	      54.80130
MeanCR1 [kHz]   :	      53.99704
MeanCR2 [kHz]   :	      52.01022
MeanCR3 [kHz]   :	      52.63011

"Correlation"
  3.12500E-006	 -1.00000E+000	 -1.00000E+000	 -1.00000E+000	 -1.00000E+000
  6.25000E-006	 -1.00000E+000	 -1.00000E+000	 -1.00000E+000	 -1.00000E+000
  9.37500E-006	 -1.00000E+000	 -1.00000E+000	 -1.00000E+000	 -1.00000E+000
  1.25000E-005	 -1.00000E+000	 -1.00000E+000	 -1.00000E+000	 -1.00000E+000
  1.56250E-005	 -1.00000E+000	 -1.00000E+000	 -1.00000E+000	 -1.00000E+000
  1.87500E-005	 -1.00000E+000	 -1.00000E+000	 -1.00000E+000	 -1.00000E+000
  2.18750E-005	 -8.87092E-001	  3.95561E-001	  7.54924E-001	 -5.10335E-001
  2.50000E-005	  1.23232E+001	  1.45838E+001	  1.14098E+001	  2.53195E+001
  2.81250E-005	  3.62924E+000	  2.48890E+000	  1.75774E+000	  9.65021E+000
  3.12500E-005	  6.93624E-001	  5.11858E-001	  1.00563E+000	  5.48806E+000
  3.43750E-005	  1.03235E+000	  6.28155E-001	  1.50703E+000	  4.50873E+000
  3.75000E-005	  1.59689E+000	  9.77045E-001	  5.04220E-001	  2.67249E+000
  4.06250E-005	  1.37107E+000	  2.79264E-001	  1.63239E+000	  3.28457E+000
  4.37500E-005	  6.93624E-001	  9.77045E-001	  1.13098E+000	  3.52940E+000
  4.68750E-005	  1.03235E+000	  2.79264E-001	  1.13098E+000	  2.67249E+000
  5.00000E-005	  7.50078E-001	  6.86303E-001	  6.29572E-001	  2.67249E+000
  5.62500E-005	  1.14526E+000	  8.60748E-001	  1.13098E+000	  1.81557E+000
  6.25000E-005	  8.06532E-001	  7.44451E-001	  5.04220E-001	  2.55007E+000
  6.87500E-005	  3.54899E-001	  9.18896E-001	  6.29572E-001	  1.08108E+000
  7.50000E-005	  8.62986E-001	  4.53709E-001	  1.06830E+000	  1.50953E+000
  8.12500E-005	  8.62986E-001	  6.86303E-001	  8.17599E-001	  9.58660E-001
  8.75000E-005	  5.24261E-001	  1.62968E-001	  3.16193E-001	  1.01987E+000
  9.37500E-005	  2.98445E-001	  2.21116E-001	  6.29572E-001	  7.75035E-001
  1.00000E-004	  5.52488E-001	  5.11858E-001	  6.29572E-001	  6.22015E-001
  1.12500E-004	  6.93624E-001	  7.44451E-001	  5.04220E-001	  4.99599E-001
  1.25000E-004	  7.50078E-001	  3.66487E-001	  5.35558E-001	  8.66847E-001
  1.37500E-004	  5.24261E-001	  6.28154E-001	  6.60910E-001	  8.36243E-001
  1.50000E-004	  4.96034E-001	  4.53709E-001	  3.47530E-001	  1.57074E+000
  1.62500E-004	  4.96034E-001	  1.23871E+000	  5.98234E-001	  5.30203E-001
  1.75000E-004	  4.11353E-001	  6.86303E-001	  5.35558E-001	  7.44431E-001
  1.87500E-004	  4.67807E-001	  1.62967E-001	  6.29572E-001	  5.30203E-001
  2.00000E-004	  3.83126E-001	  4.39172E-001	  6.13902E-001	  3.61880E-001
  2.25000E-004	  5.38375E-001	  5.11857E-001	  3.16192E-001	  7.29129E-001
  2.50000E-004	  9.47667E-001	  4.97320E-001	  4.88551E-001	  6.52619E-001
  2.75000E-004	  6.93623E-001	  5.40932E-001	  5.19889E-001	  4.38390E-001
  3.00000E-004	  6.37169E-001	  3.37412E-001	  2.53516E-001	  6.67921E-001
  3.25000E-004	  4.96034E-001	  3.51949E-001	  8.33268E-001	  7.59733E-001
  3.50000E-004	  4.53693E-001	  4.68246E-001	  4.72882E-001	  3.00672E-001
  3.75000E-004	  4.53693E-001	  4.39172E-001	  5.04220E-001	  4.68994E-001
  4.00000E-004	  6.23055E-001	  4.17366E-001	  4.57212E-001	  6.06712E-001
  4.50000E-004	  3.97239E-001	  3.08338E-001	  6.68743E-001	  4.53692E-001
  5.00000E-004	  7.00679E-001	  3.44680E-001	  5.12053E-001	  4.68994E-001
  5.50000E-004	  3.69012E-001	  4.31903E-001	  4.72881E-001	  4.23088E-001
  6.00000E-004	  6.30112E-001	  3.59217E-001	  6.37405E-001	  7.36779E-001
  6.50000E-004	  5.03090E-001	  3.22875E-001	  4.25874E-001	  5.07249E-001
  7.00000E-004	  3.76068E-001	  5.48199E-001	  5.74729E-001	  2.93020E-001
  7.50000E-004	  5.24260E-001	  4.75514E-001	  6.37405E-001	  4.76645E-001
  8.00000E-004	  4.25464E-001	  3.73753E-001	  5.59059E-001	  6.44966E-001
  9.00000E-004	  4.78390E-001	  5.37295E-001	  6.68742E-001	  5.22549E-001
  1.00000E-003	  4.88975E-001	  4.24633E-001	  3.86701E-001	  5.72281E-001
  1.10000E-003	  5.41901E-001	  3.19239E-001	  4.65045E-001	  5.37851E-001
  1.20000E-003	  3.72539E-001	  4.02827E-001	  4.53294E-001	  3.88657E-001
  1.30000E-003	  5.31316E-001	  3.51948E-001	  4.84632E-001	  6.33489E-001
  1.40000E-003	  3.44312E-001	  3.91925E-001	  4.25873E-001	  6.14362E-001
  1.50000E-003	  4.64277E-001	  5.22758E-001	  3.90618E-001	  4.91945E-001
  1.60000E-003	  4.97794E-001	  4.86413E-001	  4.29788E-001	  4.70903E-001
  1.80000E-003	  4.69567E-001	  4.40985E-001	  5.17926E-001	  5.76104E-001
  2.00000E-003	  4.85444E-001	  4.64607E-001	  4.21953E-001	  5.49325E-001
  2.20000E-003	  4.39576E-001	  3.04700E-001	  5.02257E-001	  5.91406E-001
  2.40000E-003	  4.43104E-001	  3.48311E-001	  4.29788E-001	  4.40299E-001
  2.60000E-003	  4.36047E-001	  4.84596E-001	  3.80823E-001	  5.05332E-001
  2.80000E-003	  5.41898E-001	  4.44619E-001	  4.00409E-001	  4.86205E-001
  3.00000E-003	  4.73095E-001	  4.86413E-001	  4.90505E-001	  4.44124E-001
  3.20000E-003	  4.34278E-001	  4.09180E-001	  4.54266E-001	  4.29774E-001
  3.60000E-003	  4.58977E-001	  3.86466E-001	  5.32610E-001	  5.08196E-001
  4.00000E-003	  4.73090E-001	  3.98277E-001	  4.40555E-001	  5.21585E-001
  4.40000E-003	  4.59859E-001	  4.64603E-001	  5.04210E-001	  5.45495E-001
  4.80000E-003	  4.54566E-001	  4.41888E-001	  5.36527E-001	  5.21585E-001
  5.20000E-003	  4.60741E-001	  3.90100E-001	  4.62100E-001	  4.30730E-001
  5.60000E-003	  4.98671E-001	  4.45523E-001	  4.80707E-001	  4.68029E-001
  6.00000E-003	  4.87204E-001	  4.28260E-001	  4.99314E-001	  4.88112E-001
  6.40000E-003	  4.82783E-001	  4.46421E-001	  4.58173E-001	  5.00535E-001
  7.20000E-003	  4.76167E-001	  4.34610E-001	  4.93428E-001	  4.76626E-001
  8.00000E-003	  4.79255E-001	  4.44150E-001	  4.73842E-001	  5.07230E-001
  8.80000E-003	  4.51469E-001	  4.33702E-001	  4.87552E-001	  5.25401E-001
  9.60000E-003	  4.78814E-001	  4.15076E-001	  4.32711E-001	  4.83320E-001
  1.04000E-002	  4.71316E-001	  4.17348E-001	  4.81186E-001	  4.79495E-001
  1.12000E-002	  4.39561E-001	  4.44633E-001	  4.54745E-001	  4.98144E-001
  1.20000E-002	  4.75285E-001	  4.06927E-001	  5.11055E-001	  4.97666E-001
  1.28000E-002	  4.65563E-001	  4.19628E-001	  4.62805E-001	  5.01949E-001
  1.44000E-002	  4.48362E-001	  4.35073E-001	  4.83859E-001	  4.83779E-001
  1.60000E-002	  4.40423E-001	  4.21445E-001	  4.48850E-001	  4.89756E-001
  1.76000E-002	  4.71296E-001	  4.38707E-001	  4.81166E-001	  4.85452E-001
  1.92000E-002	  4.50788E-001	  4.31893E-001	  4.58643E-001	  4.78280E-001
  2.08000E-002	  4.94009E-001	  4.04636E-001	  4.84104E-001	  4.76128E-001
  2.24000E-002	  4.45716E-001	  4.04864E-001	  4.06741E-001	  4.72302E-001
  2.40000E-002	  4.82101E-001	  4.33284E-001	  4.65743E-001	  4.88082E-001
  2.56000E-002	  4.53864E-001	  4.06099E-001	  4.41099E-001	  5.20618E-001
  2.88000E-002	  4.71395E-001	  4.01329E-001	  4.73047E-001	  4.98861E-001
  3.20000E-002	  4.58495E-001	  3.95423E-001	  4.44282E-001	  4.79733E-001
  3.52000E-002	  4.54305E-001	  4.19388E-001	  4.71701E-001	  4.89895E-001
  3.84000E-002	  4.53974E-001	  4.26117E-001	  4.39875E-001	  4.93601E-001
  4.16000E-002	  4.34348E-001	  4.13396E-001	  4.49790E-001	  4.92764E-001
  4.48000E-002	  4.41735E-001	  4.00362E-001	  4.62305E-001	  5.04001E-001
  4.80000E-002	  4.41515E-001	  4.11152E-001	  4.72006E-001	  4.84635E-001
  5.12000E-002	  4.50176E-001	  4.22543E-001	  4.54605E-001	  4.91728E-001
  5.76000E-002	  4.49073E-001	  4.05447E-001	  4.43557E-001	  4.70835E-001
  6.40000E-002	  4.51664E-001	  4.09622E-001	  4.38600E-001	  4.76155E-001
  7.04000E-002	  4.65089E-001	  3.96673E-001	  4.41048E-001	  4.79174E-001
  7.68000E-002	  4.48411E-001	  4.10529E-001	  4.32631E-001	  4.72927E-001
  8.32000E-002	  4.71731E-001	  3.98345E-001	  4.44901E-001	  4.92894E-001
  8.96000E-002	  4.39095E-001	  3.90705E-001	  4.48909E-001	  4.61330E-001
  9.60000E-002	  4.38874E-001	  3.85763E-001	  4.45021E-001	  4.71672E-001
  1.02400E-001	  4.32490E-001	  3.80256E-001	  4.49209E-001	  4.67980E-001
  1.15200E-001	  4.29347E-001	  3.95622E-001	  4.34335E-001	  4.62570E-001
  1.28000E-001	  4.28107E-001	  3.82981E-001	  4.22890E-001	  4.51807E-001
  1.40800E-001	  4.33592E-001	  3.77354E-001	  4.22951E-001	  4.31539E-001
  1.53600E-001	  4.23972E-001	  3.62980E-001	  4.23805E-001	  4.44845E-001
  1.66400E-001	  4.10521E-001	  3.67926E-001	  4.13522E-001	  4.31035E-001
  1.79200E-001	  4.21271E-001	  3.61991E-001	  3.98710E-001	  4.34173E-001
  1.92000E-001	  4.09088E-001	  3.59291E-001	  4.02382E-001	  4.17490E-001
  2.04800E-001	  4.03704E-001	  3.51803E-001	  4.00293E-001	  4.11280E-001
  2.30400E-001	  3.94940E-001	  3.39765E-001	  3.85768E-001	  3.92515E-001
  2.56000E-001	  3.75437E-001	  3.29690E-001	  3.73063E-001	  3.88954E-001
  2.81600E-001	  3.60097E-001	  3.21764E-001	  3.64764E-001	  3.76966E-001
  3.07200E-001	  3.54612E-001	  3.07735E-001	  3.44590E-001	  3.64204E-001
  3.32800E-001	  3.42914E-001	  2.91758E-001	  3.40872E-001	  3.54727E-001
  3.58400E-001	  3.41203E-001	  2.85223E-001	  3.30352E-001	  3.40086E-001
  3.84000E-001	  3.29572E-001	  2.71379E-001	  3.11770E-001	  3.26398E-001
  4.09600E-001	  3.22631E-001	  2.69410E-001	  2.97719E-001	  3.10004E-001
  4.60800E-001	  3.00113E-001	  2.50386E-001	  2.74054E-001	  2.90775E-001
  5.12000E-001	  2.87589E-001	  2.26126E-001	  2.69580E-001	  2.66645E-001
  5.63200E-001	  2.64509E-001	  2.16305E-001	  2.44739E-001	  2.53206E-001
  6.14400E-001	  2.47365E-001	  1.92905E-001	  2.28350E-001	  2.34368E-001
  6.65600E-001	  2.36833E-001	  1.75798E-001	  2.14968E-001	  2.11284E-001
  7.16800E-001	  2.18676E-001	  1.65565E-001	  2.04581E-001	  1.99683E-001
  7.68000E-001	  2.06206E-001	  1.53732E-001	  1.92914E-001	  1.77495E-001
  8.19200E-001	  1.89553E-001	  1.43489E-001	  1.79408E-001	  1.64711E-001
  9.21600E-001	  1.71227E-001	  1.19581E-001	  1.60712E-001	  1.35397E-001
  1.02400E+000	  1.52815E-001	  1.06838E-001	  1.37973E-001	  1.20230E-001
  1.12640E+000	  1.32057E-001	  9.35570E-002	  1.25285E-001	  1.05014E-001
  1.22880E+000	  1.17829E-001	  7.48183E-002	  1.14115E-001	  8.67102E-002
  1.33120E+000	  1.04584E-001	  6.55667E-002	  9.28700E-002	  7.63596E-002
  1.43360E+000	  9.41964E-002	  5.32816E-002	  8.61542E-002	  6.83404E-002
  1.53600E+000	  8.52917E-002	  3.97725E-002	  7.89570E-002	  5.89955E-002
  1.63840E+000	  7.94446E-002	  3.63554E-002	  6.81432E-002	  5.48046E-002
  1.84320E+000	  6.53472E-002	  2.25397E-002	  4.80038E-002	  4.61795E-002
  2.04800E+000	  5.88803E-002	  1.38383E-002	  3.35358E-002	  3.18169E-002
  2.25280E+000	  4.39393E-002	  9.54947E-003	  2.67448E-002	  1.52531E-002
  2.45760E+000	  3.31647E-002	  5.87767E-003	  2.22375E-002	  7.38925E-003
  2.66240E+000	  1.96136E-002	  8.16853E-003	  1.50392E-002	  7.86175E-003
  2.86720E+000	  1.44189E-002	  4.19793E-003	  6.45376E-003	  7.03278E-003
  3.07200E+000	  9.90976E-003	 -4.42595E-004	 -2.75197E-003	  7.44417E-003
  3.27680E+000	  2.70832E-003	 -4.22952E-003	 -2.99256E-003	  1.71902E-003
  3.68640E+000	 -3.61280E-003	 -8.62085E-003	 -2.73423E-003	  3.77372E-003
  4.09600E+000	 -1.04950E-002	 -8.51093E-003	 -4.15163E-003	  9.17435E-003
  4.50560E+000	 -1.49645E-002	 -5.89463E-003	 -7.88663E-004	  1.01817E-002
  4.91520E+000	 -2.23014E-002	  5.13001E-003	  3.62652E-003	  3.19785E-003
  5.32480E+000	 -2.94706E-002	  3.64235E-003	  2.91552E-003	 -5.29052E-003
  5.73440E+000	 -3.42358E-002	  6.17073E-003	  5.19340E-005	  9.42040E-004
  6.14400E+000	 -3.47176E-002	  5.99105E-003	  6.74645E-004	  3.70912E-003
  6.55360E+000	 -2.82195E-002	 -2.02219E-003	 -7.06372E-004	  5.70767E-003
  7.37280E+000	  1.36286E-003	 -2.08643E-002	 -7.41374E-003	  2.80139E-003
  8.19200E+000	  2.27151E-002	 -2.91670E-003	 -2.00572E-002	 -7.05088E-003
  9.01120E+000	  1.08530E-002	  4.06135E-003	 -1.87797E-002	 -8.12325E-004
  9.83040E+000	 -5.36501E-003	 -4.48422E-003	 -2.38143E-002	  3.85647E-003
  1.06496E+001	  4.13791E-003	 -6.76571E-004	 -6.46208E-003	 -1.94859E-003
  1.14688E+001	  4.51608E-003	  1.31037E-002	  2.55289E-002	 -9.72810E-003
  1.22880E+001	  6.75961E-003	  1.27280E-002	  4.08741E-002	 -1.60220E-002
  1.31072E+001	  1.17662E-002	  5.06620E-003	  3.59897E-002	 -2.20167E-002
  1.47456E+001	  9.90736E-003	  3.36080E-003	  6.80462E-003	 -5.07698E-003
  1.63840E+001	  9.84754E-003	 -7.02412E-003	 -6.80697E-003	 -3.33385E-003
  1.80224E+001	 -3.82808E-003	 -8.58682E-003	  1.08631E-003	 -1.77555E-002
  1.96608E+001	  1.61932E-003	 -3.40119E-003	  2.74773E-003	 -1.17934E-002
  2.12992E+001	 -8.91425E-003	 -1.69805E-002	 -1.25285E-002	  9.81059E-003
  2.29376E+001	  5.85607E-003	 -1.90227E-002	 -8.98017E-003	  1.40479E-002
  2.45760E+001	  1.09687E-002	 -6.58930E-003	  1.34509E-002	 -5.61076E-003
  2.62144E+001	 -9.18397E-004	  4.44895E-003	  8.96994E-003	 -3.77315E-003
  2.94912E+001	 -2.36384E-002	 -4.77346E-003	 -1.02726E-002	 -4.94682E-003
  3.27680E+001	  3.80332E-003	 -3.42217E-003	  3.65029E-003	 -2.73321E-003
  3.60448E+001	 -6.44551E-003	 -3.66296E-003	  1.84553E-002	 -1.49067E-002
  3.93216E+001	 -2.12219E-002	 -1.43545E-002	  6.38361E-003	 -5.44895E-003
  4.25984E+001	  1.45610E-002	 -1.35739E-002	 -1.13770E-002	  1.34441E-002
  4.58752E+001	  4.58128E-003	  2.70801E-003	  1.78132E-002	  5.51906E-003
  4.91520E+001	 -1.44591E-002	 -3.19930E-003	  2.16067E-002	  2.73749E-003
  5.24288E+001	 -1.65668E-002	 -1.44061E-003	  7.62124E-003	 -1.28236E-002
  5.89824E+001	 -6.71312E-004	 -1.06242E-003	 -1.56393E-002	 -1.76046E-002
  6.55360E+001	  1.07212E-002	  7.62591E-003	  3.40707E-003	  1.13121E-003
  7.20896E+001	  3.73944E-003	  6.92855E-003	 -4.25294E-003	  4.63464E-003
  7.86432E+001	 -2.96183E-003	  2.36627E-003	  1.43572E-003	 -1.20145E-002
  8.51968E+001	  1.99057E-002	 -1.06664E-002	  3.93859E-003	 -2.21494E-003
  9.17504E+001	  1.23149E-002	 -3.19275E-003	  1.09399E-002	  2.58844E-003
  9.83040E+001	 -4.37754E-003	 -3.28437E-003	  1.50275E-003	 -1.15895E-002
  1.04858E+002	 -7.69406E-003	  2.58408E-003	  8.12573E-003	 -8.13949E-003
  1.17965E+002	 -7.71568E-003	  4.32768E-004	 -1.01239E-002	  7.95176E-003
  1.31072E+002	 -2.57378E-004	  1.23692E-003	  4.47990E-003	  6.24860E-003
  1.44179E+002	 -6.12981E-003	  4.20385E-003	  6.83835E-003	  1.74737E-003
  1.57286E+002	  5.76217E-003	 -8.63788E-003	 -1.58230E-002	  2.14118E-003
  1.70394E+002	 -8.95441E-004	 -3.62800E-003	 -2.02535E-003	 -1.77409E-003
  1.83501E+002	  1.09545E-003	 -5.23113E-003	  1.26533E-002	 -4.17161E-003
  1.96608E+002	 -1.88274E-003	 -1.82825E-003	  3.43544E-003	 -3.94988E-003
  2.09715E+002	  7.00515E-003	  5.12236E-003	  1.03178E-003	  2.03557E-004
  2.35930E+002	  7.69860E-004	 -5.15367E-003	  1.54068E-004	  2.60007E-003
  2.62144E+002	 -9.18926E-003	  4.46450E-004	 -1.66342E-002	 -4.56153E-003
  2.88358E+002	  7.52662E-003	  5.54890E-003	  1.56232E-002	 -2.55252E-003
  3.14573E+002	  1.23112E-002	 -8.25879E-004	  1.81383E-004	 -9.71394E-003
  3.40787E+002	 -4.45143E-003	 -4.51420E-003	 -4.87887E-003	  5.62071E-003
  3.67002E+002	 -1.22176E-003	  2.65315E-003	  5.39375E-003	  1.83224E-003
  3.93216E+002	 -4.14987E-003	 -1.33142E-003	  5.13074E-003	 -2.61107E-004

"Count Rate"
       0.01311	      59.20410	      50.04883	      43.33496	      44.63196
       0.02621	      52.56653	      49.43848	      61.41663	      48.14148
       0.03932	      71.86890	      45.92896	      37.76550	      41.50391
       0.05243	      48.90442	      60.34851	      51.34583	      60.27222
       0.06554	      43.79272	      53.93982	      37.91809	      81.86340
       0.07864	      40.89355	      60.72998	      49.66736	      36.69739
       0.09175	      53.48206	      55.46570	      61.03516	      41.27502
       0.10486	      42.57202	      52.79541	      41.58020	      52.56653
       0.11796	      45.77637	      49.81995	      60.57739	      56.91528
       0.13107	      47.14966	      46.08154	      53.86353	      64.31580
       0.14418	      64.62097	      71.02966	      59.20410	      69.96155
       0.15729	      43.79272	      51.04065	      42.49573	      39.52026
       0.17039	      44.63196	      50.73547	      37.30774	      39.44397
       0.18350	      77.97241	      74.92065	      49.13330	      63.17139
       0.19661	      51.80359	      56.83899	      54.55017	      50.04883
       0.20972	      44.55566	      42.64832	      30.28870	      44.09790
       0.22282	      56.15234	      51.34583	      45.31860	      37.84180
       0.23593	      42.80090	      45.62378	      39.67285	      45.77637
       0.24904	      49.20959	      45.01343	      28.99170	      61.11145
       0.26214	      44.86084	      67.82532	      37.68921	      44.32678
       0.27525	      51.11694	      45.01343	      83.92334	      59.96704
       0.28836	      45.70007	      55.99976	      66.75720	      49.43848
       0.30147	      54.24500	      51.34583	      45.24231	      46.61560
       0.31457	      52.64282	      64.39209	      53.48206	      65.30762
       0.32768	      43.48755	      53.93982	      61.49292	      35.93445
       0.34079	      65.23132	      41.04614	      44.32678	      68.13049
       0.35389	      60.27222	      46.46301	      48.67554	      46.61560
       0.36700	      71.41113	      60.65369	      51.80359	      46.61560
       0.38011	      63.24768	      62.17957	      43.94531	      49.05701
       0.39322	      56.83899	      67.29126	      45.39490	      52.87170
       0.40632	      47.91260	      49.36218	      41.80908	      52.87170
       0.41943	      50.58289	      46.15784	      70.87708	      43.41125
       0.43254	      62.10327	      50.43030	      27.46582	      47.60742
       0.44564	      41.65649	      45.39490	      43.41125	      38.45215
       0.45875	      64.62097	      41.88538	      47.91260	      56.45752
       0.47186	      66.83350	      60.80627	      50.58289	      55.54199
       0.48497	      50.88806	      42.26685	      55.00793	      75.60730
       0.49807	      49.74365	      58.13599	      43.86902	      65.46021
       0.51118	      45.54749	      47.45483	      41.80908	      49.28589
       0.52429	      63.85803	      49.66736	      58.44116	      43.33496
       0.53740	      49.43848	      67.59644	      43.02979	      42.64832
       0.55050	      60.80627	      53.10059	      34.17969	      70.26672
       0.56361	      44.86084	      58.44116	      55.31311	      76.52283
       0.57672	      52.03247	      36.54480	      54.09241	      38.52844
       0.58982	      71.10596	      45.85266	      62.10327	      78.81165
       0.60293	      55.77087	      80.41382	      58.74634	      46.38672
       0.61604	      50.73547	      70.19043	      41.58020	      30.67017
       0.62915	      48.75183	      35.85815	      57.98340	      48.14148
       0.64225	      52.26135	      54.01611	      41.42761	      42.57202
       0.65536	      46.76819	      62.71362	      64.54468	      29.90723
       0.66847	      76.44653	      72.86072	      69.96155	      49.51477
       0.68157	     110.24475	      69.96155	      40.66467	      71.48743
       0.69468	      62.17957	      43.56384	      81.17676	      34.56116
       0.70779	      43.79272	      56.83899	      92.39197	      79.26941
       0.72090	      55.92346	      44.17419	      42.11426	      64.77356
       0.73400	      34.25598	      39.97803	      61.11145	      46.23413
       0.74711	      71.48743	      45.31860	      42.87720	      34.02710
