ALV-7004/USB-FAST
Date :	"11/11/2025"
Time :	"3:52:54 PM"
Samplename : 	""
SampMemo(0) : 	""
SampMemo(1) : 	""
SampMemo(2) : 	""
SampMemo(3) : 	""
SampMemo(4) : 	""
SampMemo(5) : 	""
SampMemo(6) : 	""
SampMemo(7) : 	""
SampMemo(8) : 	""
SampMemo(9) : 	""
Temperature [K] :	     298.16000
Viscosity [cp]  :	       0.89000
Refractive Index:	       1.33200
Wavelength [nm] :	       0.00000
Angle [°]       :	       0.00000
Duration [s]    :	         1
FloatDur [ms]   :	          944
Stop TP [ms]   :	     58044
Runs            :	         1
Mode            :	"A-CH0+1  A-CH2+3 "
MeanCR0 [kHz]   :	      60.16307
MeanCR1 [kHz]   :	      62.89270
MeanCR2 [kHz]   :	      60.76813
MeanCR3 [kHz]   :	      59.06317

"Correlation"
  3.12500E-006	 -1.00000E+000	 -1.00000E+000	 -1.00000E+000	 -1.00000E+000
  6.25000E-006	 -1.00000E+000	 -1.00000E+000	 -1.00000E+000	 -1.00000E+000
  9.37500E-006	 -1.00000E+000	 -1.00000E+000	 -1.00000E+000	 -1.00000E+000
  1.25000E-005	 -1.00000E+000	 -1.00000E+000	 -1.00000E+000	 -1.00000E+000
  1.56250E-005	 -1.00000E+000	 -1.00000E+000	 -1.00000E+000	 -1.00000E+000
  1.87500E-005	 -1.00000E+000	 -1.00000E+000	 -1.00000E+000	 -1.00000E+000
  2.18750E-005	 -9.06320E-001	  3.71599E-001	  1.11195E+000	 -7.08395E-001
  2.50000E-005	  1.15531E+001	  1.06586E+001	  1.14881E+001	  2.30088E+001
  2.81250E-005	  3.68401E+000	  8.85948E-001	  1.66289E+000	  6.87334E+000
  3.12500E-005	  1.43568E+000	  7.14498E-001	  1.02013E+000	  6.19293E+000
  3.43750E-005	  1.24832E+000	  9.71673E-001	  8.36478E-001	  5.31811E+000
  3.75000E-005	  7.79922E-001	  5.43048E-001	  7.44654E-001	  2.69367E+000
  4.06250E-005	  1.06096E+000	  4.57323E-001	  1.47925E+000	  2.88807E+000
  4.37500E-005	  1.34200E+000	  1.05740E+000	  6.52831E-001	  2.20766E+000
  4.68750E-005	  8.73603E-001	  8.00223E-001	  8.36478E-001	  2.20766E+000
  5.00000E-005	  5.92562E-001	  1.40030E+000	  9.28302E-001	  2.88807E+000
  5.62500E-005	  3.58362E-001	  6.71636E-001	  6.06919E-001	  1.52725E+000
  6.25000E-005	  8.73603E-001	  4.57323E-001	  5.15095E-001	  1.77025E+000
  6.87500E-005	  9.67283E-001	  9.28810E-001	  5.15095E-001	  1.77025E+000
  7.50000E-005	  1.20148E+000	  3.28736E-001	  5.61007E-001	  1.08984E+000
  8.12500E-005	  4.52042E-001	  1.14312E+000	  1.00631E-002	  9.92636E-001
  8.75000E-005	  7.33082E-001	  2.43011E-001	  4.69183E-001	  1.04124E+000
  9.37500E-005	  2.17842E-001	  9.71673E-001	  6.52830E-001	  7.49631E-001
  1.00000E-004	  4.98882E-001	  9.07379E-001	  6.98742E-001	  9.68335E-001
  1.12500E-004	  7.56502E-001	  3.28736E-001	  2.62579E-001	  8.71133E-001
  1.25000E-004	  7.09662E-001	  6.28773E-001	  5.15094E-001	  5.55228E-001
  1.37500E-004	  8.50182E-001	  4.35892E-001	  3.77359E-001	  5.30927E-001
  1.50000E-004	  1.71001E-001	  6.93067E-001	  5.61006E-001	  5.55228E-001
  1.62500E-004	  8.50182E-001	  2.64442E-001	  8.59434E-001	  7.25331E-001
  1.75000E-004	  8.73602E-001	  3.71598E-001	  5.38050E-001	  4.09425E-001
  1.87500E-004	  4.52042E-001	  4.35892E-001	  5.38050E-001	  3.85125E-001
  2.00000E-004	  5.69142E-001	  7.03782E-001	  5.26572E-001	  4.94476E-001
  2.25000E-004	  3.58361E-001	  3.71598E-001	  4.69182E-001	  4.21575E-001
  2.50000E-004	  4.63752E-001	  3.07304E-001	  6.52830E-001	  5.91678E-001
  2.75000E-004	  3.81781E-001	  5.21617E-001	  2.62578E-001	  5.67377E-001
  3.00000E-004	  5.80852E-001	  4.68038E-001	  6.18396E-001	  3.00073E-001
  3.25000E-004	  4.05201E-001	  5.75195E-001	  5.38050E-001	  5.18777E-001
  3.50000E-004	  5.34012E-001	  5.00185E-001	  4.34748E-001	  6.28129E-001
  3.75000E-004	  2.99811E-001	  6.50204E-001	  4.80660E-001	  4.21575E-001
  4.00000E-004	  4.34476E-001	  5.48405E-001	  3.94575E-001	  5.37001E-001
  4.50000E-004	  4.63751E-001	  4.73396E-001	  5.15093E-001	  4.82325E-001
  5.00000E-004	  5.16446E-001	  5.48405E-001	  5.43788E-001	  4.76250E-001
  5.50000E-004	  4.81316E-001	  4.09102E-001	  5.09354E-001	  3.30448E-001
  6.00000E-004	  4.52041E-001	  4.19818E-001	  6.35612E-001	  4.33724E-001
  6.50000E-004	  4.87171E-001	  5.85910E-001	  3.77358E-001	  3.42598E-001
  7.00000E-004	  4.46186E-001	  3.55524E-001	  5.03615E-001	  5.43076E-001
  7.50000E-004	  3.75926E-001	  6.28772E-001	  3.83097E-001	  4.09424E-001
  8.00000E-004	  2.85172E-001	  5.32330E-001	  4.60572E-001	  3.91198E-001
  9.00000E-004	  4.46185E-001	  4.92147E-001	  4.26138E-001	  4.54986E-001
  1.00000E-003	  4.52040E-001	  4.81431E-001	  4.86397E-001	  6.37239E-001
  1.10000E-003	  5.28155E-001	  4.97505E-001	  5.23701E-001	  5.24850E-001
  1.20000E-003	  4.72532E-001	  3.79633E-001	  4.43355E-001	  4.03348E-001
  1.30000E-003	  4.40330E-001	  4.94826E-001	  4.40485E-001	  4.48911E-001
  1.40000E-003	  3.75925E-001	  5.59119E-001	  3.85965E-001	  3.94235E-001
  1.50000E-003	  4.84242E-001	  4.38569E-001	  3.68748E-001	  5.09662E-001
  1.60000E-003	  5.00367E-001	  4.82768E-001	  4.44787E-001	  4.41315E-001
  1.80000E-003	  4.16932E-001	  4.06420E-001	  4.43352E-001	  4.88397E-001
  2.00000E-003	  4.03758E-001	  4.64016E-001	  4.63439E-001	  4.47390E-001
  2.20000E-003	  4.05222E-001	  4.43924E-001	  4.57700E-001	  3.88158E-001
  2.40000E-003	  4.18396E-001	  4.42585E-001	  4.08919E-001	  5.08141E-001
  2.60000E-003	  4.31570E-001	  3.80970E-001	  3.45790E-001	  4.48909E-001
  2.80000E-003	  4.09613E-001	  3.98383E-001	  4.18962E-001	  4.24608E-001
  3.00000E-003	  4.27179E-001	  3.98383E-001	  4.29005E-001	  4.94472E-001
  3.20000E-003	  4.46228E-001	  4.55304E-001	  4.03892E-001	  4.23085E-001
  3.60000E-003	  4.37445E-001	  4.33873E-001	  4.29000E-001	  3.90431E-001
  4.00000E-003	  4.25003E-001	  4.07754E-001	  4.09631E-001	  3.74484E-001
  4.40000E-003	  3.96459E-001	  3.95699E-001	  4.39043E-001	  3.60815E-001
  4.80000E-003	  3.57645E-001	  3.81635E-001	  4.39761E-001	  4.12453E-001
  5.20000E-003	  3.45935E-001	  4.00387E-001	  4.23286E-001	  4.17010E-001
  5.60000E-003	  3.73014E-001	  3.73598E-001	  4.26156E-001	  4.09416E-001
  6.00000E-003	  4.02290E-001	  4.14451E-001	  3.77374E-001	  3.73725E-001
  6.40000E-003	  3.65710E-001	  4.09466E-001	  3.55867E-001	  3.77133E-001
  7.20000E-003	  3.67906E-001	  3.83682E-001	  3.85638E-001	  4.01053E-001
  8.00000E-003	  3.80348E-001	  3.57227E-001	  3.29323E-001	  3.81309E-001
  8.80000E-003	  3.47047E-001	  3.70956E-001	  3.82769E-001	  4.05609E-001
  9.60000E-003	  3.71931E-001	  3.66268E-001	  3.68062E-001	  3.93839E-001
  1.04000E-002	  3.43388E-001	  3.88705E-001	  3.53714E-001	  3.77892E-001
  1.12000E-002	  4.00816E-001	  3.50195E-001	  3.53356E-001	  3.58908E-001
  1.20000E-002	  3.63491E-001	  3.54548E-001	  3.88508E-001	  3.80170E-001
  1.28000E-002	  3.46321E-001	  3.32853E-001	  3.85106E-001	  3.61002E-001
  1.44000E-002	  3.39734E-001	  3.51272E-001	  3.51029E-001	  3.44675E-001
  1.60000E-002	  3.44674E-001	  3.49095E-001	  3.28275E-001	  3.47713E-001
  1.76000E-002	  3.44308E-001	  3.30654E-001	  3.19689E-001	  3.16578E-001
  1.92000E-002	  3.07164E-001	  3.43524E-001	  3.47825E-001	  3.29108E-001
  2.08000E-002	  3.15581E-001	  3.24124E-001	  3.28634E-001	  3.08604E-001
  2.24000E-002	  3.27657E-001	  3.12738E-001	  3.20025E-001	  3.11642E-001
  2.40000E-002	  3.04580E-001	  2.72217E-001	  2.94916E-001	  2.84707E-001
  2.56000E-002	  2.73552E-001	  2.74363E-001	  3.02975E-001	  2.84482E-001
  2.88000E-002	  2.56626E-001	  2.85729E-001	  3.03895E-001	  3.12389E-001
  3.20000E-002	  2.79613E-001	  2.65111E-001	  2.77259E-001	  2.70149E-001
  3.52000E-002	  2.29911E-001	  2.44179E-001	  2.60040E-001	  2.43856E-001
  3.84000E-002	  2.23873E-001	  2.38109E-001	  2.62462E-001	  2.21074E-001
  4.16000E-002	  2.06672E-001	  2.27056E-001	  2.31205E-001	  2.41483E-001
  4.48000E-002	  1.98987E-001	  2.27119E-001	  2.22258E-001	  2.17679E-001
  4.80000E-002	  2.03928E-001	  2.23268E-001	  2.30531E-001	  2.19483E-001
  5.12000E-002	  1.90645E-001	  2.01108E-001	  2.13208E-001	  2.10447E-001
  5.76000E-002	  1.75455E-001	  1.84252E-001	  1.74009E-001	  1.71625E-001
  6.40000E-002	  1.76187E-001	  1.61601E-001	  1.76831E-001	  1.56913E-001
  7.04000E-002	  1.44115E-001	  1.40896E-001	  1.49565E-001	  1.44478E-001
  7.68000E-002	  1.34056E-001	  1.35621E-001	  1.42748E-001	  1.41489E-001
  8.32000E-002	  1.14337E-001	  1.21304E-001	  1.34182E-001	  1.33942E-001
  8.96000E-002	  1.07063E-001	  1.16634E-001	  1.22136E-001	  1.20939E-001
  9.60000E-002	  1.03677E-001	  1.07594E-001	  1.15742E-001	  1.04233E-001
  1.02400E-001	  9.21125E-002	  9.59383E-002	  1.04086E-001	  9.71607E-002
  1.15200E-001	  8.15236E-002	  8.28576E-002	  8.97240E-002	  7.71092E-002
  1.28000E-001	  6.38199E-002	  7.03111E-002	  6.77754E-002	  6.03561E-002
  1.40800E-001	  5.98933E-002	  6.68139E-002	  7.01978E-002	  5.92598E-002
  1.53600E-001	  4.01413E-002	  4.26962E-002	  5.92072E-002	  4.92220E-002
  1.66400E-001	  3.62886E-002	  4.74354E-002	  5.18420E-002	  4.72712E-002
  1.79200E-001	  2.96909E-002	  4.36628E-002	  3.78763E-002	  3.64450E-002
  1.92000E-001	  3.60508E-002	  3.81799E-002	  3.18203E-002	  3.83672E-002
  2.04800E-001	  2.81171E-002	  3.73312E-002	  2.88404E-002	  2.66080E-002
  2.30400E-001	  2.04639E-002	  2.97236E-002	  2.33284E-002	  2.20710E-002
  2.56000E-001	  1.45725E-002	  2.37398E-002	  1.88416E-002	  1.97278E-002
  2.81600E-001	  1.68382E-002	  2.11917E-002	  1.15441E-002	  1.26253E-002
  3.07200E-001	  9.47915E-003	  8.94973E-003	  1.19703E-002	  1.88096E-002
  3.32800E-001	  1.69381E-002	  8.12513E-003	  1.66075E-003	  1.35832E-002
  3.58400E-001	  1.00309E-002	  6.59373E-003	  9.69653E-003	  1.79506E-002
  3.84000E-001	  8.51312E-003	  8.28099E-003	  7.34932E-003	  8.58743E-003
  4.09600E-001	  7.96933E-003	  1.13369E-002	  7.14116E-003	  7.38741E-003
  4.60800E-001	  9.48911E-003	  1.73928E-002	  6.87900E-003	  3.72789E-003
  5.12000E-001	  9.30085E-003	  2.77384E-003	  1.93612E-003	  3.91873E-003
  5.63200E-001	  2.58683E-003	 -2.34998E-003	  8.06828E-003	  1.43740E-003
  6.14400E-001	 -6.12982E-003	 -7.06793E-003	  5.21361E-003	 -3.35948E-003
  6.65600E-001	 -3.98371E-003	 -7.92519E-004	  1.46625E-004	 -8.36506E-004
  7.16800E-001	 -3.99021E-003	 -9.68380E-004	 -9.16125E-003	  3.55681E-003
  7.68000E-001	 -9.70361E-003	  4.63747E-005	 -2.38685E-003	  4.32972E-003
  8.19200E-001	 -1.07654E-002	  4.25538E-003	 -1.84370E-003	  6.19344E-004
  9.21600E-001	 -7.50853E-003	  7.26267E-003	 -4.13194E-003	 -3.52780E-003
  1.02400E+000	 -3.81587E-003	  3.25636E-003	 -5.51311E-003	 -5.91761E-003
  1.12640E+000	 -5.33614E-003	  4.01823E-003	  5.91167E-003	 -4.53321E-003
  1.22880E+000	  5.52672E-005	  7.47635E-003	  4.12398E-003	 -5.41485E-003
  1.33120E+000	 -3.73839E-003	  8.09673E-003	  6.56936E-003	 -2.23861E-003
  1.43360E+000	 -2.91675E-003	  1.27788E-003	 -2.40533E-004	 -2.80662E-003
  1.53600E+000	 -4.96181E-003	  2.65836E-003	  5.66524E-004	 -1.03050E-002
  1.63840E+000	 -4.21103E-003	 -1.69327E-003	 -2.03763E-004	 -5.89804E-003
  1.84320E+000	  3.39049E-003	 -4.10178E-003	  3.60580E-003	 -3.24823E-003
  2.04800E+000	  6.42459E-003	 -1.66168E-003	  5.03383E-004	 -4.13111E-004
  2.25280E+000	  7.69535E-003	 -3.83209E-003	  4.97914E-003	  1.97701E-003
  2.45760E+000	  1.15365E-002	 -7.34899E-005	 -5.82525E-004	  5.30592E-003
  2.66240E+000	  2.94836E-003	  7.06597E-003	 -5.50880E-004	  9.34736E-003
  2.86720E+000	  6.95036E-003	  6.15458E-003	  1.70184E-003	  2.18737E-003
  3.07200E+000	  2.20990E-003	  1.89149E-003	  3.60106E-003	 -4.80640E-003
  3.27680E+000	  4.81165E-003	  1.89474E-003	  1.59788E-003	 -4.54682E-005
  3.68640E+000	  3.35491E-004	 -4.29823E-003	 -3.49175E-003	 -1.02805E-003
  4.09600E+000	 -3.61725E-003	 -4.51527E-004	 -7.81032E-004	 -4.46108E-003
  4.50560E+000	 -3.56951E-003	  7.02212E-003	 -9.26399E-004	 -1.82202E-003
  4.91520E+000	 -2.40000E-003	 -5.33666E-003	 -3.89486E-003	  5.91746E-003
  5.32480E+000	  3.13516E-003	 -1.73512E-003	 -3.69986E-003	 -2.21005E-003
  5.73440E+000	  1.21821E-003	 -2.59683E-003	 -5.49400E-004	 -9.66330E-004
  6.14400E+000	  1.21957E-004	 -2.45695E-003	 -3.40516E-003	  2.64032E-003
  6.55360E+000	  4.89955E-003	  4.07950E-004	  3.31446E-004	  2.55519E-003
  7.37280E+000	  6.31038E-004	  7.00934E-004	 -2.91521E-003	  2.22573E-003
  8.19200E+000	  3.95307E-003	  2.49846E-003	  8.86462E-004	  2.10946E-003
  9.01120E+000	 -1.44154E-003	  9.69710E-004	 -1.67016E-003	 -2.71566E-003
  9.83040E+000	 -6.98484E-004	  3.15323E-003	  3.84272E-003	  1.76450E-003
  1.06496E+001	 -8.25196E-004	 -6.00361E-003	  2.03369E-003	 -6.08307E-005
  1.14688E+001	  2.27387E-003	 -4.91819E-004	 -5.95736E-003	 -8.13637E-003
  1.22880E+001	 -1.62250E-003	 -3.74398E-004	 -3.67658E-003	 -9.32432E-004
  1.31072E+001	  1.77998E-005	 -1.49725E-003	 -3.17707E-003	  8.86337E-004
  1.47456E+001	  8.04682E-004	 -2.77002E-004	 -1.46066E-003	 -3.11980E-003
  1.63840E+001	  2.51389E-004	 -4.08043E-003	  1.15703E-003	  9.57216E-004
  1.80224E+001	  1.79891E-003	  1.13613E-003	 -9.72410E-004	  2.29425E-003
  1.96608E+001	 -2.01015E-003	 -8.68794E-004	 -2.42793E-004	 -3.90294E-004
  2.12992E+001	  1.98570E-004	 -1.48847E-003	  1.62761E-003	  8.78804E-004
  2.29376E+001	 -2.20291E-004	  3.63086E-004	 -2.01533E-003	  2.28567E-003
  2.45760E+001	 -2.89960E-003	  7.95205E-004	 -2.65115E-003	  2.57828E-003
  2.62144E+001	 -1.29922E-003	 -5.93559E-004	 -4.43699E-004	  1.25825E-003
  2.94912E+001	 -1.06495E-003	  7.48201E-004	  3.07126E-003	  1.07647E-003
  3.27680E+001	  1.04720E-003	  3.42504E-004	 -1.94174E-003	 -4.14245E-005
  3.60448E+001	  6.98705E-005	  1.14026E-003	 -6.30388E-004	 -1.12800E-004
  3.93216E+001	  1.20956E-003	 -4.04096E-003	 -3.83236E-004	 -3.27498E-003
  4.25984E+001	 -1.18904E-003	  3.11727E-004	 -1.53165E-003	  1.33519E-003
  4.58752E+001	 -5.34334E-004	  1.24228E-003	  3.30610E-004	 -1.80004E-003
  4.91520E+001	  8.18114E-004	 -1.62974E-003	 -6.27542E-004	  4.67777E-004
  5.24288E+001	 -1.73323E-003	 -2.30343E-005	 -2.25249E-004	  2.92404E-005
  5.89824E+001	 -5.35979E-004	 -8.06973E-004	  8.04460E-004	 -5.45394E-004
  6.55360E+001	  5.89916E-004	  4.02077E-004	  9.85867E-004	 -2.05462E-003
  7.20896E+001	 -5.98164E-004	  3.43965E-003	 -2.05283E-003	 -1.35806E-003
  7.86432E+001	 -7.46511E-004	  1.59167E-003	 -3.10837E-004	  1.13294E-003
  8.51968E+001	 -1.01877E-004	 -1.14402E-003	 -9.59638E-004	  2.59919E-004
  9.17504E+001	  6.38316E-005	 -7.43533E-004	  2.42513E-004	  6.37214E-004
  9.83040E+001	  5.91424E-004	 -4.09351E-004	  4.04177E-004	  8.77815E-004
  1.04858E+002	 -6.82609E-004	  7.37362E-004	 -1.64590E-003	 -1.18221E-003
  1.17965E+002	  7.21827E-004	 -1.78435E-003	  1.03286E-003	  8.35568E-004
  1.31072E+002	 -8.03551E-005	 -9.06393E-004	  5.08364E-004	 -8.55119E-004
  1.44179E+002	  8.67908E-004	  9.51137E-004	 -6.37935E-004	  1.07360E-003
  1.57286E+002	 -8.77416E-004	 -4.37604E-004	  6.21776E-004	 -1.16643E-003
  1.70394E+002	 -2.57558E-003	  4.27242E-004	 -6.53920E-004	  1.13820E-003
  1.83501E+002	 -9.11308E-004	 -6.40034E-004	  1.56608E-003	  9.32615E-004
  1.96608E+002	 -1.53855E-003	 -2.76026E-003	 -2.33272E-003	 -6.62328E-004
  2.09715E+002	  1.00579E-003	 -9.05100E-005	  3.33784E-004	  2.01724E-004
  2.35930E+002	  6.32169E-004	  9.93949E-005	  4.41264E-005	 -1.45690E-005
  2.62144E+002	  8.92874E-004	  1.01981E-003	  5.60167E-005	 -3.77518E-004
  2.88358E+002	 -2.04399E-005	 -3.11696E-004	  3.27131E-004	 -8.75697E-004
  3.14573E+002	 -6.03047E-004	  1.07791E-003	 -8.24679E-004	  3.55977E-004
  3.40787E+002	  3.09019E-005	 -4.17493E-004	  1.89111E-005	  4.26571E-004
  3.67002E+002	  6.46242E-004	 -2.82931E-004	  1.08538E-004	  4.08472E-004
  3.93216E+002	 -1.23022E-003	  6.47657E-005	  7.01059E-004	  4.26667E-004

"Count Rate"
       0.01311	      56.07605	      65.15503	      57.37305	      53.32947
       0.02621	      52.56653	      58.44116	      58.74634	      64.31580
       0.03932	      59.73816	      70.19043	      55.00793	      53.40576
       0.05243	      64.69727	      63.09509	      61.18774	      53.10059
       0.06554	      62.63733	      65.68909	      67.52014	      54.70276
       0.07864	      58.36487	      62.56104	      58.21228	      55.08423
       0.09175	      60.80627	      59.28040	      60.72998	      55.92346
       0.10486	      57.98340	      59.12781	      60.27222	      54.47388
       0.11796	      63.78174	      62.02698	      65.38391	      64.77356
       0.13107	      59.20410	      65.30762	      57.22046	      59.89075
       0.14418	      63.62915	      63.47656	      54.32129	      56.99158
       0.15729	      61.18774	      59.81445	      65.84167	      52.79541
       0.17039	      51.42212	      55.00793	      60.50110	      53.63464
       0.18350	      59.50928	      56.91528	      63.24768	      55.61829
       0.19661	      55.92346	      68.58826	      64.31580	      56.61011
       0.20972	      57.98340	      56.22864	      62.40845	      70.72449
       0.22282	      56.61011	      61.79810	      52.33765	      53.86353
       0.23593	      57.98340	      54.32129	      62.02698	      60.04333
       0.24904	      54.24500	      62.71362	      64.01062	      53.25317
       0.26214	      52.87170	      63.40027	      57.98340	      59.43298
       0.27525	      66.83350	      61.34033	      53.10059	      57.06787
       0.28836	      58.36487	      63.32397	      55.46570	      57.60193
       0.30147	      49.43848	      70.64819	      64.31580	      59.96704
       0.31457	      56.15234	      60.72998	      64.62097	      58.59375
       0.32768	      64.31580	      59.43298	      66.98608	      61.64551
       0.34079	      64.23950	      55.77087	      61.64551	      55.16052
       0.35389	      54.01611	      57.37305	      57.14417	      57.52563
       0.36700	      58.13599	      67.90161	      72.17407	      58.28857
       0.38011	      60.19592	      60.80627	      57.29675	      58.74634
       0.39322	      65.99426	      60.19592	      60.19592	      63.62915
       0.40632	      60.88257	      56.45752	      58.36487	      54.32129
       0.41943	      69.35120	      50.20142	      65.46021	      56.99158
       0.43254	      61.79810	      66.45203	      56.91528	      56.45752
       0.44564	      49.66736	      57.90710	      55.38940	      59.35669
       0.45875	      61.56921	      67.97791	      60.50110	      50.04883
       0.47186	      55.16052	      53.40576	      59.50928	      61.72180
       0.48497	      62.63733	      55.99976	      62.10327	      54.47388
       0.49807	      57.90710	      53.48206	      54.93164	      53.86353
       0.51118	      54.32129	      73.24219	      55.16052	      62.63733
       0.52429	      58.05969	      61.72180	      59.43298	      59.35669
       0.53740	      64.77356	      75.30212	      60.27222	      62.48474
       0.55050	      58.97522	      58.59375	      67.90161	      55.54199
       0.56361	      56.30493	      65.00244	      52.26135	      68.96973
       0.57672	      55.77087	      68.43567	      66.22314	      60.04333
       0.58982	      54.93164	      61.72180	      58.05969	      54.77905
       0.60293	      58.44116	      60.65369	      69.96155	      54.24500
       0.61604	      57.37305	      67.67273	      58.13599	      60.57739
       0.62915	      66.75720	      59.66187	      63.01880	      51.65100
       0.64225	      68.51196	      62.56104	      65.53650	      56.68640
       0.65536	      62.86621	      63.93433	      50.73547	      62.17957
       0.66847	      64.23950	      56.15234	      58.82263	      56.15234
       0.68157	      57.52563	      68.20679	      58.82263	      65.23132
       0.69468	      52.33765	      59.81445	      55.61829	      63.01880
       0.70779	      63.85803	      57.14417	      59.58557	      69.19861
       0.72090	      60.34851	      60.88257	      63.70544	      58.97522
       0.73400	      51.19324	      57.06787	      63.55286	      58.74634
       0.74711	      60.42480	      63.78174	      59.66187	      57.67822
