ALV-7004/USB-FAST
Date :	"11/11/2025"
Time :	"3:58:03 PM"
Samplename : 	""
SampMemo(0) : 	""
SampMemo(1) : 	""
SampMemo(2) : 	""
SampMemo(3) : 	""
SampMemo(4) : 	""
SampMemo(5) : 	""
SampMemo(6) : 	""
SampMemo(7) : 	""
SampMemo(8) : 	""
SampMemo(9) : 	""
Temperature [K] :	     298.16000
Viscosity [cp]  :	       0.89000
Refractive Index:	       1.33200
Wavelength [nm] :	       0.00000
Angle [°]       :	       0.00000
Duration [s]    :	         1
FloatDur [ms]   :	          944
Stop TP [ms]   :	     67952
Runs            :	         1
Mode            :	"A-CH0+1  A-CH2+3 "
MeanCR0 [kHz]   :	      53.66431
MeanCR1 [kHz]   :	      54.73031
MeanCR2 [kHz]   :	      54.71123
MeanCR3 [kHz]   :	      53.03701

"Correlation"
  3.12500E-006	 -1.00000E+000	 -1.00000E+000	 -1.00000E+000	 -1.00000E+000
  6.25000E-006	 -1.00000E+000	 -1.00000E+000	 -1.00000E+000	 -1.00000E+000
  9.37500E-006	 -1.00000E+000	 -1.00000E+000	 -1.00000E+000	 -1.00000E+000
  1.25000E-005	 -1.00000E+000	 -1.00000E+000	 -1.00000E+000	 -1.00000E+000
  1.56250E-005	 -1.00000E+000	 -1.00000E+000	 -1.00000E+000	 -1.00000E+000
  1.87500E-005	 -1.00000E+000	 -1.00000E+000	 -1.00000E+000	 -1.00000E+000
  2.18750E-005	 -7.64513E-001	  5.84819E-001	  3.59364E-001	 -6.38365E-001
  2.50000E-005	  1.07743E+001	  1.31502E+001	  1.56522E+001	  2.68459E+001
  2.81250E-005	  4.18071E+000	  2.50924E+000	  1.37889E+000	  9.24633E+000
  3.12500E-005	  1.70810E+000	  3.58417E-001	  1.37889E+000	  4.30398E+000
  3.43750E-005	  7.66150E-001	  1.15083E+000	  1.03905E+000	  5.62998E+000
  3.75000E-005	  2.95177E-001	  1.26403E+000	  5.85925E-001	  3.94235E+000
  4.06250E-005	  1.70810E+000	  4.71618E-001	  1.03905E+000	  3.46017E+000
  4.37500E-005	  7.66150E-001	  8.11222E-001	  4.72644E-001	  2.85744E+000
  4.68750E-005	  1.77433E-001	  8.11222E-001	  6.99205E-001	  2.73690E+000
  5.00000E-005	  1.06051E+000	  6.98021E-001	  4.72644E-001	  2.01363E+000
  5.62500E-005	  5.89535E-001	  6.98021E-001	  1.20897E+000	  2.07390E+000
  6.25000E-005	  5.89535E-001	  9.81024E-001	  6.99205E-001	  1.10954E+000
  6.87500E-005	  1.77433E-001	  4.71618E-001	  7.55845E-001	  1.59172E+000
  7.50000E-005	  9.42765E-001	  6.98021E-001	  9.82406E-001	  1.83281E+000
  8.12500E-005	  1.06051E+000	  3.01816E-001	  7.55845E-001	  7.47904E-001
  8.75000E-005	  1.18562E-001	  8.67823E-001	  7.61630E-002	  3.25996E-001
  9.37500E-005	  1.77433E-001	  8.11222E-001	  8.12485E-001	  1.29036E+000
  1.00000E-004	  2.95177E-001	  6.41420E-001	  7.55845E-001	  1.16981E+000
  1.12500E-004	  4.12920E-001	  4.99918E-001	  7.27525E-001	  8.38312E-001
  1.25000E-004	  6.77842E-001	  4.71618E-001	  5.57604E-001	  8.98585E-001
  1.37500E-004	  3.24612E-001	  5.28218E-001	  4.16004E-001	  4.46541E-001
  1.50000E-004	  5.01227E-001	  6.13119E-001	  6.99205E-001	  5.06813E-001
  1.62500E-004	  5.30663E-001	  6.13119E-001	  1.04483E-001	  8.98585E-001
  1.75000E-004	  6.18971E-001	  6.41420E-001	  6.14244E-001	  2.95859E-001
  1.87500E-004	  9.72201E-001	  4.43317E-001	  4.16004E-001	  6.27358E-001
  2.00000E-004	  4.71791E-001	  6.27269E-001	  5.00964E-001	  6.42426E-001
  2.25000E-004	  6.92560E-001	  6.41419E-001	  6.70884E-001	  4.76677E-001
  2.50000E-004	  7.66150E-001	  3.86716E-001	  3.45203E-001	  5.21881E-001
  2.75000E-004	  2.80458E-001	  2.87665E-001	  6.85044E-001	  5.67086E-001
  3.00000E-004	  3.68766E-001	  4.15017E-001	  4.58484E-001	  4.91745E-001
  3.25000E-004	  4.57073E-001	  4.00867E-001	  6.42564E-001	  6.42426E-001
  3.50000E-004	  4.86509E-001	  5.28218E-001	  8.83285E-001	  5.21881E-001
  3.75000E-004	  4.42355E-001	  4.57467E-001	  6.14244E-001	  7.02699E-001
  4.00000E-004	  5.15944E-001	  5.56518E-001	  6.07163E-001	  5.97221E-001
  4.50000E-004	  5.52739E-001	  4.85767E-001	  3.73523E-001	  5.29415E-001
  5.00000E-004	  3.83483E-001	  6.20193E-001	  5.29283E-001	  5.67085E-001
  5.50000E-004	  3.68765E-001	  3.51340E-001	  6.42563E-001	  4.01336E-001
  6.00000E-004	  3.98201E-001	  3.79641E-001	  3.52283E-001	  4.61608E-001
  6.50000E-004	  3.76124E-001	  4.22091E-001	  5.57603E-001	  5.36949E-001
  7.00000E-004	  3.17253E-001	  4.15016E-001	  3.52283E-001	  6.04755E-001
  7.50000E-004	  5.74816E-001	  5.14067E-001	  6.70883E-001	  4.91744E-001
  8.00000E-004	  6.07930E-001	  7.05093E-001	  4.83262E-001	  5.70851E-001
  9.00000E-004	  4.64430E-001	  5.42366E-001	  4.65562E-001	  4.80442E-001
  1.00000E-003	  5.34341E-001	  6.76793E-001	  3.59362E-001	  5.21879E-001
  1.10000E-003	  4.82828E-001	  5.52979E-001	  5.11582E-001	  5.70851E-001
  1.20000E-003	  5.85853E-001	  5.45904E-001	  3.87682E-001	  5.14345E-001
  1.30000E-003	  4.27636E-001	  4.53928E-001	  4.23082E-001	  3.93800E-001
  1.40000E-003	  5.30661E-001	  4.82228E-001	  4.72642E-001	  4.57840E-001
  1.50000E-003	  3.94520E-001	  3.19501E-001	  5.46982E-001	  3.74965E-001
  1.60000E-003	  5.23299E-001	  3.97325E-001	  5.13349E-001	  4.74789E-001
  1.80000E-003	  5.12261E-001	  4.64538E-001	  4.07149E-001	  4.71022E-001
  2.00000E-003	  4.31313E-001	  5.03451E-001	  4.90339E-001	  4.59721E-001
  2.20000E-003	  5.01223E-001	  4.61000E-001	  4.35469E-001	  4.23934E-001
  2.40000E-003	  4.12915E-001	  4.30931E-001	  4.15999E-001	  4.06982E-001
  2.60000E-003	  3.98198E-001	  5.70664E-001	  5.31049E-001	  4.87973E-001
  2.80000E-003	  4.86505E-001	  3.93787E-001	  4.95649E-001	  4.93624E-001
  3.00000E-003	  3.96358E-001	  4.22088E-001	  4.83259E-001	  4.48420E-001
  3.20000E-003	  4.41426E-001	  4.77799E-001	  4.31924E-001	  4.06036E-001
  3.60000E-003	  4.31308E-001	  4.32695E-001	  4.14225E-001	  4.11686E-001
  4.00000E-003	  4.09231E-001	  4.18545E-001	  3.93870E-001	  4.35230E-001
  4.40000E-003	  4.41426E-001	  3.97320E-001	  4.34579E-001	  4.31463E-001
  4.80000E-003	  4.25789E-001	  4.45077E-001	  3.99180E-001	  3.97560E-001
  5.20000E-003	  4.39587E-001	  4.03511E-001	  3.46965E-001	  4.15453E-001
  5.60000E-003	  3.89914E-001	  3.91129E-001	  3.79710E-001	  4.41823E-001
  6.00000E-003	  3.49440E-001	  3.61945E-001	  3.67320E-001	  4.36172E-001
  6.40000E-003	  3.34253E-001	  3.28330E-001	  4.00055E-001	  3.42929E-001
  7.20000E-003	  3.64149E-001	  3.95542E-001	  3.47398E-001	  3.48580E-001
  8.00000E-003	  3.36553E-001	  4.00848E-001	  3.47841E-001	  3.15148E-001
  8.80000E-003	  3.41612E-001	  4.03943E-001	  3.57133E-001	  3.66473E-001
  9.60000E-003	  2.89640E-001	  3.52208E-001	  3.65983E-001	  3.66002E-001
  1.04000E-002	  3.60009E-001	  3.65473E-001	  3.44301E-001	  3.81541E-001
  1.12000E-002	  3.12637E-001	  3.46459E-001	  3.35893E-001	  3.09497E-001
  1.20000E-002	  3.15856E-001	  3.10200E-001	  3.19078E-001	  3.47167E-001
  1.28000E-002	  3.33545E-001	  3.17333E-001	  3.20414E-001	  3.16543E-001
  1.44000E-002	  3.13769E-001	  3.33695E-001	  2.90127E-001	  3.23606E-001
  1.60000E-002	  2.89623E-001	  3.30600E-001	  2.96544E-001	  3.14188E-001
  1.76000E-002	  2.58118E-001	  3.36348E-001	  3.07385E-001	  2.87139E-001
  1.92000E-002	  2.87783E-001	  2.82424E-001	  3.04730E-001	  2.77747E-001
  2.08000E-002	  2.91462E-001	  2.70484E-001	  2.40124E-001	  2.91874E-001
  2.24000E-002	  2.66192E-001	  2.84635E-001	  2.99641E-001	  2.79892E-001
  2.40000E-002	  2.82749E-001	  2.40192E-001	  2.52736E-001	  2.52109E-001
  2.56000E-002	  2.66527E-001	  2.58939E-001	  2.44550E-001	  2.36065E-001
  2.88000E-002	  2.18029E-001	  2.37356E-001	  2.08261E-001	  2.32298E-001
  3.20000E-002	  1.93791E-001	  2.04806E-001	  2.03701E-001	  2.09955E-001
  3.52000E-002	  2.02875E-001	  2.17188E-001	  1.76928E-001	  2.09720E-001
  3.84000E-002	  1.92871E-001	  1.89904E-001	  1.70622E-001	  1.84998E-001
  4.16000E-002	  1.92549E-001	  1.76859E-001	  1.64979E-001	  1.76875E-001
  4.48000E-002	  1.90595E-001	  1.58617E-001	  1.54823E-001	  1.69459E-001
  4.80000E-002	  1.47014E-001	  1.51984E-001	  1.56284E-001	  1.43677E-001
  5.12000E-002	  1.38868E-001	  1.34863E-001	  1.32555E-001	  1.44743E-001
  5.76000E-002	  1.23208E-001	  1.30606E-001	  1.17851E-001	  1.22552E-001
  6.40000E-002	  1.15698E-001	  9.25599E-002	  9.87435E-002	  8.70000E-002
  7.04000E-002	  9.31254E-002	  9.61321E-002	  8.95047E-002	  1.07307E-001
  7.68000E-002	  6.75983E-002	  7.98239E-002	  6.18233E-002	  7.55219E-002
  8.32000E-002	  7.28514E-002	  7.91531E-002	  5.40027E-002	  7.15782E-002
  8.96000E-002	  6.21209E-002	  8.49574E-002	  6.35177E-002	  6.60452E-002
  9.60000E-002	  5.67737E-002	  4.55436E-002	  7.11518E-002	  4.55025E-002
  1.02400E-001	  5.04469E-002	  5.67036E-002	  4.68985E-002	  4.59643E-002
  1.15200E-001	  4.58968E-002	  4.56602E-002	  5.04395E-002	  4.06374E-002
  1.28000E-001	  2.86110E-002	  4.70147E-002	  3.11345E-002	  2.13898E-002
  1.40800E-001	  3.92766E-002	  3.03267E-002	  2.51743E-002	  3.03749E-002
  1.53600E-001	  2.91860E-002	  1.32801E-002	  2.65022E-002	  2.83737E-002
  1.66400E-001	  1.91040E-002	  2.07984E-002	  2.71064E-002	  2.17225E-002
  1.79200E-001	  2.72396E-002	  2.14696E-002	  1.76536E-002	  2.37647E-002
  1.92000E-001	  9.41603E-003	  1.11483E-002	  2.46600E-002	  1.25808E-002
  2.04800E-001	  1.48094E-002	  1.03230E-002	  2.69407E-002	  1.34684E-002
  2.30400E-001	  1.46452E-002	  4.09467E-003	  2.37551E-002	  8.00315E-003
  2.56000E-001	  7.76873E-003	 -2.24162E-003	  1.39566E-002	  9.31289E-003
  2.81600E-001	 -2.72064E-003	 -5.31020E-003	 -7.32257E-004	  9.75438E-003
  3.07200E-001	  1.36277E-002	 -4.81260E-003	 -3.50481E-004	  4.98632E-003
  3.32800E-001	  8.52501E-003	 -2.15869E-003	  3.53380E-003	  1.20060E-002
  3.58400E-001	  2.45031E-003	 -5.10287E-003	 -5.58750E-003	  3.47992E-003
  3.84000E-001	  5.11842E-003	 -1.63895E-003	 -4.07941E-003	  3.24980E-003
  4.09600E-001	  7.94749E-003	  3.89356E-003	  2.58538E-003	  3.79497E-003
  4.60800E-001	  7.62247E-003	  7.98748E-004	  1.92686E-003	  6.46836E-003
  5.12000E-001	  9.65774E-003	  1.87510E-004	 -4.13711E-003	  2.19156E-003
  5.63200E-001	  4.14613E-003	 -2.07587E-003	 -9.95216E-003	 -7.83937E-003
  6.14400E-001	  3.13118E-003	 -6.49027E-004	 -6.53623E-003	 -1.41356E-002
  6.65600E-001	 -4.15225E-004	 -2.75884E-003	 -3.56413E-003	 -2.46895E-003
  7.16800E-001	 -2.22118E-003	  4.84153E-003	 -3.05890E-003	 -1.30496E-003
  7.68000E-001	 -1.58545E-003	  4.59137E-003	 -5.08821E-003	  5.10516E-003
  8.19200E-001	 -3.65345E-003	 -7.88289E-004	  9.48815E-004	  1.26671E-003
  9.21600E-001	  2.49748E-003	  5.29690E-003	 -3.78674E-003	 -1.78880E-003
  1.02400E+000	 -2.24984E-003	  5.32177E-003	  1.30637E-004	 -8.06379E-003
  1.12640E+000	 -1.12941E-002	  1.12142E-002	  7.21702E-003	  4.64782E-003
  1.22880E+000	 -6.90495E-003	  6.99577E-003	  7.23730E-003	 -1.46660E-003
  1.33120E+000	 -8.27623E-004	  3.65368E-004	  1.34970E-003	 -7.85750E-003
  1.43360E+000	 -2.08864E-003	  1.05550E-003	 -4.08496E-003	  2.87940E-003
  1.53600E+000	  1.99422E-004	  8.12845E-003	 -8.49187E-004	  7.20368E-004
  1.63840E+000	 -4.66519E-004	 -2.07679E-003	 -9.98906E-004	  2.87137E-003
  1.84320E+000	  1.05532E-003	 -5.81722E-003	 -1.03912E-003	  2.82826E-003
  2.04800E+000	  6.22045E-003	 -1.35843E-003	 -7.77385E-004	  5.64913E-003
  2.25280E+000	  2.76424E-003	 -5.23007E-003	  2.86595E-003	  1.86814E-003
  2.45760E+000	  4.59374E-003	  4.35758E-003	  1.02592E-003	  4.64247E-003
  2.66240E+000	  1.61170E-003	  1.29295E-003	 -2.67153E-003	 -1.60386E-003
  2.86720E+000	  6.01403E-003	  3.13441E-003	 -3.86552E-005	 -7.12819E-003
  3.07200E+000	  2.60455E-003	  2.85678E-003	  1.36855E-004	  1.56515E-003
  3.27680E+000	  2.84301E-003	 -1.95253E-003	 -1.33152E-003	  1.05626E-003
  3.68640E+000	 -3.81574E-003	  9.89358E-004	  1.00026E-003	  4.28455E-003
  4.09600E+000	 -2.09463E-003	  4.85871E-004	 -1.71131E-003	 -8.24170E-004
  4.50560E+000	 -3.36176E-003	 -3.35591E-003	  3.69976E-004	 -3.12415E-003
  4.91520E+000	 -5.44273E-003	  2.72528E-003	 -5.58168E-004	  5.68423E-004
  5.32480E+000	 -4.59272E-003	 -3.90278E-003	 -5.63518E-003	  1.28681E-003
  5.73440E+000	 -5.14189E-003	  2.39533E-003	 -9.95839E-004	 -2.67215E-003
  6.14400E+000	  5.30011E-003	 -2.50521E-003	  7.84587E-004	 -4.30582E-003
  6.55360E+000	  1.27428E-003	 -3.89889E-003	  5.09694E-004	 -1.57929E-003
  7.37280E+000	 -2.51861E-003	  1.60489E-003	 -3.03395E-003	  5.14443E-003
  8.19200E+000	 -7.92464E-004	  1.09996E-003	 -5.50063E-003	 -1.02164E-003
  9.01120E+000	 -3.38775E-004	  3.23772E-003	 -2.29399E-003	 -7.92457E-004
  9.83040E+000	  6.19798E-006	  1.72128E-003	  1.83680E-003	 -1.91017E-003
  1.06496E+001	  1.53269E-003	  2.32363E-003	  4.43261E-004	  2.80748E-004
  1.14688E+001	  1.37333E-003	 -1.98287E-003	 -2.42892E-003	 -1.60941E-003
  1.22880E+001	  1.54539E-003	 -1.39124E-003	  1.01539E-003	  1.65281E-003
  1.31072E+001	  7.16164E-004	 -3.55629E-003	 -3.45276E-004	 -3.37240E-005
  1.47456E+001	  1.58490E-003	 -2.03239E-003	  1.24465E-003	  7.66982E-004
  1.63840E+001	  1.11181E-003	 -4.86153E-004	 -1.76617E-003	  5.45383E-004
  1.80224E+001	  2.29124E-003	 -1.09459E-003	  6.44478E-004	 -1.49575E-003
  1.96608E+001	  8.20989E-004	  4.01504E-003	 -6.49539E-004	 -2.12833E-004
  2.12992E+001	 -1.37209E-003	 -1.94203E-003	  2.40393E-003	  1.47699E-003
  2.29376E+001	  5.56076E-004	 -1.16968E-003	 -4.23084E-005	  1.37368E-003
  2.45760E+001	 -2.00103E-003	  2.59262E-004	  1.02353E-003	 -2.18251E-004
  2.62144E+001	  1.50289E-004	 -4.39863E-005	  3.73838E-005	  8.97260E-004
  2.94912E+001	  2.29372E-003	  3.90699E-004	 -6.71681E-004	 -1.28378E-003
  3.27680E+001	 -3.06095E-004	 -6.96763E-004	 -1.88312E-004	 -1.83088E-003
  3.60448E+001	 -1.42035E-003	  1.31927E-003	 -9.25698E-004	  9.83496E-004
  3.93216E+001	  9.46899E-004	  1.05717E-003	  2.01221E-004	 -6.86335E-004
  4.25984E+001	 -6.79619E-004	  9.77421E-004	 -1.09879E-003	  1.78432E-003
  4.58752E+001	  1.20876E-003	 -9.15766E-004	  1.64232E-003	 -9.16180E-004
  4.91520E+001	 -1.66600E-003	  2.00032E-004	 -1.28064E-004	  6.57397E-004
  5.24288E+001	  7.17073E-005	 -2.22200E-004	 -1.83337E-003	 -5.97782E-004
  5.89824E+001	  2.52368E-004	 -6.26833E-004	  4.41000E-004	 -2.34545E-004
  6.55360E+001	  2.40503E-004	  3.13770E-004	 -4.63093E-004	 -2.20475E-004
  7.20896E+001	  9.43399E-004	  2.41484E-004	 -1.02614E-003	  6.28172E-004
  7.86432E+001	 -5.60351E-004	 -2.05187E-004	  4.09305E-004	 -1.30169E-003
  8.51968E+001	  1.84681E-004	 -9.77614E-004	  4.56360E-005	  1.05805E-003
  9.17504E+001	 -4.17165E-004	 -2.01604E-003	  1.01337E-004	  6.04322E-004
  9.83040E+001	  1.54635E-004	 -2.92020E-005	 -7.18412E-004	  9.10466E-006
  1.04858E+002	 -3.27898E-004	  1.76351E-004	  1.11456E-003	  5.53290E-004
  1.17965E+002	 -4.33153E-004	  2.27619E-005	  7.46550E-004	  2.21457E-004
  1.31072E+002	 -5.12578E-004	  5.60216E-004	 -1.84200E-004	  1.20055E-003
  1.44179E+002	 -1.49036E-003	  5.18371E-004	 -5.89693E-004	 -5.91565E-004
  1.57286E+002	 -7.79869E-004	  3.60897E-004	 -1.51750E-004	 -6.09659E-004
  1.70394E+002	 -9.00277E-004	  8.67728E-004	 -1.13040E-004	 -7.73887E-004
  1.83501E+002	  1.63497E-004	  1.37430E-003	 -9.34615E-005	  5.55979E-004
  1.96608E+002	  3.81234E-004	 -9.51547E-004	 -4.08903E-004	 -4.08461E-004
  2.09715E+002	 -1.54736E-003	 -6.95648E-004	  4.01984E-004	  8.04975E-004
  2.35930E+002	  4.44102E-004	 -8.81324E-004	  2.48543E-004	 -6.23398E-004
  2.62144E+002	 -2.99235E-004	 -1.70930E-004	 -3.48126E-004	  6.23002E-004
  2.88358E+002	  9.32552E-004	  1.60869E-004	  3.01919E-004	 -3.47251E-004
  3.14573E+002	  1.32185E-004	  6.43369E-004	  8.76409E-005	  1.14951E-004
  3.40787E+002	  9.01610E-004	  5.36107E-004	 -1.68597E-004	  3.97264E-004
  3.67002E+002	  8.11870E-004	 -1.31957E-004	 -3.44559E-004	 -1.43152E-003
  3.93216E+002	 -1.27337E-004	 -1.43806E-003	 -1.20313E-004	 -8.56528E-004

"Count Rate"
       0.01311	      51.72729	      51.42212	      57.83081	      49.74365
       0.02621	      50.04883	      58.51746	      59.66187	      50.81177
       0.03932	      52.10876	      60.04333	      48.37036	      54.32129
       0.05243	      53.71094	      46.84448	      51.72729	      63.01880
       0.06554	      52.94800	      56.30493	      58.82263	      53.17688
       0.07864	      56.61011	      52.18506	      53.63464	      52.26135
       0.09175	      59.96704	      50.35400	      51.11694	      53.55835
       0.10486	      53.71094	      61.64551	      55.69458	      49.13330
       0.11796	      49.59106	      53.10059	      49.13330	      52.87170
       0.13107	      55.92346	      52.94800	      55.61829	      49.89624
       0.14418	      55.99976	      52.41394	      51.87988	      52.10876
       0.15729	      51.87988	      52.10876	      57.98340	      47.76001
       0.17039	      57.14417	      53.93982	      48.06519	      53.40576
       0.18350	      55.23682	      55.00793	      53.93982	      52.18506
       0.19661	      54.39758	      49.43848	      52.79541	      51.57471
       0.20972	      55.77087	      52.49023	      55.38940	      50.96436
       0.22282	      52.26135	      53.32947	      52.41394	      59.12781
       0.23593	      48.21777	      51.87988	      59.12781	      51.57471
       0.24904	      52.26135	      60.88257	      53.93982	      49.89624
       0.26214	      53.32947	      50.88806	      52.26135	      47.30225
       0.27525	      46.46301	      55.38940	      46.00525	      59.20410
       0.28836	      53.48206	      61.41663	      49.13330	      53.86353
       0.30147	      52.56653	      48.52295	      55.77087	      52.56653
       0.31457	      53.17688	      46.23413	      55.92346	      60.95886
       0.32768	      50.73547	      52.94800	      55.23682	      53.86353
       0.34079	      47.60742	      53.40576	      65.46021	      54.55017
       0.35389	      55.31311	      50.12512	      57.44934	      50.81177
       0.36700	      55.46570	      52.33765	      55.38940	      50.65918
       0.38011	      53.71094	      50.81177	      51.04065	      55.84717
       0.39322	      55.61829	      52.71912	      53.78723	      47.22595
       0.40632	      58.89893	      57.67822	      53.93982	      59.20410
       0.41943	      54.32129	      56.15234	      56.76270	      48.52295
       0.43254	      52.41394	      55.08423	      51.80359	      54.32129
       0.44564	      53.55835	      54.47388	      56.99158	      45.24231
       0.45875	      52.94800	      51.19324	      50.96436	      54.39758
       0.47186	      52.18506	      56.53381	      62.17957	      47.53113
       0.48497	      59.28040	      53.40576	      49.28589	      58.36487
       0.49807	      47.30225	      51.42212	      50.43030	      57.44934
       0.51118	      45.39490	      52.87170	      54.85535	      53.48206
       0.52429	      51.34583	      57.83081	      54.93164	      52.94800
       0.53740	      50.50659	      59.05151	      50.50659	      53.71094
       0.55050	      61.34033	      55.99976	      57.52563	      47.37854
       0.56361	      45.16602	      52.87170	      54.39758	      54.32129
       0.57672	      49.89624	      57.52563	      50.50659	      47.60742
       0.58982	      52.03247	      60.95886	      63.32397	      45.47119
       0.60293	      47.45483	      55.54199	      48.98071	      56.99158
       0.61604	      52.79541	      56.38123	      55.38940	      56.83899
       0.62915	      43.25867	      51.34583	      54.01611	      52.87170
       0.64225	      53.17688	      50.43030	      55.61829	      47.14966
       0.65536	      52.79541	      55.54199	      53.48206	      47.76001
       0.66847	      54.16870	      47.98889	      54.39758	      50.81177
       0.68157	      50.50659	      54.93164	      52.41394	      48.14148
       0.69468	      50.73547	      53.93982	      54.55017	      48.44666
       0.70779	      48.82813	      58.67004	      51.57471	      46.61560
       0.72090	      54.32129	      58.82263	      49.13330	      46.76819
       0.73400	      58.05969	      51.04065	      49.97253	      53.86353
       0.74711	      58.59375	      56.22864	      57.83081	      56.68640
