ALV-7004/USB-FAST
Date :	"11/11/2025"
Time :	"3:59:42 PM"
Samplename : 	""
SampMemo(0) : 	""
SampMemo(1) : 	""
SampMemo(2) : 	""
SampMemo(3) : 	""
SampMemo(4) : 	""
SampMemo(5) : 	""
SampMemo(6) : 	""
SampMemo(7) : 	""
SampMemo(8) : 	""
SampMemo(9) : 	""
Temperature [K] :	     298.16000
Viscosity [cp]  :	       0.89000
Refractive Index:	       1.33200
Wavelength [nm] :	       0.00000
Angle [°]       :	       0.00000
Duration [s]    :	         1
FloatDur [ms]   :	          944
Stop TP [ms]   :	     68401
Runs            :	         1
Mode            :	"A-CH0+1  A-CH2+3 "
MeanCR0 [kHz]   :	      56.49461
MeanCR1 [kHz]   :	      59.07906
MeanCR2 [kHz]   :	      56.82945
MeanCR3 [kHz]   :	      55.81326

"Correlation"
  3.12500E-006	 -1.00000E+000	 -1.00000E+000	 -1.00000E+000	 -1.00000E+000
  6.25000E-006	 -1.00000E+000	 -1.00000E+000	 -1.00000E+000	 -1.00000E+000
  9.37500E-006	 -1.00000E+000	 -1.00000E+000	 -1.00000E+000	 -1.00000E+000
  1.25000E-005	 -1.00000E+000	 -1.00000E+000	 -1.00000E+000	 -1.00000E+000
  1.56250E-005	 -1.00000E+000	 -1.00000E+000	 -1.00000E+000	 -1.00000E+000
  1.87500E-005	 -1.00000E+000	 -1.00000E+000	 -1.00000E+000	 -1.00000E+000
  2.18750E-005	 -8.93759E-001	  4.57242E-001	  1.09986E+000	 -8.91149E-001
  2.50000E-005	  1.28114E+001	  1.34753E+001	  1.02343E+001	  2.54508E+001
  2.81250E-005	  3.03717E+000	  2.59453E+000	  2.46477E+000	  9.55856E+000
  3.12500E-005	  1.01859E+000	  1.81733E+000	  7.84882E-001	  4.33370E+000
  3.43750E-005	  1.54979E+000	  6.51541E-001	  6.79889E-001	  3.24519E+000
  3.75000E-005	  6.99861E-001	  1.52589E+000	  6.79889E-001	  4.66026E+000
  4.06250E-005	  4.87379E-001	  2.62943E-001	  6.79889E-001	  2.15668E+000
  4.37500E-005	  5.93620E-001	  9.42989E-001	  9.94868E-001	  2.26553E+000
  4.68750E-005	  1.44355E+000	  6.51541E-001	  1.93981E+000	  2.04783E+000
  5.00000E-005	  9.12344E-001	  9.91563E-001	  1.20485E+000	  1.77570E+000
  5.62500E-005	  4.87379E-001	  4.57242E-001	  6.79889E-001	  2.04783E+000
  6.25000E-005	  6.99861E-001	  1.08871E+000	  6.79889E-001	  1.83013E+000
  6.87500E-005	  6.46741E-001	  7.48690E-001	  8.37378E-001	  1.06817E+000
  7.50000E-005	  4.34258E-001	  2.62943E-001	  1.04736E+000	  1.55800E+000
  8.12500E-005	  8.59223E-001	  2.14368E-001	  7.84882E-001	  1.61243E+000
  8.75000E-005	  2.21775E-001	  3.11517E-001	  7.84882E-001	  1.06817E+000
  9.37500E-005	  1.07171E+000	  5.54391E-001	  8.37378E-001	  9.04894E-001
  1.00000E-004	  1.07171E+000	  7.24402E-001	  8.89875E-001	  7.14404E-001
  1.12500E-004	  6.46741E-001	  4.08667E-001	  6.27392E-001	  4.42277E-001
  1.25000E-004	  7.52982E-001	  7.24402E-001	  3.64910E-001	  5.78340E-001
  1.37500E-004	  4.60818E-001	  4.32954E-001	  4.69903E-001	  4.15064E-001
  1.50000E-004	  5.40499E-001	  7.72977E-001	  4.96151E-001	  9.32106E-001
  1.62500E-004	  3.81137E-001	  6.27253E-001	  5.48647E-001	  4.96702E-001
  1.75000E-004	  4.60818E-001	  5.54391E-001	  3.91158E-001	  5.78340E-001
  1.87500E-004	  3.81137E-001	  7.00115E-001	  4.43654E-001	  5.78340E-001
  2.00000E-004	  5.67059E-001	  5.05816E-001	  4.96151E-001	  4.69489E-001
  2.25000E-004	  3.41296E-001	  8.33695E-001	  4.17406E-001	  4.83095E-001
  2.50000E-004	  5.00658E-001	  5.17959E-001	  4.69902E-001	  7.96042E-001
  2.75000E-004	  4.87378E-001	  2.38655E-001	  3.91158E-001	  4.55883E-001
  3.00000E-004	  4.87378E-001	  3.96523E-001	  2.33668E-001	  6.46372E-001
  3.25000E-004	  6.06900E-001	  4.69385E-001	  6.14268E-001	  4.42276E-001
  3.50000E-004	  5.13939E-001	  5.78678E-001	  5.74895E-001	  5.23915E-001
  3.75000E-004	  7.66262E-001	  4.32954E-001	  4.30530E-001	  5.51127E-001
  4.00000E-004	  4.67457E-001	  4.57240E-001	  4.10843E-001	  4.62685E-001
  4.50000E-004	  6.00259E-001	  5.42246E-001	  5.35522E-001	  4.62685E-001
  5.00000E-004	  5.07298E-001	  5.96893E-001	  5.35522E-001	  4.01457E-001
  5.50000E-004	  3.87776E-001	  4.63312E-001	  4.23967E-001	  4.49079E-001
  6.00000E-004	  5.47138E-001	  5.24031E-001	  6.40515E-001	  4.89898E-001
  6.50000E-004	  4.54177E-001	  3.60091E-001	  4.69902E-001	  5.23914E-001
  7.00000E-004	  3.61216E-001	  4.99743E-001	  5.55208E-001	  4.55882E-001
  7.50000E-004	  5.27218E-001	  4.63312E-001	  4.43653E-001	  5.30717E-001
  8.00000E-004	  5.10617E-001	  4.81527E-001	  5.12554E-001	  5.68133E-001
  9.00000E-004	  3.51255E-001	  5.60460E-001	  4.99430E-001	  4.79692E-001
  1.00000E-003	  4.37576E-001	  4.84562E-001	  4.86306E-001	  5.20511E-001
  1.10000E-003	  3.97735E-001	  4.96706E-001	  5.68331E-001	  6.73583E-001
  1.20000E-003	  3.61215E-001	  5.48317E-001	  4.69900E-001	  5.06905E-001
  1.30000E-003	  4.74096E-001	  4.66347E-001	  5.05992E-001	  4.49078E-001
  1.40000E-003	  4.47536E-001	  5.45281E-001	  4.56776E-001	  6.05551E-001
  1.50000E-003	  3.84455E-001	  5.14922E-001	  4.07561E-001	  6.42968E-001
  1.60000E-003	  4.27613E-001	  4.93668E-001	  4.83022E-001	  4.32067E-001
  1.80000E-003	  4.29273E-001	  5.52868E-001	  4.51852E-001	  4.06555E-001
  2.00000E-003	  4.54174E-001	  4.58755E-001	  4.15761E-001	  4.45674E-001
  2.20000E-003	  4.84054E-001	  4.69380E-001	  5.33878E-001	  4.26965E-001
  2.40000E-003	  3.16392E-001	  3.60088E-001	  5.15832E-001	  5.35816E-001
  2.60000E-003	  4.32593E-001	  3.29729E-001	  5.07630E-001	  5.30713E-001
  2.80000E-003	  3.39632E-001	  4.04108E-001	  5.17473E-001	  5.42619E-001
  3.00000E-003	  4.35913E-001	  4.37503E-001	  3.94460E-001	  4.59280E-001
  3.20000E-003	  4.25118E-001	  3.87406E-001	  4.45312E-001	  4.61882E-001
  3.60000E-003	  4.10178E-001	  3.88165E-001	  4.19064E-001	  4.40621E-001
  4.00000E-003	  4.27608E-001	  3.82852E-001	  5.02731E-001	  4.38920E-001
  4.40000E-003	  3.96898E-001	  4.19283E-001	  3.74769E-001	  5.15459E-001
  4.80000E-003	  4.01048E-001	  4.14729E-001	  4.33008E-001	  4.77189E-001
  5.20000E-003	  3.70338E-001	  4.08657E-001	  4.71561E-001	  4.21912E-001
  5.60000E-003	  3.69508E-001	  3.93478E-001	  3.79691E-001	  3.25814E-001
  6.00000E-003	  3.96068E-001	  4.36740E-001	  4.21525E-001	  4.31266E-001
  6.40000E-003	  3.48749E-001	  4.16314E-001	  4.21105E-001	  4.11751E-001
  7.20000E-003	  4.22204E-001	  4.09862E-001	  3.78041E-001	  4.05797E-001
  8.00000E-003	  3.68694E-001	  4.08724E-001	  3.69838E-001	  4.16853E-001
  8.80000E-003	  3.95255E-001	  3.91646E-001	  3.84603E-001	  4.21531E-001
  9.60000E-003	  3.67449E-001	  3.68876E-001	  3.87884E-001	  4.05346E-001
  1.04000E-002	  3.78240E-001	  3.85953E-001	  3.86654E-001	  3.99818E-001
  1.12000E-002	  3.35909E-001	  3.93543E-001	  3.72709E-001	  3.87912E-001
  1.20000E-002	  3.86125E-001	  3.60906E-001	  3.44000E-001	  4.28733E-001
  1.28000E-002	  3.66911E-001	  3.67486E-001	  3.63258E-001	  4.03068E-001
  1.44000E-002	  3.15862E-001	  3.25167E-001	  3.30858E-001	  3.71813E-001
  1.60000E-002	  3.72099E-001	  3.74838E-001	  3.61822E-001	  3.70962E-001
  1.76000E-002	  3.17730E-001	  3.76356E-001	  3.29217E-001	  3.53953E-001
  1.92000E-002	  3.27275E-001	  3.39138E-001	  3.64283E-001	  3.52039E-001
  2.08000E-002	  3.18352E-001	  3.58494E-001	  3.34754E-001	  3.50338E-001
  2.24000E-002	  3.10674E-001	  3.49410E-001	  3.65513E-001	  3.43058E-001
  2.40000E-002	  3.10674E-001	  3.67058E-001	  3.37215E-001	  3.66658E-001
  2.56000E-002	  3.07130E-001	  3.25179E-001	  3.36281E-001	  3.44136E-001
  2.88000E-002	  2.75769E-001	  3.10019E-001	  3.06547E-001	  3.14395E-001
  3.20000E-002	  2.86951E-001	  2.97089E-001	  3.31052E-001	  2.95816E-001
  3.52000E-002	  2.56134E-001	  2.75357E-001	  2.73737E-001	  3.14258E-001
  3.84000E-002	  2.27991E-001	  2.66793E-001	  2.67893E-001	  2.80711E-001
  4.16000E-002	  2.36085E-001	  2.68384E-001	  2.54564E-001	  2.56600E-001
  4.48000E-002	  2.39716E-001	  2.36382E-001	  2.65330E-001	  2.50859E-001
  4.80000E-002	  2.15586E-001	  2.19111E-001	  2.34798E-001	  2.39436E-001
  5.12000E-002	  1.94770E-001	  2.30920E-001	  2.14727E-001	  2.38908E-001
  5.76000E-002	  1.98224E-001	  2.06577E-001	  2.20469E-001	  2.15358E-001
  6.40000E-002	  1.75965E-001	  1.90777E-001	  1.91298E-001	  2.12116E-001
  7.04000E-002	  1.69873E-001	  1.80953E-001	  1.83454E-001	  2.02228E-001
  7.68000E-002	  1.33969E-001	  1.64301E-001	  1.74409E-001	  1.81816E-001
  8.32000E-002	  1.46741E-001	  1.50328E-001	  1.42931E-001	  1.74852E-001
  8.96000E-002	  1.20313E-001	  1.37095E-001	  1.49391E-001	  1.58979E-001
  9.60000E-002	  1.25677E-001	  1.30106E-001	  1.46388E-001	  1.49805E-001
  1.02400E-001	  1.06356E-001	  1.20712E-001	  1.27518E-001	  1.38121E-001
  1.15200E-001	  8.74487E-002	  1.19081E-001	  1.05850E-001	  1.17255E-001
  1.28000E-001	  9.33951E-002	  9.00225E-002	  9.93380E-002	  9.56819E-002
  1.40800E-001	  6.87498E-002	  7.40479E-002	  8.54222E-002	  9.70526E-002
  1.53600E-001	  6.11487E-002	  7.21535E-002	  7.66142E-002	  8.02139E-002
  1.66400E-001	  5.35278E-002	  6.43867E-002	  6.44371E-002	  6.84920E-002
  1.79200E-001	  4.25024E-002	  5.21733E-002	  5.08756E-002	  6.44713E-002
  1.92000E-001	  4.72428E-002	  3.97759E-002	  6.45140E-002	  4.96829E-002
  2.04800E-001	  3.81917E-002	  3.79168E-002	  6.01123E-002	  4.96876E-002
  2.30400E-001	  2.65285E-002	  3.87515E-002	  4.60346E-002	  3.35967E-002
  2.56000E-001	  2.51010E-002	  2.79681E-002	  3.37326E-002	  2.75422E-002
  2.81600E-001	  2.14102E-002	  2.37635E-002	  2.78925E-002	  2.71567E-002
  3.07200E-001	  1.37176E-002	  1.36408E-002	  1.84314E-002	  2.63060E-002
  3.32800E-001	  2.03087E-002	  1.70340E-002	  1.59376E-002	  1.62157E-002
  3.58400E-001	  1.40419E-002	  2.76196E-004	  1.25988E-002	  1.72066E-002
  3.84000E-001	  1.72914E-002	 -3.42817E-003	  1.61115E-002	  1.66145E-002
  4.09600E-001	  1.70481E-002	 -8.78337E-004	  6.55872E-003	  9.52527E-003
  4.60800E-001	  1.29193E-002	  1.11208E-003	  1.53760E-002	  7.30441E-004
  5.12000E-001	  3.81794E-003	  2.45954E-003	  8.54057E-003	 -8.80615E-003
  5.63200E-001	 -2.12091E-003	  2.00159E-003	  1.76812E-003	 -1.91172E-003
  6.14400E-001	 -3.56715E-004	  3.11265E-003	 -1.16419E-003	  2.33137E-003
  6.65600E-001	  3.82618E-004	  1.89347E-003	  3.46744E-003	 -2.25556E-003
  7.16800E-001	  1.40694E-003	  1.62536E-003	 -2.64758E-003	  7.97878E-004
  7.68000E-001	  3.10716E-003	  1.12553E-003	  4.81650E-003	  5.79358E-004
  8.19200E-001	  3.84366E-003	  6.65472E-004	 -2.53117E-003	  4.31738E-004
  9.21600E-001	  7.44809E-003	  1.14690E-003	  5.42824E-003	 -9.57761E-003
  1.02400E+000	  1.26415E-002	 -3.78767E-004	  4.67614E-003	  9.78700E-004
  1.12640E+000	  5.46204E-003	  2.94961E-003	  2.73040E-003	 -5.93009E-003
  1.22880E+000	  7.53952E-003	 -3.78244E-003	 -6.43128E-004	  2.60228E-003
  1.33120E+000	  4.32306E-003	 -1.60694E-003	 -8.77558E-003	 -8.09850E-004
  1.43360E+000	  8.01556E-004	 -4.15740E-003	 -1.46051E-003	 -3.51200E-004
  1.53600E+000	 -5.86574E-003	 -1.68002E-003	  7.91943E-005	  5.38821E-003
  1.63840E+000	  8.19185E-004	 -1.85041E-003	 -3.14773E-004	  7.70323E-003
  1.84320E+000	  2.88630E-003	  2.22865E-005	  7.59017E-004	  6.26501E-003
  2.04800E+000	  5.88912E-003	  1.32201E-003	 -1.22932E-002	  5.86658E-003
  2.25280E+000	  2.34793E-003	 -5.16527E-003	 -6.30199E-003	  3.19656E-003
  2.45760E+000	  2.71868E-003	 -2.38016E-003	  2.94279E-003	 -4.47106E-003
  2.66240E+000	 -1.53045E-003	 -1.60695E-004	 -2.25781E-003	 -7.06832E-003
  2.86720E+000	 -4.21110E-003	 -1.21538E-003	 -7.15658E-003	 -1.20740E-002
  3.07200E+000	 -7.45843E-003	 -3.78229E-003	 -8.19593E-003	 -3.20530E-003
  3.27680E+000	 -6.22584E-003	 -5.64714E-003	 -3.15933E-003	  3.54758E-003
  3.68640E+000	  1.49717E-003	 -4.68768E-003	  4.96388E-004	  2.24243E-003
  4.09600E+000	  2.89555E-003	  9.39356E-004	 -3.86179E-004	 -1.00979E-003
  4.50560E+000	 -1.39006E-004	  4.30677E-003	 -4.82641E-003	 -4.03875E-003
  4.91520E+000	  2.31841E-004	  2.30700E-003	  8.41943E-004	 -1.64099E-004
  5.32480E+000	 -1.19841E-003	  3.93537E-003	  1.35252E-003	  5.15709E-004
  5.73440E+000	  6.46208E-003	 -9.28275E-005	  7.21871E-004	  5.95592E-003
  6.14400E+000	 -8.71341E-004	 -2.01156E-003	 -2.66436E-003	 -8.19112E-004
  6.55360E+000	 -1.34621E-003	  1.60546E-003	  1.23588E-004	  1.98897E-003
  7.37280E+000	 -7.23556E-004	  1.00557E-003	  3.57525E-003	 -4.16634E-004
  8.19200E+000	  3.54312E-003	  6.78068E-003	  4.23538E-004	  2.38173E-003
  9.01120E+000	 -1.27726E-003	 -9.22873E-004	  2.78855E-003	 -8.73726E-004
  9.83040E+000	 -5.12218E-003	  3.35465E-004	  6.55704E-003	  2.34755E-004
  1.06496E+001	  2.37981E-003	 -1.45172E-003	 -5.38312E-003	 -5.58019E-003
  1.14688E+001	 -3.35590E-003	  9.00893E-004	 -4.10680E-003	 -8.95356E-003
  1.22880E+001	  4.75288E-003	  6.04121E-003	 -9.24028E-003	 -4.31100E-003
  1.31072E+001	  1.64164E-003	  3.28765E-003	  8.35455E-004	 -2.00301E-004
  1.47456E+001	 -1.47616E-003	 -5.23576E-004	  2.26545E-003	 -5.28115E-003
  1.63840E+001	  8.05474E-004	  3.36230E-003	  6.47387E-004	  1.66176E-003
  1.80224E+001	 -2.11928E-003	  8.52071E-004	 -5.11603E-003	  2.20725E-003
  1.96608E+001	 -8.10157E-004	  2.70607E-003	  2.71416E-003	 -1.69478E-003
  2.12992E+001	  3.71581E-003	  1.21098E-003	  2.34103E-003	 -1.14014E-003
  2.29376E+001	 -3.73705E-003	 -1.70349E-003	  6.02142E-003	 -3.58208E-003
  2.45760E+001	 -1.20270E-003	 -1.30957E-003	  6.08715E-004	  1.33479E-003
  2.62144E+001	 -1.66139E-003	  4.20436E-004	 -2.01059E-003	  1.25395E-003
  2.94912E+001	  1.39573E-003	  2.07996E-004	  1.10636E-003	  1.11987E-004
  3.27680E+001	 -2.44366E-003	 -1.47340E-004	 -2.64513E-003	 -6.86244E-004
  3.60448E+001	  8.64972E-004	 -2.71779E-003	  1.91678E-003	 -5.22474E-004
  3.93216E+001	  3.08219E-004	  8.60386E-004	  1.14382E-003	  4.00072E-003
  4.25984E+001	  1.62037E-003	 -1.06329E-003	  1.10033E-003	  9.19405E-004
  4.58752E+001	 -4.20644E-005	 -1.78308E-003	 -4.67195E-004	  1.60211E-003
  4.91520E+001	  1.48001E-003	 -1.40338E-003	  9.68625E-004	 -1.11574E-003
  5.24288E+001	 -6.35546E-004	  7.51678E-004	  2.84627E-004	 -2.87820E-003
  5.89824E+001	  5.82889E-004	 -1.58754E-004	  4.60362E-004	 -3.69153E-004
  6.55360E+001	 -2.53195E-005	 -5.57693E-004	 -5.40444E-004	  2.05967E-004
  7.20896E+001	 -8.05226E-004	  1.94273E-003	  2.01623E-004	 -3.26973E-003
  7.86432E+001	  8.35393E-004	 -8.13212E-004	  2.02876E-003	  2.32194E-003
  8.51968E+001	 -2.22773E-003	  1.35140E-003	 -4.62388E-004	  2.53177E-003
  9.17504E+001	  6.08503E-004	 -3.75118E-004	 -7.85826E-004	 -3.51315E-003
  9.83040E+001	  2.47182E-005	  7.79950E-005	 -6.28499E-004	 -2.12666E-003
  1.04858E+002	  1.66113E-003	 -7.12302E-004	 -6.08464E-004	 -2.11206E-004
  1.17965E+002	  1.52083E-003	  5.62203E-004	 -5.53208E-004	  1.17171E-003
  1.31072E+002	  2.51283E-003	  1.83066E-003	 -6.45469E-004	 -4.29309E-004
  1.44179E+002	  9.82155E-004	  8.36219E-004	 -2.64656E-004	  6.24749E-004
  1.57286E+002	 -5.94249E-004	  1.02937E-003	 -1.79456E-004	  1.20779E-003
  1.70394E+002	  2.03093E-004	 -3.93273E-004	  1.96794E-004	  2.79491E-005
  1.83501E+002	  5.13740E-004	  4.33378E-004	 -5.00658E-004	 -5.37725E-004
  1.96608E+002	  1.21049E-004	 -3.29471E-004	 -4.55072E-004	 -1.11181E-003
  2.09715E+002	 -7.13937E-004	 -7.30808E-004	  1.06851E-003	  4.99205E-004
  2.35930E+002	  1.18009E-003	 -1.23114E-003	 -3.03767E-004	  8.46658E-004
  2.62144E+002	  3.22789E-004	  1.32407E-003	  3.56941E-004	  8.08871E-005
  2.88358E+002	  6.43355E-004	  3.35286E-004	  1.00058E-003	  7.92052E-005
  3.14573E+002	 -3.80582E-004	  1.85869E-004	 -8.54104E-004	  6.43949E-005
  3.40787E+002	  3.73350E-004	 -2.03808E-004	 -7.58029E-004	 -2.61908E-004
  3.67002E+002	 -5.44259E-006	 -1.17654E-003	 -7.84501E-004	 -8.82375E-004
  3.93216E+002	  6.48566E-004	  4.89820E-007	 -9.64657E-004	  8.98174E-004

"Count Rate"
       0.01311	      57.37305	      62.02698	      46.69189	      52.94800
       0.02621	      63.85803	      59.28040	      56.15234	      52.64282
       0.03932	      57.90710	      65.99426	      61.87439	      60.27222
       0.05243	      54.01611	      62.02698	      55.69458	      55.69458
       0.06554	      54.01611	      52.10876	      48.75183	      48.90442
       0.07864	      58.59375	      58.51746	      59.96704	      61.41663
       0.09175	      55.23682	      56.38123	      65.91797	      54.16870
       0.10486	      52.94800	      59.43298	      57.67822	      55.38940
       0.11796	      59.50928	      50.04883	      58.51746	      55.16052
       0.13107	      56.68640	      68.05420	      56.38123	      57.60193
       0.14418	      62.48474	      55.31311	      56.76270	      56.38123
       0.15729	      50.73547	      60.27222	      54.93164	      50.12512
       0.17039	      55.99976	      64.31580	      59.66187	      61.95068
       0.18350	      61.95068	      59.28040	      41.27502	      56.07605
       0.19661	      53.78723	      57.67822	      52.94800	      60.65369
       0.20972	      57.83081	      59.20410	      49.05701	      52.94800
       0.22282	      57.83081	      56.99158	      52.18506	      56.53381
       0.23593	      55.77087	      55.46570	      58.74634	      65.91797
       0.24904	      53.55835	      55.54199	      56.22864	      53.93982
       0.26214	      55.38940	      65.53650	      51.19324	      57.52563
       0.27525	      61.03516	      61.26404	      50.27771	      53.86353
       0.28836	      54.70276	      64.46838	      54.16870	      53.48206
       0.30147	      57.22046	      53.93982	      56.83899	      48.44666
       0.31457	      62.10327	      59.89075	      55.61829	      63.85803
       0.32768	      63.62915	      54.55017	      55.08423	      51.72729
       0.34079	      58.51746	      60.50110	      57.37305	      54.55017
       0.35389	      49.89624	      63.55286	      53.78723	      52.03247
       0.36700	      49.43848	      60.42480	      53.55835	      54.16870
       0.38011	      55.00793	      67.13867	      60.65369	      48.90442
       0.39322	      53.55835	      59.43298	      54.47388	      68.20679
       0.40632	      53.10059	      51.80359	      64.77356	      57.22046
       0.41943	      54.77905	      53.93982	      50.58289	      42.87720
       0.43254	      54.24500	      58.89893	      54.85535	      56.76270
       0.44564	      60.57739	      57.67822	      56.38123	      58.74634
       0.45875	      74.08142	      56.61011	      50.58289	      51.65100
       0.47186	      50.43030	      52.41394	      52.87170	      61.64551
       0.48497	      44.40308	      53.10059	      50.81177	      51.80359
       0.49807	      58.89893	      56.15234	      54.32129	      51.19324
       0.51118	      51.49841	      62.48474	      62.48474	      61.95068
       0.52429	      55.61829	      58.28857	      56.53381	      49.66736
       0.53740	      53.55835	      58.13599	      54.09241	      49.59106
       0.55050	      52.56653	      52.26135	      52.71912	      56.07605
       0.56361	      61.34033	      53.63464	      62.48474	      49.97253
       0.57672	      52.49023	      62.71362	      57.22046	      56.99158
       0.58982	      56.30493	      54.32129	      64.23950	      47.07336
       0.60293	      51.11694	      53.32947	      58.89893	      55.69458
       0.61604	      52.56653	      51.04065	      63.32397	      62.63733
       0.62915	      57.60193	      54.24500	      51.80359	      53.32947
       0.64225	      49.81995	      60.34851	      55.46570	      58.82263
       0.65536	      52.41394	      61.34033	      54.77905	      56.38123
       0.66847	      58.36487	      58.67004	      56.83899	      52.64282
       0.68157	      48.14148	      50.81177	      55.54199	      59.43298
       0.69468	      57.14417	      61.18774	      60.34851	      50.65918
       0.70779	      54.47388	      55.38940	      49.81995	      53.32947
       0.72090	      49.28589	      55.23682	      53.78723	      50.50659
       0.73400	      52.18506	      50.73547	      62.25586	      54.93164
       0.74711	      52.49023	      50.96436	      56.15234	      51.11694
