ALV-7004/USB-FAST
Date :	"11/11/2025"
Time :	"3:56:00 PM"
Samplename : 	""
SampMemo(0) : 	""
SampMemo(1) : 	""
SampMemo(2) : 	""
SampMemo(3) : 	""
SampMemo(4) : 	""
SampMemo(5) : 	""
SampMemo(6) : 	""
SampMemo(7) : 	""
SampMemo(8) : 	""
SampMemo(9) : 	""
Temperature [K] :	     298.16000
Viscosity [cp]  :	       0.89000
Refractive Index:	       1.33200
Wavelength [nm] :	       0.00000
Angle [°]       :	       0.00000
Duration [s]    :	         1
FloatDur [ms]   :	          944
Stop TP [ms]   :	     65552
Runs            :	         1
Mode            :	"A-CH0+1  A-CH2+3 "
MeanCR0 [kHz]   :	      54.18777
MeanCR1 [kHz]   :	      53.94724
MeanCR2 [kHz]   :	      52.02188
MeanCR3 [kHz]   :	      53.01688

"Correlation"
  3.12500E-006	 -1.00000E+000	 -1.00000E+000	 -1.00000E+000	 -1.00000E+000
  6.25000E-006	 -1.00000E+000	 -1.00000E+000	 -1.00000E+000	 -1.00000E+000
  9.37500E-006	 -1.00000E+000	 -1.00000E+000	 -1.00000E+000	 -1.00000E+000
  1.25000E-005	 -1.00000E+000	 -1.00000E+000	 -1.00000E+000	 -1.00000E+000
  1.56250E-005	 -1.00000E+000	 -1.00000E+000	 -1.00000E+000	 -1.00000E+000
  1.87500E-005	 -1.00000E+000	 -1.00000E+000	 -1.00000E+000	 -1.00000E+000
  2.18750E-005	 -8.84520E-001	  1.65116E-001	  8.79433E-001	 -6.38090E-001
  2.50000E-005	  1.23956E+001	  1.10007E+001	  1.19054E+001	  2.87973E+001
  2.81250E-005	  3.38822E+000	  1.79628E+000	  2.75887E+000	  9.49539E+000
  3.12500E-005	  2.34891E+000	  9.80697E-001	  6.28842E-001	  5.39374E+000
  3.43750E-005	  1.88699E+000	  1.33023E+000	  1.27660E-001	  4.18738E+000
  3.75000E-005	  2.00247E+000	  1.44674E+000	  5.03546E-001	  3.70483E+000
  4.06250E-005	  3.85754E-001	  6.31162E-001	  1.38061E+000	  3.34292E+000
  4.37500E-005	  8.47672E-001	  1.56325E+000	  5.03546E-001	  2.98101E+000
  4.68750E-005	  1.30959E+000	  2.81627E-001	  1.63121E+000	  2.25719E+000
  5.00000E-005	  1.13637E+000	  6.31162E-001	  1.06738E+000	  2.86037E+000
  5.62500E-005	  7.89932E-001	  1.56325E+000	  6.28842E-001	  2.07623E+000
  6.25000E-005	  6.16713E-001	  7.47674E-001	  3.78251E-001	  1.11114E+000
  6.87500E-005	  1.07863E+000	  5.72906E-001	  1.38061E+000	  1.17146E+000
  7.50000E-005	  9.05412E-001	  6.89418E-001	  3.15603E-001	  8.09550E-001
  8.12500E-005	  5.01233E-001	  8.05930E-001	  8.16785E-001	  8.09550E-001
  8.75000E-005	  2.70274E-001	  6.31162E-001	  1.00473E+000	  1.11114E+000
  9.37500E-005	  6.16713E-001	  3.39883E-001	  6.91489E-001	  8.09550E-001
  1.00000E-004	  6.45583E-001	  6.31162E-001	  2.21631E-001	  1.20162E+000
  1.12500E-004	  3.56884E-001	  6.89418E-001	  6.60165E-001	  5.38117E-001
  1.25000E-004	  2.41404E-001	  5.14650E-001	  9.10756E-001	  9.90505E-001
  1.37500E-004	  2.99144E-001	  5.72906E-001	  5.66194E-001	  5.07958E-001
  1.50000E-004	  3.85754E-001	  2.23371E-001	  4.40898E-001	  6.58754E-001
  1.62500E-004	  4.14624E-001	  5.72906E-001	  3.46927E-001	  6.28595E-001
  1.75000E-004	  7.32192E-001	  5.43778E-001	  4.40898E-001	  8.39709E-001
  1.87500E-004	  4.43494E-001	  6.02034E-001	  3.15603E-001	  5.07958E-001
  2.00000E-004	  4.57928E-001	  6.89417E-001	  3.78250E-001	  4.17480E-001
  2.25000E-004	  5.01233E-001	  5.58342E-001	  3.31264E-001	  7.03992E-001
  2.50000E-004	  2.12534E-001	  2.96191E-001	  3.31264E-001	  1.91287E-001
  2.75000E-004	  6.60017E-001	  6.60290E-001	  7.22813E-001	  7.19072E-001
  3.00000E-004	  5.30103E-001	  6.31162E-001	  5.81855E-001	  5.38117E-001
  3.25000E-004	  5.44538E-001	  5.72906E-001	  7.54137E-001	  5.07958E-001
  3.50000E-004	  4.00188E-001	  2.37935E-001	  6.13179E-001	  5.68276E-001
  3.75000E-004	  5.58973E-001	  2.67063E-001	  4.56560E-001	  3.87321E-001
  4.00000E-004	  4.29058E-001	  4.19984E-001	  2.76447E-001	  3.42082E-001
  4.50000E-004	  5.22885E-001	  6.16597E-001	  5.81855E-001	  5.75815E-001
  5.00000E-004	  6.23929E-001	  4.78240E-001	  5.74024E-001	  4.62718E-001
  5.50000E-004	  4.29058E-001	  3.69010E-001	  6.52333E-001	  6.43673E-001
  6.00000E-004	  7.10539E-001	  3.39882E-001	  2.92109E-001	  3.42082E-001
  6.50000E-004	  5.73407E-001	  6.16597E-001	  5.19207E-001	  3.49622E-001
  7.00000E-004	  5.58972E-001	  2.74344E-001	  6.36671E-001	  5.38116E-001
  7.50000E-004	  5.87842E-001	  4.85522E-001	  4.64390E-001	  3.42082E-001
  8.00000E-004	  5.55362E-001	  5.36494E-001	  4.68304E-001	  4.25018E-001
  9.00000E-004	  5.69797E-001	  6.09314E-001	  5.81853E-001	  4.74027E-001
  1.00000E-003	  4.11013E-001	  5.11007E-001	  5.81853E-001	  5.64504E-001
  1.10000E-003	  5.19275E-001	  5.54699E-001	  5.23121E-001	  4.43868E-001
  1.20000E-003	  5.62579E-001	  4.16342E-001	  4.87882E-001	  4.58947E-001
  1.30000E-003	  4.65144E-001	  4.56392E-001	  6.67994E-001	  5.23035E-001
  1.40000E-003	  4.47100E-001	  4.96443E-001	  5.27037E-001	  5.94663E-001
  1.50000E-003	  5.44536E-001	  4.60033E-001	  4.91797E-001	  5.19265E-001
  1.60000E-003	  4.99424E-001	  5.31030E-001	  4.76133E-001	  4.66484E-001
  1.80000E-003	  3.89358E-001	  5.74722E-001	  5.75977E-001	  5.28688E-001
  2.00000E-003	  4.90402E-001	  5.83824E-001	  5.66189E-001	  5.30572E-001
  2.20000E-003	  5.33707E-001	  5.03723E-001	  5.42696E-001	  4.92874E-001
  2.40000E-003	  4.70554E-001	  6.22054E-001	  5.87724E-001	  5.15493E-001
  2.60000E-003	  4.70554E-001	  5.12825E-001	  4.50682E-001	  4.96644E-001
  2.80000E-003	  4.38076E-001	  5.32850E-001	  5.11372E-001	  4.83449E-001
  3.00000E-003	  5.13859E-001	  4.85518E-001	  5.87724E-001	  5.55077E-001
  3.20000E-003	  5.52648E-001	  5.65645E-001	  4.47741E-001	  5.05121E-001
  3.60000E-003	  5.09343E-001	  5.10119E-001	  4.75149E-001	  4.88156E-001
  4.00000E-003	  5.31897E-001	  4.70978E-001	  5.20177E-001	  5.03236E-001
  4.40000E-003	  4.58821E-001	  5.20132E-001	  5.83803E-001	  4.91926E-001
  4.80000E-003	  5.77909E-001	  5.11939E-001	  5.08430E-001	  5.28682E-001
  5.20000E-003	  5.50843E-001	  4.86452E-001	  5.32902E-001	  4.80616E-001
  5.60000E-003	  4.54310E-001	  4.34567E-001	  4.87874E-001	  4.66479E-001
  6.00000E-003	  4.56115E-001	  5.14670E-001	  5.18219E-001	  5.36222E-001
  6.40000E-003	  4.84523E-001	  5.43393E-001	  5.02547E-001	  4.97571E-001
  7.20000E-003	  5.23768E-001	  4.77853E-001	  4.80523E-001	  4.68354E-001
  8.00000E-003	  4.98958E-001	  5.45184E-001	  5.68163E-001	  4.81549E-001
  8.80000E-003	  4.97605E-001	  4.68266E-001	  5.02088E-001	  4.97100E-001
  9.60000E-003	  4.99860E-001	  5.29709E-001	  4.85447E-001	  4.65998E-001
  1.04000E-002	  4.72344E-001	  4.86016E-001	  4.94257E-001	  5.20661E-001
  1.12000E-002	  4.85425E-001	  4.76913E-001	  5.13835E-001	  4.92858E-001
  1.20000E-002	  4.44828E-001	  4.71452E-001	  4.39440E-001	  4.96157E-001
  1.28000E-002	  4.80050E-001	  4.89357E-001	  4.75424E-001	  4.88892E-001
  1.44000E-002	  4.66968E-001	  4.92771E-001	  5.02098E-001	  4.98317E-001
  1.60000E-002	  4.76667E-001	  4.81590E-001	  4.59272E-001	  4.81352E-001
  1.76000E-002	  4.73735E-001	  4.79997E-001	  4.84479E-001	  4.79703E-001
  1.92000E-002	  4.81207E-001	  5.23239E-001	  5.33912E-001	  4.68629E-001
  2.08000E-002	  4.82334E-001	  4.91604E-001	  5.02098E-001	  4.97405E-001
  2.24000E-002	  4.79628E-001	  4.94335E-001	  4.54623E-001	  4.88716E-001
  2.40000E-002	  4.63614E-001	  5.14363E-001	  5.30762E-001	  4.53136E-001
  2.56000E-002	  4.67240E-001	  5.10522E-001	  5.22951E-001	  4.74185E-001
  2.88000E-002	  4.71046E-001	  4.77003E-001	  4.85355E-001	  4.71033E-001
  3.20000E-002	  4.69241E-001	  5.11032E-001	  4.69326E-001	  4.60193E-001
  3.52000E-002	  4.74513E-001	  4.87018E-001	  4.80583E-001	  4.63846E-001
  3.84000E-002	  4.65153E-001	  4.67300E-001	  4.58068E-001	  4.48587E-001
  4.16000E-002	  4.45981E-001	  4.68637E-001	  4.62963E-001	  4.68853E-001
  4.48000E-002	  4.78122E-001	  4.82749E-001	  4.57334E-001	  4.62844E-001
  4.80000E-002	  4.71806E-001	  4.67357E-001	  4.60883E-001	  4.43667E-001
  5.12000E-002	  4.70999E-001	  4.55702E-001	  4.65237E-001	  4.60348E-001
  5.76000E-002	  4.38629E-001	  4.67882E-001	  4.62361E-001	  4.43437E-001
  6.40000E-002	  4.27632E-001	  4.41272E-001	  4.59638E-001	  4.26557E-001
  7.04000E-002	  4.32735E-001	  4.31966E-001	  4.42137E-001	  4.18337E-001
  7.68000E-002	  4.22866E-001	  4.31026E-001	  4.34917E-001	  4.20722E-001
  8.32000E-002	  4.21654E-001	  4.11561E-001	  4.39200E-001	  4.15360E-001
  8.96000E-002	  3.94106E-001	  4.27413E-001	  4.23872E-001	  4.06696E-001
  9.60000E-002	  3.99520E-001	  4.09058E-001	  4.14755E-001	  3.90253E-001
  1.02400E-001	  3.88859E-001	  3.99606E-001	  4.01215E-001	  3.80807E-001
  1.15200E-001	  3.60094E-001	  3.95108E-001	  3.81665E-001	  3.64275E-001
  1.28000E-001	  3.61449E-001	  3.60763E-001	  3.64806E-001	  3.38959E-001
  1.40800E-001	  3.39088E-001	  3.39296E-001	  3.46663E-001	  3.38212E-001
  1.53600E-001	  3.39684E-001	  3.47049E-001	  3.48101E-001	  3.20115E-001
  1.66400E-001	  3.15203E-001	  3.16586E-001	  3.12121E-001	  2.91087E-001
  1.79200E-001	  3.03218E-001	  3.16873E-001	  3.03069E-001	  2.86173E-001
  1.92000E-001	  3.07622E-001	  2.97917E-001	  2.78995E-001	  2.78469E-001
  2.04800E-001	  2.84094E-001	  2.89997E-001	  2.64769E-001	  2.55221E-001
  2.30400E-001	  2.63099E-001	  2.69901E-001	  2.52759E-001	  2.26032E-001
  2.56000E-001	  2.40528E-001	  2.40159E-001	  2.34146E-001	  2.17511E-001
  2.81600E-001	  2.20759E-001	  2.16184E-001	  2.23957E-001	  1.95485E-001
  3.07200E-001	  2.09148E-001	  2.03028E-001	  1.97717E-001	  1.84290E-001
  3.32800E-001	  1.96094E-001	  1.84646E-001	  1.85355E-001	  1.66094E-001
  3.58400E-001	  1.84434E-001	  1.66582E-001	  1.70678E-001	  1.54001E-001
  3.84000E-001	  1.73629E-001	  1.59119E-001	  1.63349E-001	  1.43711E-001
  4.09600E-001	  1.62878E-001	  1.45303E-001	  1.56603E-001	  1.31451E-001
  4.60800E-001	  1.47763E-001	  1.34077E-001	  1.38774E-001	  1.11744E-001
  5.12000E-001	  1.29939E-001	  1.15860E-001	  1.35300E-001	  9.85743E-002
  5.63200E-001	  1.22384E-001	  1.00608E-001	  1.10378E-001	  9.25260E-002
  6.14400E-001	  1.06931E-001	  9.40868E-002	  9.94811E-002	  7.83500E-002
  6.65600E-001	  9.28207E-002	  9.25150E-002	  8.65760E-002	  6.28255E-002
  7.16800E-001	  8.49507E-002	  8.07528E-002	  7.66534E-002	  5.86024E-002
  7.68000E-001	  7.89855E-002	  7.72301E-002	  6.12596E-002	  5.75824E-002
  8.19200E-001	  7.27920E-002	  6.46528E-002	  5.94925E-002	  4.08637E-002
  9.21600E-001	  5.42202E-002	  5.46414E-002	  4.52266E-002	  2.84541E-002
  1.02400E+000	  4.79812E-002	  4.87602E-002	  3.24911E-002	  1.90636E-002
  1.12640E+000	  3.39855E-002	  3.74287E-002	  2.30606E-002	  1.34865E-002
  1.22880E+000	  2.20502E-002	  3.16635E-002	  1.98256E-002	  1.07509E-002
  1.33120E+000	  1.72207E-002	  3.04687E-002	  1.81933E-002	  1.43913E-002
  1.43360E+000	  1.68291E-002	  3.51214E-002	  1.00806E-002	  1.61506E-002
  1.53600E+000	  1.02253E-002	  4.02261E-002	 -2.76822E-003	  1.50411E-002
  1.63840E+000	  8.16713E-003	  3.97691E-002	 -9.77886E-004	  1.25765E-002
  1.84320E+000	  5.99935E-003	  2.56967E-002	  2.63622E-003	  1.68543E-002
  2.04800E+000	  7.93516E-003	  1.86512E-002	  5.94089E-003	  2.05277E-002
  2.25280E+000	 -3.48211E-003	  1.59343E-002	  1.35380E-002	  2.51376E-002
  2.45760E+000	 -1.61319E-002	  1.20064E-002	  1.19043E-002	  2.35715E-002
  2.66240E+000	 -1.97378E-002	  1.20197E-002	  9.98739E-003	  1.40107E-002
  2.86720E+000	 -1.12879E-002	  7.86286E-003	  1.94004E-003	  9.95332E-003
  3.07200E+000	 -6.92506E-003	  1.22075E-003	 -2.42342E-003	  1.33607E-002
  3.27680E+000	 -1.01103E-002	  1.67887E-002	 -1.04467E-002	  1.88477E-002
  3.68640E+000	  6.20947E-003	  3.06778E-002	 -5.25003E-003	  1.11503E-002
  4.09600E+000	  1.14820E-002	  1.37674E-002	 -6.83315E-003	  4.94128E-003
  4.50560E+000	  7.01641E-003	  1.19567E-002	  9.29056E-004	  4.69902E-003
  4.91520E+000	  9.00499E-003	  1.93272E-002	  7.22302E-003	  1.06495E-002
  5.32480E+000	 -3.80732E-003	  5.17250E-003	 -5.42143E-003	  1.59200E-002
  5.73440E+000	  3.74167E-003	  2.52291E-003	 -6.28233E-003	  2.37535E-002
  6.14400E+000	  8.12853E-003	  2.82253E-003	  2.56861E-003	  6.32487E-003
  6.55360E+000	  8.93165E-003	  3.86346E-003	 -7.28571E-003	  1.28552E-002
  7.37280E+000	  6.21819E-003	  6.90315E-003	 -9.11653E-004	  4.08410E-003
  8.19200E+000	  6.15862E-003	 -1.99069E-003	 -1.55928E-002	  8.02914E-003
  9.01120E+000	  1.35179E-003	  4.55544E-003	 -1.72740E-003	  1.03424E-002
  9.83040E+000	 -1.14156E-003	 -1.62075E-003	 -3.54966E-003	 -1.00162E-002
  1.06496E+001	  1.95586E-002	 -1.81525E-002	  5.07577E-003	 -2.61490E-002
  1.14688E+001	  1.37943E-002	 -2.08740E-002	  9.40206E-003	 -1.37882E-002
  1.22880E+001	  1.47429E-003	  3.19369E-003	 -2.05748E-003	 -2.26434E-003
  1.31072E+001	 -5.99799E-003	 -2.09132E-003	 -9.17873E-003	  2.67635E-004
  1.47456E+001	 -1.82896E-002	  1.25666E-003	  7.73397E-003	  1.12694E-003
  1.63840E+001	  3.14331E-003	  4.05774E-003	 -7.93294E-003	 -7.65827E-003
  1.80224E+001	 -2.80293E-003	 -1.07028E-002	 -9.45544E-003	 -4.95160E-003
  1.96608E+001	  9.19248E-004	 -1.20201E-002	  1.02802E-002	 -1.28239E-002
  2.12992E+001	  1.81403E-002	 -4.96614E-003	  6.13463E-003	  1.99607E-003
  2.29376E+001	  1.07579E-002	  4.17442E-003	 -5.92140E-003	  8.20063E-004
  2.45760E+001	  3.89535E-003	 -2.52928E-003	  6.31974E-003	  5.55272E-004
  2.62144E+001	  1.06264E-003	 -3.43342E-003	 -4.55570E-003	  8.00474E-003
  2.94912E+001	  5.44201E-003	  1.67758E-003	  7.82750E-005	 -2.18586E-003
  3.27680E+001	  3.07571E-003	  5.54258E-003	 -8.07356E-003	 -4.35996E-003
  3.60448E+001	  5.93020E-003	  2.47786E-003	  6.84371E-003	 -1.44145E-003
  3.93216E+001	  7.76244E-003	  7.42149E-003	 -7.46454E-003	 -3.01279E-003
  4.25984E+001	  8.64485E-003	  3.57585E-003	 -8.81363E-003	 -1.02846E-003
  4.58752E+001	  7.31931E-003	  4.36273E-003	 -2.89492E-003	  1.37190E-003
  4.91520E+001	  9.21260E-003	  1.37587E-003	  5.47440E-003	  9.01145E-003
  5.24288E+001	  7.57059E-003	 -4.82775E-003	 -3.67577E-003	  1.14924E-003
  5.89824E+001	 -3.03209E-003	  2.58941E-003	  7.59837E-003	  1.78022E-003
  6.55360E+001	 -1.09992E-003	 -1.02270E-002	 -2.87181E-003	  2.91892E-003
  7.20896E+001	  1.00091E-002	 -4.22575E-003	  2.68239E-003	  2.79214E-003
  7.86432E+001	 -1.13889E-003	  2.10076E-003	  4.23894E-003	 -1.15096E-002
  8.51968E+001	  1.71499E-003	 -2.87921E-003	 -6.76438E-003	 -1.40700E-002
  9.17504E+001	  4.39481E-003	 -2.42535E-003	  7.07910E-004	  5.42221E-003
  9.83040E+001	  1.63602E-003	 -3.11784E-003	  9.10801E-003	  1.34213E-002
  1.04858E+002	  3.76981E-003	 -1.13691E-005	  9.19921E-004	  2.78764E-003
  1.17965E+002	  1.02560E-003	 -5.52522E-003	  1.18123E-003	  2.30516E-003
  1.31072E+002	 -1.53806E-003	 -4.75948E-003	 -2.96802E-003	  2.20403E-003
  1.44179E+002	  3.58517E-003	  3.67689E-003	  6.66786E-003	 -1.52571E-003
  1.57286E+002	 -2.44390E-003	  3.23189E-003	 -1.77920E-003	  1.11553E-003
  1.70394E+002	 -1.40933E-003	 -6.90906E-003	 -4.80013E-003	 -3.74448E-003
  1.83501E+002	 -5.21258E-004	  5.33875E-003	  2.54195E-003	 -1.62356E-003
  1.96608E+002	  1.12775E-002	  1.35630E-005	 -1.35506E-003	  1.03084E-003
  2.09715E+002	 -5.29704E-004	 -3.21663E-003	 -3.59335E-003	  6.63358E-004
  2.35930E+002	 -1.80855E-003	  1.12367E-004	  6.23615E-004	 -2.39115E-003
  2.62144E+002	  8.79838E-004	  2.63921E-004	  1.90080E-003	  2.31234E-003
  2.88358E+002	  2.64658E-003	 -2.11671E-003	 -7.71555E-004	 -4.60301E-003
  3.14573E+002	  4.66982E-003	  3.07840E-003	 -5.17767E-004	  5.97743E-003
  3.40787E+002	 -5.43655E-004	  1.01307E-003	 -2.54086E-003	 -2.93211E-003
  3.67002E+002	 -1.09456E-003	  1.46593E-003	  4.75589E-004	  1.54965E-003
  3.93216E+002	 -2.94002E-003	  5.62336E-003	 -1.11891E-003	 -4.66002E-003

"Count Rate"
       0.01311	      52.64282	      66.22314	      42.03796	      44.09790
       0.02621	      73.24219	      50.43030	      29.67834	      47.76001
       0.03932	      50.73547	      44.93713	      36.54480	      28.53394
       0.05243	      69.58008	      33.95081	      34.94263	      57.29675
       0.06554	      43.48755	      59.05151	      61.34033	      54.85535
       0.07864	      64.23950	      58.21228	      47.98889	      69.35120
       0.09175	      43.94531	      28.30505	      55.00793	      55.46570
       0.10486	      65.99426	      44.86084	      56.83899	      49.81995
       0.11796	      45.01343	      61.56921	      49.81995	      84.30481
       0.13107	      57.37305	      54.70276	      37.76550	      33.95081
       0.14418	      77.74353	      95.06226	      41.04614	      44.40308
       0.15729	      65.30762	      49.28589	      76.06506	      56.83899
       0.17039	      42.11426	      72.17407	      32.88269	      56.38123
       0.18350	      70.80078	      39.44397	      58.44116	      57.98340
       0.19661	      55.31311	      67.21497	      50.12512	      51.57471
       0.20972	      49.74365	      30.36499	      46.46301	      49.36218
       0.22282	      65.00244	      61.49292	      53.86353	      62.17957
       0.23593	      47.83630	      53.86353	      53.10059	      41.73279
       0.24904	      60.72998	      41.19873	      47.83630	      55.69458
       0.26214	      52.87170	      58.97522	      51.34583	      43.86902
       0.27525	      59.43298	      55.99976	      51.49841	      65.15503
       0.28836	      52.87170	      55.84717	      57.75452	      59.73816
       0.30147	      52.26135	      51.72729	      73.85254	      56.68640
       0.31457	      43.33496	      47.37854	      44.70825	      50.20142
       0.32768	      55.92346	      79.04053	      49.36218	      50.73547
       0.34079	      65.07874	      54.70276	      64.23950	      48.75183
       0.35389	      49.81995	      39.82544	      44.86084	      50.73547
       0.36700	      54.09241	      64.62097	      57.44934	      55.46570
       0.38011	      81.10046	      62.40845	      68.81714	      40.74097
       0.39322	      61.72180	      45.54749	      36.23962	      67.52014
       0.40632	      57.44934	      57.44934	      58.05969	      54.70276
       0.41943	      56.68640	      47.14966	      54.39758	      52.33765
       0.43254	      61.26404	      49.43848	      50.43030	      70.80078
       0.44564	      52.10876	      46.61560	      49.51477	      46.53931
       0.45875	      47.83630	      53.25317	      44.25049	      51.42212
       0.47186	      61.87439	      60.11963	      61.64551	      43.10608
       0.48497	      53.55835	      51.04065	      47.30225	      69.27490
       0.49807	      49.28589	      50.12512	      51.11694	      51.19324
       0.51118	      40.43579	      56.22864	      47.07336	      49.51477
       0.52429	      52.71912	      55.00793	      62.63733	      46.31042
       0.53740	      44.63196	      64.01062	      55.00793	      52.87170
       0.55050	      42.72461	      61.64551	      48.14148	      59.12781
       0.56361	      47.07336	      51.11694	      53.93982	      49.74365
       0.57672	      49.89624	      50.50659	      59.20410	      50.20142
       0.58982	      38.60474	      68.66455	      54.32129	      63.17139
       0.60293	      53.63464	      46.61560	      46.15784	      60.50110
       0.61604	      35.70557	      59.58557	      42.11426	      63.01880
       0.62915	      47.14966	      60.50110	      40.58838	      53.48206
       0.64225	      49.59106	      54.32129	      56.07605	      51.80359
       0.65536	      52.56653	      50.12512	      51.34583	      46.99707
       0.66847	      61.79810	      58.67004	      52.26135	      55.69458
       0.68157	      41.65649	      55.46570	      49.89624	      48.75183
       0.69468	      52.87170	      57.29675	      54.24500	      55.99976
       0.70779	      53.93982	      59.43298	      46.99707	      43.18237
       0.72090	      54.85535	      38.37585	      54.24500	      53.63464
       0.73400	      40.28320	      52.94800	      55.61829	      53.02429
       0.74711	      45.62378	      45.08972	      48.21777	      72.32666
