ALV-7004/USB-FAST
Date :	"11/11/2025"
Time :	"3:52:40 PM"
Samplename : 	""
SampMemo(0) : 	""
SampMemo(1) : 	""
SampMemo(2) : 	""
SampMemo(3) : 	""
SampMemo(4) : 	""
SampMemo(5) : 	""
SampMemo(6) : 	""
SampMemo(7) : 	""
SampMemo(8) : 	""
SampMemo(9) : 	""
Temperature [K] :	     298.16000
Viscosity [cp]  :	       0.89000
Refractive Index:	       1.33200
Wavelength [nm] :	       0.00000
Angle [°]       :	       0.00000
Duration [s]    :	         1
FloatDur [ms]   :	          944
Stop TP [ms]   :	     57995
Runs            :	         1
Mode            :	"A-CH0+1  A-CH2+3 "
MeanCR0 [kHz]   :	      59.32808
MeanCR1 [kHz]   :	      60.84760
MeanCR2 [kHz]   :	      60.25208
MeanCR3 [kHz]   :	      59.39060

"Correlation"
  3.12500E-006	 -1.00000E+000	 -1.00000E+000	 -1.00000E+000	 -1.00000E+000
  6.25000E-006	 -1.00000E+000	 -1.00000E+000	 -1.00000E+000	 -1.00000E+000
  9.37500E-006	 -1.00000E+000	 -1.00000E+000	 -1.00000E+000	 -1.00000E+000
  1.25000E-005	 -1.00000E+000	 -1.00000E+000	 -1.00000E+000	 -1.00000E+000
  1.56250E-005	 -1.00000E+000	 -1.00000E+000	 -1.00000E+000	 -1.00000E+000
  1.87500E-005	 -1.00000E+000	 -1.00000E+000	 -1.00000E+000	 -1.00000E+000
  2.18750E-005	 -1.00000E+000	  5.56932E-001	  1.42849E+000	 -7.11601E-001
  2.50000E-005	  1.25833E+001	  1.16386E+001	  1.03018E+001	  2.60134E+001
  2.81250E-005	  3.62411E+000	  2.02228E+000	  1.80211E+000	  8.42103E+000
  3.12500E-005	  1.89007E+000	  2.82179E-001	  7.74668E-001	  4.67184E+000
  3.43750E-005	  1.60106E+000	  5.56932E-001	  5.87860E-001	  4.19118E+000
  3.75000E-005	  7.34041E-001	  9.23268E-001	  1.05488E+000	  2.84532E+000
  4.06250E-005	  1.11938E+000	  1.47277E+000	  3.07650E-001	  3.90278E+000
  4.37500E-005	  9.26713E-001	  6.48516E-001	  4.94457E-001	  3.03758E+000
  4.68750E-005	  1.11938E+000	  3.73763E-001	  6.81264E-001	  2.36465E+000
  5.00000E-005	  1.02305E+000	  7.85892E-001	  5.41158E-001	  2.07625E+000
  5.62500E-005	  8.30377E-001	  9.90105E-002	  4.47755E-001	  1.88399E+000
  6.25000E-005	  6.37706E-001	  3.27971E-001	  1.00818E+000	  1.11492E+000
  6.87500E-005	  5.41370E-001	  8.77476E-001	  1.24169E+000	  1.78785E+000
  7.50000E-005	  1.56028E-001	  3.73763E-001	  2.14246E-001	  8.74592E-001
  8.12500E-005	  3.48699E-001	  6.94308E-001	  7.27966E-001	  1.30719E+000
  8.75000E-005	  5.89538E-001	  4.19555E-001	  5.87860E-001	  6.82326E-001
  9.37500E-005	  2.04195E-001	  1.90595E-001	  5.41158E-001	  8.26525E-001
  1.00000E-004	  4.93202E-001	  6.02723E-001	  6.11211E-001	  5.62160E-001
  1.12500E-004	  7.34041E-001	  8.54580E-001	  4.71106E-001	  1.01879E+000
  1.25000E-004	  6.37706E-001	  1.67699E-001	  7.27965E-001	 -3.86709E-002
  1.37500E-004	  2.28279E-001	  2.13491E-001	  3.31000E-001	  8.26525E-001
  1.50000E-004	  8.78545E-001	  6.02723E-001	  7.04615E-001	  6.34259E-001
  1.62500E-004	  3.48699E-001	  5.34035E-001	  2.14246E-001	  3.45861E-001
  1.75000E-004	  3.56079E-002	  8.54580E-001	  8.21369E-001	  7.06359E-001
  1.87500E-004	  4.69118E-001	  2.59283E-001	  6.34562E-001	  5.62160E-001
  2.00000E-004	  2.88489E-001	  3.50867E-001	  6.69588E-001	  4.78043E-001
  2.25000E-004	  4.32992E-001	  2.93627E-001	  4.82781E-001	  6.10226E-001
  2.50000E-004	  4.45034E-001	  4.08107E-001	  6.69588E-001	  5.38126E-001
  2.75000E-004	  3.00531E-001	  4.53899E-001	  4.94456E-001	  4.41993E-001
  3.00000E-004	  4.57076E-001	  4.31003E-001	  7.04614E-001	  7.18375E-001
  3.25000E-004	  4.57076E-001	  3.96659E-001	  4.36079E-001	  4.17960E-001
  3.50000E-004	  6.73831E-001	  4.76795E-001	  7.62991E-001	  7.66442E-001
  3.75000E-004	  6.49747E-001	  5.22587E-001	  5.06132E-001	  6.34259E-001
  4.00000E-004	  5.05243E-001	  4.76794E-001	  4.65267E-001	  5.38126E-001
  4.50000E-004	  4.08908E-001	  4.13830E-001	  5.93697E-001	  7.24383E-001
  5.00000E-004	  3.60740E-001	  5.56930E-001	  5.76184E-001	  5.56150E-001
  5.50000E-004	  3.30635E-001	  5.56930E-001	  4.30241E-001	  5.56150E-001
  6.00000E-004	  5.11264E-001	  4.48174E-001	  5.00293E-001	  5.14092E-001
  6.50000E-004	  5.05243E-001	  6.54239E-001	  5.06131E-001	  2.37710E-001
  7.00000E-004	  3.90845E-001	  4.31002E-001	  4.47754E-001	  4.96067E-001
  7.50000E-004	  4.14928E-001	  5.05414E-001	  5.23644E-001	  5.74175E-001
  8.00000E-004	  4.96210E-001	  5.54067E-001	  4.33158E-001	  5.74174E-001
  9.00000E-004	  3.87833E-001	  4.76793E-001	  4.91536E-001	  4.87054E-001
  1.00000E-003	  4.54064E-001	  5.42619E-001	  6.17046E-001	  4.57012E-001
  1.10000E-003	  4.84168E-001	  4.76793E-001	  3.74781E-001	  4.44996E-001
  1.20000E-003	  3.99875E-001	  4.65345E-001	  3.30998E-001	  5.20099E-001
  1.30000E-003	  4.72126E-001	  5.62653E-001	  4.74022E-001	  5.29112E-001
  1.40000E-003	  4.11917E-001	  6.59961E-001	  4.71104E-001	  4.26971E-001
  1.50000E-003	  3.36655E-001	  5.62653E-001	  3.95213E-001	  3.90921E-001
  1.60000E-003	  3.51705E-001	  4.89670E-001	  3.93751E-001	  4.46495E-001
  1.80000E-003	  3.89336E-001	  4.42447E-001	  3.66022E-001	  4.51001E-001
  2.00000E-003	  4.11914E-001	  5.12565E-001	  4.52128E-001	  3.63881E-001
  2.20000E-003	  4.63093E-001	  5.24013E-001	  4.78398E-001	  4.96064E-001
  2.40000E-003	  3.66757E-001	  4.10965E-001	  4.20021E-001	  4.02935E-001
  2.60000E-003	  3.68262E-001	  3.62311E-001	  5.28019E-001	  4.85549E-001
  2.80000E-003	  3.75789E-001	  4.30999E-001	  3.32456E-001	  4.08943E-001
  3.00000E-003	  4.07399E-001	  3.89500E-001	  4.43372E-001	  3.98429E-001
  3.20000E-003	  3.38153E-001	  3.85917E-001	  4.71878E-001	  4.90801E-001
  3.60000E-003	  4.05889E-001	  4.21692E-001	  4.22985E-001	  4.57756E-001
  4.00000E-003	  4.14167E-001	  4.63907E-001	  3.77012E-001	  4.46490E-001
  4.40000E-003	  4.04383E-001	  4.51743E-001	  3.93066E-001	  4.42735E-001
  4.80000E-003	  3.87826E-001	  3.51574E-001	  3.74823E-001	  4.26963E-001
  5.20000E-003	  3.69763E-001	  4.41011E-001	  4.47796E-001	  3.45101E-001
  5.60000E-003	  3.63742E-001	  3.35164E-001	  3.96715E-001	  3.85657E-001
  6.00000E-003	  4.17178E-001	  4.04569E-001	  4.75526E-001	  4.34474E-001
  6.40000E-003	  3.90074E-001	  3.83476E-001	  4.21956E-001	  4.32262E-001
  7.20000E-003	  3.57336E-001	  3.75247E-001	  3.86197E-001	  4.22874E-001
  8.00000E-003	  3.83677E-001	  3.90274E-001	  4.13174E-001	  3.95836E-001
  8.80000E-003	  3.70130E-001	  3.81687E-001	  3.95270E-001	  3.79313E-001
  9.60000E-003	  4.00611E-001	  3.88127E-001	  3.86197E-001	  3.72553E-001
  1.04000E-002	  3.53196E-001	  3.56644E-001	  4.00793E-001	  3.78186E-001
  1.12000E-002	  4.08137E-001	  4.03153E-001	  3.80359E-001	  3.94709E-001
  1.20000E-002	  3.64486E-001	  3.67734E-001	  3.70507E-001	  3.82317E-001
  1.28000E-002	  3.43394E-001	  3.50388E-001	  3.70926E-001	  3.63244E-001
  1.44000E-002	  3.39255E-001	  3.48778E-001	  3.55965E-001	  3.68877E-001
  1.60000E-002	  3.39443E-001	  3.46966E-001	  3.45930E-001	  3.44279E-001
  1.76000E-002	  3.47533E-001	  3.53405E-001	  3.47549E-001	  3.60990E-001
  1.92000E-002	  3.59199E-001	  3.32298E-001	  3.30399E-001	  3.43504E-001
  2.08000E-002	  3.18746E-001	  3.34086E-001	  3.26726E-001	  3.17967E-001
  2.24000E-002	  3.44547E-001	  3.17808E-001	  3.42210E-001	  3.34115E-001
  2.40000E-002	  3.19711E-001	  3.19955E-001	  3.32906E-001	  3.19657E-001
  2.56000E-002	  3.08221E-001	  3.07578E-001	  3.32578E-001	  3.35912E-001
  2.88000E-002	  2.84138E-001	  2.92910E-001	  3.14971E-001	  3.26874E-001
  3.20000E-002	  2.74072E-001	  2.81461E-001	  3.12872E-001	  3.07720E-001
  3.52000E-002	  2.62030E-001	  2.74864E-001	  2.87785E-001	  2.90163E-001
  3.84000E-002	  2.75859E-001	  2.85776E-001	  2.77384E-001	  2.83027E-001
  4.16000E-002	  2.45849E-001	  2.60195E-001	  2.74374E-001	  2.67441E-001
  4.48000E-002	  2.21107E-001	  2.38997E-001	  2.51545E-001	  2.58852E-001
  4.80000E-002	  2.33713E-001	  2.31594E-001	  2.65640E-001	  2.64789E-001
  5.12000E-002	  2.40015E-001	  2.35521E-001	  2.49188E-001	  2.46356E-001
  5.76000E-002	  2.07512E-001	  2.19015E-001	  2.30165E-001	  2.22954E-001
  6.40000E-002	  1.95047E-001	  1.90722E-001	  2.17051E-001	  2.05161E-001
  7.04000E-002	  1.83309E-001	  1.80744E-001	  1.96547E-001	  2.02250E-001
  7.68000E-002	  1.86789E-001	  1.66897E-001	  1.85557E-001	  1.93402E-001
  8.32000E-002	  1.57390E-001	  1.53791E-001	  1.82273E-001	  1.78781E-001
  8.96000E-002	  1.46901E-001	  1.45669E-001	  1.61310E-001	  1.57024E-001
  9.60000E-002	  1.52169E-001	  1.36703E-001	  1.52075E-001	  1.46655E-001
  1.02400E-001	  1.43385E-001	  1.32093E-001	  1.43588E-001	  1.45115E-001
  1.15200E-001	  1.25056E-001	  1.21019E-001	  1.26167E-001	  1.26692E-001
  1.28000E-001	  1.07909E-001	  8.98212E-002	  1.01151E-001	  1.17306E-001
  1.40800E-001	  9.42938E-002	  7.58527E-002	  9.52886E-002	  1.11579E-001
  1.53600E-001	  7.74292E-002	  7.78253E-002	  8.12836E-002	  9.18380E-002
  1.66400E-001	  7.63472E-002	  7.63262E-002	  7.27528E-002	  8.74680E-002
  1.79200E-001	  6.62332E-002	  5.11880E-002	  6.78153E-002	  7.32006E-002
  1.92000E-001	  6.28371E-002	  3.99556E-002	  6.21775E-002	  5.86755E-002
  2.04800E-001	  5.29220E-002	  4.76037E-002	  5.17132E-002	  5.08325E-002
  2.30400E-001	  4.79770E-002	  4.36994E-002	  4.12197E-002	  4.75905E-002
  2.56000E-001	  3.50903E-002	  3.69111E-002	  2.51308E-002	  3.54351E-002
  2.81600E-001	  2.57247E-002	  1.83083E-002	  3.28592E-002	  2.67741E-002
  3.07200E-001	  2.63767E-002	  2.13231E-002	  2.55576E-002	  1.78842E-002
  3.32800E-001	  2.46374E-002	  9.54933E-003	  2.16991E-002	  2.30206E-002
  3.58400E-001	  1.78926E-002	  5.46989E-003	  1.49183E-002	  2.28093E-002
  3.84000E-001	  1.18641E-002	  1.77730E-003	  1.33366E-002	  1.99086E-002
  4.09600E-001	  8.94465E-003	  1.86949E-003	  1.26701E-002	  1.85784E-002
  4.60800E-001	  6.13312E-003	 -1.42851E-003	  1.24497E-002	  1.44863E-002
  5.12000E-001	  3.04429E-003	 -4.33955E-003	  6.94398E-003	  1.33906E-002
  5.63200E-001	  3.81444E-003	  6.62089E-003	 -3.22261E-003	  1.26959E-002
  6.14400E-001	  1.89036E-003	  7.10155E-003	  6.26571E-003	  1.81321E-002
  6.65600E-001	 -3.03990E-003	  4.51172E-004	 -5.22022E-004	  1.56200E-002
  7.16800E-001	 -1.37175E-002	 -4.58981E-003	  4.17373E-003	  1.15714E-002
  7.68000E-001	 -7.89399E-003	 -1.35509E-003	  8.59707E-003	  8.35983E-003
  8.19200E-001	 -4.01313E-003	  8.04072E-004	  5.82788E-003	  6.28092E-003
  9.21600E-001	 -2.11698E-003	  7.43139E-003	 -3.61715E-003	  2.14050E-003
  1.02400E+000	 -6.60719E-003	  5.28228E-003	 -1.31104E-002	 -9.10790E-004
  1.12640E+000	 -6.08278E-003	  1.14676E-002	 -1.55760E-002	  6.77578E-003
  1.22880E+000	 -1.78002E-003	  1.17038E-002	 -4.59124E-003	  5.49902E-003
  1.33120E+000	  2.38752E-003	  1.38420E-002	  4.39750E-003	  7.07622E-003
  1.43360E+000	  2.41376E-003	  2.66194E-003	  3.64385E-003	  4.10193E-003
  1.53600E+000	 -1.21542E-003	 -1.47405E-003	  2.55409E-003	  6.82100E-003
  1.63840E+000	 -5.03877E-003	 -6.56779E-003	  2.68792E-003	  2.13097E-003
  1.84320E+000	 -5.22754E-003	 -9.42776E-003	  3.65549E-004	 -7.60961E-003
  2.04800E+000	 -5.86254E-003	 -2.91009E-003	  6.92035E-003	 -4.20882E-003
  2.25280E+000	  4.38546E-003	  4.10616E-004	  5.89561E-003	 -5.52184E-003
  2.45760E+000	 -1.42233E-003	  3.87240E-003	 -3.45414E-003	 -2.13916E-003
  2.66240E+000	 -8.56518E-004	  5.40687E-003	 -3.46400E-003	  3.14480E-003
  2.86720E+000	  1.48416E-003	 -5.36609E-003	 -9.35017E-004	 -2.10262E-003
  3.07200E+000	 -2.36906E-004	 -1.17915E-003	 -2.39979E-003	 -4.19393E-003
  3.27680E+000	  3.56043E-003	 -1.31700E-003	 -5.29859E-004	 -4.06688E-003
  3.68640E+000	  9.20320E-003	  3.32112E-003	 -4.42439E-003	 -5.62573E-003
  4.09600E+000	  3.49470E-003	 -2.98901E-003	 -6.00293E-003	 -4.86963E-003
  4.50560E+000	 -6.28230E-004	  3.05599E-003	  3.64028E-003	 -5.72132E-003
  4.91520E+000	 -3.88624E-003	  4.84597E-003	  1.31633E-003	  1.06849E-003
  5.32480E+000	  1.29805E-003	 -2.44084E-003	  4.82121E-004	  3.36088E-003
  5.73440E+000	  6.79801E-003	 -1.47104E-003	 -7.22236E-003	 -2.27514E-003
  6.14400E+000	 -5.87009E-003	  3.38543E-003	 -6.23270E-003	 -1.41339E-003
  6.55360E+000	 -7.86379E-003	 -8.92605E-004	 -7.25238E-003	  9.17900E-003
  7.37280E+000	  3.57745E-003	  5.16543E-004	  1.82351E-003	  5.08868E-003
  8.19200E+000	  5.12920E-004	 -2.06774E-003	 -7.63596E-004	 -1.52875E-003
  9.01120E+000	 -7.63935E-003	 -2.07687E-003	 -8.76904E-003	 -5.39629E-004
  9.83040E+000	 -1.85782E-003	 -2.90372E-003	  1.13414E-003	 -3.90696E-004
  1.06496E+001	 -3.14719E-003	 -4.57239E-004	  1.32840E-003	 -1.09224E-003
  1.14688E+001	  4.77875E-003	 -3.73818E-003	  7.11940E-004	  4.23016E-004
  1.22880E+001	 -1.66041E-003	 -4.06340E-003	  3.44518E-003	  3.09504E-003
  1.31072E+001	  9.50814E-004	 -2.14260E-003	  3.77258E-004	 -8.67545E-004
  1.47456E+001	 -3.78747E-003	 -3.53476E-003	 -5.37960E-003	  2.14115E-003
  1.63840E+001	 -3.31139E-003	 -4.64148E-003	 -1.45750E-004	  5.12916E-003
  1.80224E+001	 -3.42343E-003	  1.30791E-003	 -4.79267E-003	 -2.92291E-003
  1.96608E+001	  3.99097E-003	 -3.47615E-003	 -1.77620E-003	  2.68981E-003
  2.12992E+001	  7.48548E-004	  3.49459E-003	  1.96455E-003	  9.57222E-005
  2.29376E+001	  3.22976E-003	  2.41569E-003	  1.40146E-003	 -3.13753E-003
  2.45760E+001	 -2.98233E-003	  4.05206E-003	 -8.86313E-004	  3.32765E-003
  2.62144E+001	  2.44675E-004	  1.90712E-003	 -8.56607E-004	  2.60240E-003
  2.94912E+001	  5.52097E-004	  2.44580E-003	  1.15328E-003	 -1.96529E-003
  3.27680E+001	 -1.14199E-003	 -4.65726E-004	  1.43705E-003	 -2.54487E-003
  3.60448E+001	 -3.15349E-003	  3.63209E-004	  1.60233E-003	  3.11404E-003
  3.93216E+001	  1.52788E-003	  1.04048E-003	 -1.98633E-003	 -6.69146E-004
  4.25984E+001	  7.69482E-004	 -1.25873E-003	 -1.24518E-003	 -6.38909E-004
  4.58752E+001	  5.04146E-004	 -6.91495E-004	  4.26538E-004	  2.06259E-003
  4.91520E+001	 -1.80606E-003	  3.96277E-004	  1.73938E-003	  1.07645E-003
  5.24288E+001	 -1.03453E-003	 -9.30612E-004	  1.47192E-003	  6.86901E-004
  5.89824E+001	 -3.43090E-003	  1.11243E-003	  2.06538E-003	  2.61881E-004
  6.55360E+001	  8.55646E-004	  5.41070E-004	 -2.58228E-003	  3.96261E-005
  7.20896E+001	 -2.03531E-003	 -1.64818E-003	  1.35148E-003	 -1.90357E-003
  7.86432E+001	 -6.19652E-004	  4.51344E-004	  3.14011E-004	  2.81409E-004
  8.51968E+001	  2.81011E-005	  1.13525E-003	  1.20981E-003	 -1.13931E-003
  9.17504E+001	  6.42992E-004	  1.77107E-003	 -5.89735E-004	 -5.50467E-004
  9.83040E+001	 -4.87182E-005	  9.20010E-004	 -2.49598E-003	  5.13453E-005
  1.04858E+002	  1.23157E-003	 -2.06105E-004	 -8.56663E-004	  4.85026E-004
  1.17965E+002	  6.88080E-004	  7.95481E-004	  5.77318E-004	  5.79984E-004
  1.31072E+002	  1.08712E-003	  7.48041E-004	 -2.09089E-004	 -7.47562E-004
  1.44179E+002	 -8.58467E-004	 -5.48918E-004	  3.72689E-004	  3.25654E-003
  1.57286E+002	 -2.71645E-004	  9.35912E-004	 -3.99787E-005	 -5.63432E-004
  1.70394E+002	 -1.66313E-003	  4.90756E-004	 -4.86587E-004	 -3.86711E-004
  1.83501E+002	  1.54966E-004	 -5.35628E-004	 -3.89083E-004	 -7.23733E-004
  1.96608E+002	  1.09721E-004	  6.15171E-004	  8.23140E-004	  4.64926E-004
  2.09715E+002	  1.16323E-003	 -3.83501E-004	 -1.31428E-004	 -1.05199E-003
  2.35930E+002	  6.41170E-004	 -9.54640E-005	  1.85959E-005	  8.14421E-004
  2.62144E+002	 -3.57210E-004	  8.63852E-004	 -1.03670E-004	  2.44390E-004
  2.88358E+002	 -1.36617E-003	  1.33398E-004	  2.85507E-005	 -1.19832E-003
  3.14573E+002	 -4.91339E-004	 -7.80894E-004	  4.10471E-004	 -1.07180E-003
  3.40787E+002	  5.33545E-004	 -1.90317E-004	 -1.73865E-004	 -5.06143E-004
  3.67002E+002	  5.18667E-004	  6.12444E-004	  2.32883E-004	 -2.39317E-003
  3.93216E+002	 -2.92078E-004	  1.47641E-004	  1.81467E-004	  7.11247E-005

"Count Rate"
       0.01311	      68.05420	      62.17957	      55.54199	      59.28040
       0.02621	      56.99158	      56.53381	      59.12781	      61.64551
       0.03932	      53.78723	      58.36487	      62.86621	      59.05151
       0.05243	      60.80627	      56.07605	      52.41394	      49.74365
       0.06554	      59.05151	      65.46021	      60.34851	      61.18774
       0.07864	      57.52563	      52.41394	      49.20959	      58.74634
       0.09175	      56.38123	      67.67273	      54.70276	      54.32129
       0.10486	      58.74634	      55.23682	      58.21228	      60.80627
       0.11796	      72.86072	      57.75452	      62.86621	      50.04883
       0.13107	      58.21228	      58.59375	      57.75452	      55.99976
       0.14418	      50.88806	      53.25317	      61.56921	      64.69727
       0.15729	      61.56921	      62.56104	      59.35669	      67.13867
       0.17039	      57.52563	      53.86353	      62.71362	      53.86353
       0.18350	      52.64282	      70.03784	      59.05151	      74.69177
       0.19661	      62.10327	      54.85535	      55.23682	      65.46021
       0.20972	      53.17688	      53.17688	      60.34851	      63.85803
       0.22282	      61.95068	      62.56104	      53.48206	      49.13330
       0.23593	      63.40027	      57.90710	      57.29675	      61.95068
       0.24904	      62.17957	      51.65100	      56.76270	      65.15503
       0.26214	      59.89075	      57.14417	      57.52563	      56.07605
       0.27525	      60.88257	      66.98608	      55.61829	      57.52563
       0.28836	      54.24500	      58.51746	      60.95886	      55.31311
       0.30147	      55.54199	      64.92615	      60.34851	      62.25586
       0.31457	      58.44116	      56.45752	      61.41663	      52.49023
       0.32768	      58.28857	      56.61011	      52.26135	      68.66455
       0.34079	      55.23682	      56.38123	      57.06787	      59.89075
       0.35389	      57.29675	      52.79541	      63.78174	      58.74634
       0.36700	      53.71094	      56.83899	      65.00244	      58.44116
       0.38011	      62.48474	      60.57739	      61.11145	      58.05969
       0.39322	      59.81445	      56.15234	      60.04333	      57.83081
       0.40632	      58.28857	      54.55017	      62.40845	      55.46570
       0.41943	      62.48474	      63.85803	      59.73816	      52.18506
       0.43254	      58.97522	      63.55286	      61.79810	      57.22046
       0.44564	      54.01611	      60.27222	      63.01880	      64.69727
       0.45875	      58.05969	      60.11963	      55.46570	      53.10059
       0.47186	      58.05969	      62.10327	      58.21228	      65.23132
       0.48497	      61.03516	      58.36487	      59.28040	      63.70544
       0.49807	      64.39209	      57.44934	      60.95886	      56.53381
       0.51118	      60.11963	      59.35669	      58.05969	      55.16052
       0.52429	      50.88806	      52.10876	      59.73816	      54.16870
       0.53740	      59.81445	      53.93982	      60.27222	      47.68372
       0.55050	      51.19324	      66.52832	      47.68372	      51.04065
       0.56361	      55.31311	      57.06787	      65.61279	      55.00793
       0.57672	      51.26953	      60.50110	      58.28857	      58.74634
       0.58982	      55.92346	      59.81445	      65.38391	      66.90979
       0.60293	      61.34033	      53.32947	      58.21228	      57.14417
       0.61604	      60.42480	      61.72180	      55.92346	      51.34583
       0.62915	      60.57739	      56.45752	      56.61011	      56.53381
       0.64225	      63.09509	      69.35120	      58.13599	      61.95068
       0.65536	      46.38672	      58.97522	      54.24500	      58.13599
       0.66847	      57.37305	      60.95886	      64.77356	      57.37305
       0.68157	      57.37305	      67.06238	      61.03516	      51.72729
       0.69468	      56.99158	      58.05969	      52.87170	      58.28857
       0.70779	      60.19592	      63.47656	      60.42480	      55.00793
       0.72090	      62.17957	      68.28308	      70.11414	      60.80627
       0.73400	      60.95886	      65.84167	      58.36487	      61.26404
       0.74711	      55.00793	      62.78992	      57.14417	      56.07605
