ALV-7004/USB-FAST
Date :	"11/11/2025"
Time :	"3:53:55 PM"
Samplename : 	""
SampMemo(0) : 	""
SampMemo(1) : 	""
SampMemo(2) : 	""
SampMemo(3) : 	""
SampMemo(4) : 	""
SampMemo(5) : 	""
SampMemo(6) : 	""
SampMemo(7) : 	""
SampMemo(8) : 	""
SampMemo(9) : 	""
Temperature [K] :	     298.16000
Viscosity [cp]  :	       0.89000
Refractive Index:	       1.33200
Wavelength [nm] :	       0.00000
Angle [°]       :	       0.00000
Duration [s]    :	         1
FloatDur [ms]   :	          944
Stop TP [ms]   :	     58900
Runs            :	         1
Mode            :	"A-CH0+1  A-CH2+3 "
MeanCR0 [kHz]   :	      54.91680
MeanCR1 [kHz]   :	      56.29963
MeanCR2 [kHz]   :	      55.93936
MeanCR3 [kHz]   :	      53.78829

"Correlation"
  3.12500E-006	 -1.00000E+000	 -1.00000E+000	 -1.00000E+000	 -1.00000E+000
  6.25000E-006	 -1.00000E+000	 -1.00000E+000	 -1.00000E+000	 -1.00000E+000
  9.37500E-006	 -1.00000E+000	 -1.00000E+000	 -1.00000E+000	 -1.00000E+000
  1.25000E-005	 -1.00000E+000	 -1.00000E+000	 -1.00000E+000	 -1.00000E+000
  1.56250E-005	 -1.00000E+000	 -1.00000E+000	 -1.00000E+000	 -1.00000E+000
  1.87500E-005	 -1.00000E+000	 -1.00000E+000	 -1.00000E+000	 -1.00000E+000
  2.18750E-005	 -1.00000E+000	  3.90720E-001	  8.42135E-001	 -5.31195E-001
  2.50000E-005	  1.33915E+001	  1.19444E+001	  1.05946E+001	  2.78315E+001
  2.81250E-005	  2.82275E+000	  2.20935E+000	  1.92574E+000	  1.00169E+001
  3.12500E-005	  2.26058E+000	  1.56748E+000	  8.42135E-001	  4.39125E+000
  3.43750E-005	  1.69841E+000	  1.13957E+000	  1.60066E+000	  3.10204E+000
  3.75000E-005	  1.92328E+000	 -1.44172E-001	  5.17053E-001	  5.09446E+000
  4.06250E-005	  1.13624E+000	  3.90720E-001	  1.49230E+000	  2.63324E+000
  4.37500E-005	  6.86507E-001	  6.04677E-001	  5.17053E-001	  3.21924E+000
  4.68750E-005	  1.58598E+000	  4.97699E-001	  5.17053E-001	  1.10962E+000
  5.00000E-005	  3.49206E-001	  3.37231E-001	  1.11304E+000	  2.04723E+000
  5.62500E-005	  7.42724E-001	  1.13957E+000	  9.50496E-001	  1.40262E+000
  6.25000E-005	  3.49206E-001	  9.79102E-001	  4.08692E-001	  1.63703E+000
  6.87500E-005	  5.74073E-001	  7.65145E-001	  1.16722E+000	  1.87143E+000
  7.50000E-005	  6.30290E-001	  9.25612E-001	  7.33774E-001	  8.16618E-001
  8.12500E-005	  4.05423E-001	  3.37231E-001	  4.62872E-001	  9.92420E-001
  8.75000E-005	  9.11375E-001	  5.51188E-001	  2.46150E-001	  9.33820E-001
  9.37500E-005	  6.30290E-001	  2.30252E-001	  1.11304E+000	  9.92420E-001
  1.00000E-004	  6.30290E-001	  5.77932E-001	  7.06684E-001	  5.52916E-001
  1.12500E-004	  5.74073E-001	  4.70954E-001	  4.62872E-001	  3.18513E-001
  1.25000E-004	  6.30290E-001	  3.63975E-001	  5.71233E-001	  6.40816E-001
  1.37500E-004	  4.89748E-001	  5.77932E-001	  8.96315E-001	  7.87318E-001
  1.50000E-004	  7.14616E-001	  4.70954E-001	  5.17052E-001	  3.77114E-001
  1.62500E-004	  3.49206E-001	  6.84911E-001	  3.27421E-001	  7.58018E-001
  1.75000E-004	  2.92989E-001	  5.77932E-001	  8.15045E-001	  7.28717E-001
  1.87500E-004	  7.98941E-001	  6.31421E-001	  5.71233E-001	  8.16618E-001
  2.00000E-004	  6.44344E-001	  7.25027E-001	  6.38958E-001	  7.28717E-001
  2.25000E-004	  6.86507E-001	  3.77347E-001	  3.13875E-001	  5.08965E-001
  2.50000E-004	  4.89748E-001	  3.77347E-001	  5.44142E-001	  5.67565E-001
  2.75000E-004	  2.08663E-001	  3.23858E-001	  5.57687E-001	  6.26166E-001
  3.00000E-004	  5.60019E-001	  5.11070E-001	  6.38958E-001	  1.13411E-001
  3.25000E-004	  5.60019E-001	  6.58166E-001	  5.17052E-001	  6.40816E-001
  3.50000E-004	  7.00561E-001	  4.04092E-001	  5.30597E-001	  3.33163E-001
  3.75000E-004	  5.31910E-001	  3.10486E-001	  2.86785E-001	  4.21064E-001
  4.00000E-004	  5.95154E-001	  5.77931E-001	  4.01918E-001	  4.13738E-001
  4.50000E-004	  3.00015E-001	  4.44208E-001	  6.66048E-001	  4.21063E-001
  5.00000E-004	  3.00015E-001	  3.90719E-001	  4.15463E-001	  5.16289E-001
  5.50000E-004	  6.02181E-001	  4.91011E-001	  4.15463E-001	  4.35713E-001
  6.00000E-004	  3.98395E-001	  5.91304E-001	  5.03506E-001	  3.25837E-001
  6.50000E-004	  4.19476E-001	  3.90719E-001	  5.44142E-001	  2.81887E-001
  7.00000E-004	  7.98940E-001	  5.71245E-001	  7.94726E-001	  6.99416E-001
  7.50000E-004	  4.05422E-001	  4.50894E-001	  5.57687E-001	  5.30939E-001
  8.00000E-004	  5.24881E-001	  4.27492E-001	  5.74617E-001	  3.25836E-001
  9.00000E-004	  4.75692E-001	  4.47550E-001	  3.95144E-001	  5.16288E-001
  1.00000E-003	  5.35422E-001	  4.37521E-001	  5.20436E-001	  4.86988E-001
  1.10000E-003	  5.14341E-001	  3.67316E-001	  4.42552E-001	  5.19951E-001
  1.20000E-003	  5.00286E-001	  4.04090E-001	  4.15462E-001	  4.50362E-001
  1.30000E-003	  5.21368E-001	  4.80981E-001	  4.93346E-001	  6.15176E-001
  1.40000E-003	  4.61637E-001	  4.27492E-001	  3.81599E-001	  3.91762E-001
  1.50000E-003	  4.65151E-001	  5.47842E-001	  4.35780E-001	  3.55137E-001
  1.60000E-003	  4.68662E-001	  4.96022E-001	  5.35672E-001	  5.29104E-001
  1.80000E-003	  3.79067E-001	  4.32504E-001	  5.62762E-001	  5.78548E-001
  2.00000E-003	  5.10825E-001	  5.06080E-001	  4.10380E-001	  3.93591E-001
  2.20000E-003	  4.07175E-001	  4.70977E-001	  5.66148E-001	  3.97253E-001
  2.40000E-003	  5.31906E-001	  4.24173E-001	  5.94932E-001	  4.57685E-001
  2.60000E-003	  3.80823E-001	  4.64291E-001	  6.00011E-001	  4.85154E-001
  2.80000E-003	  3.96634E-001	  4.70977E-001	  5.45831E-001	  5.40092E-001
  3.00000E-003	  4.37040E-001	  4.35874E-001	  5.03502E-001	  4.39372E-001
  3.20000E-003	  4.25616E-001	  4.35923E-001	  4.66276E-001	  4.98883E-001
  3.60000E-003	  3.96630E-001	  5.08639E-001	  4.28207E-001	  4.43030E-001
  4.00000E-003	  4.20346E-001	  4.87743E-001	  4.52786E-001	  4.61343E-001
  4.40000E-003	  4.87981E-001	  4.77714E-001	  4.73951E-001	  4.10983E-001
  4.80000E-003	  4.09805E-001	  5.14489E-001	  4.78212E-001	  4.43030E-001
  5.20000E-003	  4.76562E-001	  5.13654E-001	  4.87525E-001	  3.85345E-001
  5.60000E-003	  4.92373E-001	  4.89415E-001	  4.77366E-001	  5.27268E-001
  6.00000E-003	  4.32643E-001	  4.20043E-001	  4.46041E-001	  4.49439E-001
  6.40000E-003	  4.16384E-001	  4.61933E-001	  5.02783E-001	  4.27912E-001
  7.20000E-003	  4.16384E-001	  4.75307E-001	  4.96433E-001	  4.29286E-001
  8.00000E-003	  4.42296E-001	  4.61098E-001	  4.73151E-001	  4.97958E-001
  8.80000E-003	  4.26924E-001	  4.70292E-001	  4.79105E-001	  4.56755E-001
  9.60000E-003	  4.24289E-001	  4.78177E-001	  4.86725E-001	  4.47598E-001
  1.04000E-002	  4.07161E-001	  4.76506E-001	  4.85878E-001	  4.74609E-001
  1.12000E-002	  4.36586E-001	  4.53938E-001	  5.21438E-001	  4.32948E-001
  1.20000E-002	  5.11688E-001	  4.62714E-001	  5.18051E-001	  4.41647E-001
  1.28000E-002	  4.60970E-001	  4.48049E-001	  4.80623E-001	  4.58595E-001
  1.44000E-002	  4.41865E-001	  4.76443E-001	  5.05445E-001	  4.86064E-001
  1.60000E-002	  4.26493E-001	  4.98386E-001	  4.85336E-001	  4.62257E-001
  1.76000E-002	  4.51307E-001	  4.61787E-001	  4.78802E-001	  4.58595E-001
  1.92000E-002	  4.38351E-001	  4.58444E-001	  5.07831E-001	  4.60884E-001
  2.08000E-002	  4.43841E-001	  4.83939E-001	  5.17173E-001	  4.54474E-001
  2.24000E-002	  4.48233E-001	  4.71136E-001	  4.61048E-001	  4.56077E-001
  2.40000E-002	  4.23638E-001	  4.75315E-001	  4.85237E-001	  4.68438E-001
  2.56000E-002	  4.28733E-001	  4.77594E-001	  4.77899E-001	  4.62390E-001
  2.88000E-002	  4.09957E-001	  4.94837E-001	  4.86050E-001	  4.44878E-001
  3.20000E-002	  4.37435E-001	  4.60978E-001	  4.92853E-001	  4.51717E-001
  3.52000E-002	  4.16243E-001	  4.71978E-001	  4.90975E-001	  4.40043E-001
  3.84000E-002	  4.23819E-001	  4.55125E-001	  4.67743E-001	  4.39013E-001
  4.16000E-002	  4.01529E-001	  4.50813E-001	  4.80128E-001	  4.30429E-001
  4.48000E-002	  4.27882E-001	  4.51936E-001	  4.71688E-001	  4.31143E-001
  4.80000E-002	  4.08118E-001	  4.40127E-001	  4.66289E-001	  4.62275E-001
  5.12000E-002	  4.30743E-001	  4.52998E-001	  4.58811E-001	  4.47088E-001
  5.76000E-002	  4.20668E-001	  4.45734E-001	  4.64662E-001	  4.27287E-001
  6.40000E-002	  4.08506E-001	  4.57622E-001	  4.65668E-001	  4.33411E-001
  7.04000E-002	  4.26872E-001	  4.45652E-001	  4.68950E-001	  4.31036E-001
  7.68000E-002	  4.16330E-001	  4.69744E-001	  4.42269E-001	  4.23139E-001
  8.32000E-002	  4.16220E-001	  4.22997E-001	  4.67788E-001	  4.18103E-001
  8.96000E-002	  3.97306E-001	  4.30416E-001	  4.48810E-001	  4.29375E-001
  9.60000E-002	  4.08012E-001	  4.29840E-001	  4.38805E-001	  4.16556E-001
  1.02400E-001	  3.99236E-001	  4.39786E-001	  4.51421E-001	  4.26986E-001
  1.15200E-001	  4.01075E-001	  4.35424E-001	  4.43611E-001	  4.07843E-001
  1.28000E-001	  3.90973E-001	  4.21783E-001	  4.31008E-001	  4.14052E-001
  1.40800E-001	  3.71096E-001	  4.12505E-001	  4.27753E-001	  3.82144E-001
  1.53600E-001	  3.79937E-001	  4.02313E-001	  4.26617E-001	  3.98027E-001
  1.66400E-001	  3.68381E-001	  3.91754E-001	  4.15232E-001	  3.84149E-001
  1.79200E-001	  3.69974E-001	  3.84017E-001	  3.91955E-001	  3.92677E-001
  1.92000E-001	  3.42194E-001	  3.87285E-001	  3.96510E-001	  3.57883E-001
  2.04800E-001	  3.39127E-001	  3.69872E-001	  3.85755E-001	  3.56413E-001
  2.30400E-001	  3.25384E-001	  3.60562E-001	  3.72003E-001	  3.36167E-001
  2.56000E-001	  3.24591E-001	  3.45062E-001	  3.56105E-001	  3.26896E-001
  2.81600E-001	  3.04057E-001	  3.35017E-001	  3.38535E-001	  3.07482E-001
  3.07200E-001	  2.92073E-001	  3.06441E-001	  3.38985E-001	  2.97765E-001
  3.32800E-001	  2.74220E-001	  2.97695E-001	  3.08504E-001	  2.78697E-001
  3.58400E-001	  2.61704E-001	  2.88906E-001	  2.98351E-001	  2.57680E-001
  3.84000E-001	  2.50716E-001	  2.65446E-001	  2.94730E-001	  2.52998E-001
  4.09600E-001	  2.40057E-001	  2.60429E-001	  2.77226E-001	  2.41145E-001
  4.60800E-001	  2.12160E-001	  2.27045E-001	  2.51393E-001	  2.24471E-001
  5.12000E-001	  1.93493E-001	  2.08604E-001	  2.30594E-001	  2.01692E-001
  5.63200E-001	  1.84773E-001	  1.91634E-001	  2.10590E-001	  1.84332E-001
  6.14400E-001	  1.65520E-001	  1.62994E-001	  1.94502E-001	  1.64302E-001
  6.65600E-001	  1.52591E-001	  1.49599E-001	  1.78426E-001	  1.45742E-001
  7.16800E-001	  1.37833E-001	  1.30956E-001	  1.53870E-001	  1.35062E-001
  7.68000E-001	  1.21828E-001	  1.18989E-001	  1.47185E-001	  1.16206E-001
  8.19200E-001	  1.14309E-001	  1.04170E-001	  1.31891E-001	  1.08230E-001
  9.21600E-001	  9.02904E-002	  7.87711E-002	  1.11744E-001	  8.95520E-002
  1.02400E+000	  7.45393E-002	  5.82554E-002	  9.79065E-002	  7.08467E-002
  1.12640E+000	  6.05257E-002	  5.13096E-002	  8.43519E-002	  6.12352E-002
  1.22880E+000	  5.52595E-002	  3.48020E-002	  7.11178E-002	  5.16010E-002
  1.33120E+000	  4.66155E-002	  3.65457E-002	  5.78034E-002	  3.55639E-002
  1.43360E+000	  3.88728E-002	  2.89957E-002	  4.37124E-002	  3.07129E-002
  1.53600E+000	  3.21075E-002	  2.43435E-002	  3.20896E-002	  2.47172E-002
  1.63840E+000	  3.25266E-002	  2.11796E-002	  2.17046E-002	  1.87048E-002
  1.84320E+000	  2.21395E-002	  9.96911E-003	  6.38828E-003	  8.02434E-003
  2.04800E+000	  1.24408E-002	  1.78524E-003	  1.52383E-003	  5.56549E-003
  2.25280E+000	  5.96480E-004	 -1.42721E-003	 -5.76349E-003	  3.47836E-003
  2.45760E+000	  8.30927E-004	 -5.37901E-004	 -8.33435E-003	 -2.92371E-003
  2.66240E+000	  4.42811E-003	 -5.40158E-003	 -9.51212E-003	 -4.70314E-003
  2.86720E+000	  3.26454E-003	 -1.67240E-002	 -5.05845E-003	 -5.76748E-003
  3.07200E+000	  5.85709E-004	 -2.54115E-002	 -5.41800E-003	 -3.25117E-003
  3.27680E+000	  1.75763E-003	 -1.97288E-002	 -8.79015E-003	  3.13141E-003
  3.68640E+000	  3.93402E-004	 -6.30985E-003	 -8.01720E-003	  1.61765E-002
  4.09600E+000	 -5.45220E-004	  1.44655E-003	 -9.49020E-003	  1.21385E-002
  4.50560E+000	 -4.36587E-003	 -1.62220E-003	 -1.08083E-002	  2.55004E-004
  4.91520E+000	 -1.26891E-002	  3.33111E-004	 -8.67110E-004	 -8.03964E-003
  5.32480E+000	 -8.40585E-003	 -8.32949E-003	  1.24212E-003	 -1.08888E-002
  5.73440E+000	 -6.77714E-003	 -3.49094E-003	  2.88361E-003	 -9.82001E-003
  6.14400E+000	 -8.28722E-004	  1.38797E-003	  1.13401E-002	 -8.43058E-003
  6.55360E+000	  1.11123E-002	  1.32514E-004	  1.09828E-002	 -4.19331E-003
  7.37280E+000	  7.97650E-003	 -4.80492E-003	 -6.32338E-004	  6.30460E-003
  8.19200E+000	 -7.19513E-003	 -1.15597E-002	  8.79338E-003	  6.34573E-003
  9.01120E+000	  4.15227E-004	 -2.12446E-003	  1.42629E-002	 -2.39276E-002
  9.83040E+000	 -8.24683E-003	 -2.66931E-002	  1.78407E-002	 -1.51927E-002
  1.06496E+001	 -1.12377E-002	 -1.77552E-002	  1.72188E-002	 -8.24811E-003
  1.14688E+001	  8.61507E-003	 -5.16395E-003	  6.35444E-004	 -6.12112E-004
  1.22880E+001	  7.56125E-003	  7.78330E-003	 -1.65912E-002	  6.25169E-003
  1.31072E+001	  6.82279E-003	 -2.39401E-003	 -2.25515E-002	 -3.53974E-003
  1.47456E+001	  1.28608E-002	 -1.61757E-002	 -8.08102E-003	  1.08761E-002
  1.63840E+001	  2.89549E-003	 -5.88096E-003	 -2.39629E-003	  9.72084E-003
  1.80224E+001	  5.19556E-004	  3.99194E-003	 -7.71231E-003	  1.01144E-002
  1.96608E+001	 -1.11463E-002	  1.33208E-002	 -8.20344E-003	  4.81847E-003
  2.12992E+001	 -1.33573E-003	  1.11123E-002	 -1.17709E-002	 -5.77752E-003
  2.29376E+001	  4.65382E-005	  3.68201E-002	 -1.51287E-003	 -1.69356E-003
  2.45760E+001	  1.60755E-002	  9.61069E-003	  3.21162E-003	 -1.32441E-002
  2.62144E+001	  2.86976E-003	  7.41572E-003	  6.36583E-003	 -1.84807E-002
  2.94912E+001	 -1.07119E-002	  6.40013E-003	 -8.56445E-003	 -7.01871E-003
  3.27680E+001	  7.88871E-003	 -3.81856E-003	  1.16138E-002	  4.77857E-003
  3.60448E+001	  9.15797E-003	 -2.14317E-002	 -1.34632E-002	  4.94563E-004
  3.93216E+001	  8.67030E-003	 -9.99760E-004	  4.85768E-003	  1.86667E-002
  4.25984E+001	 -7.49412E-003	 -8.26892E-003	  2.40779E-002	 -1.95041E-002
  4.58752E+001	 -2.04583E-002	  5.39470E-003	  4.86694E-003	  8.28783E-003
  4.91520E+001	 -3.21392E-003	 -2.95986E-003	  5.38008E-003	 -6.28469E-003
  5.24288E+001	  1.22876E-003	 -5.10477E-003	 -1.27854E-002	  1.34878E-002
  5.89824E+001	  5.15840E-003	 -7.08937E-003	 -1.82582E-002	 -1.20483E-003
  6.55360E+001	  2.09315E-003	 -3.88514E-003	 -6.37642E-003	  5.12843E-003
  7.20896E+001	 -7.53061E-003	  7.45791E-003	  1.92596E-004	 -7.69078E-003
  7.86432E+001	 -1.30749E-002	 -7.20889E-004	  1.03617E-002	 -4.10505E-003
  8.51968E+001	 -1.08805E-002	 -4.71624E-003	 -4.06347E-003	  1.06449E-002
  9.17504E+001	 -1.58100E-003	  2.65525E-003	  1.13772E-002	 -4.99824E-004
  9.83040E+001	  3.26858E-003	  3.24451E-003	  6.52816E-003	  7.43349E-003
  1.04858E+002	 -4.47885E-003	  1.08702E-003	  6.36235E-003	  8.85268E-004
  1.17965E+002	 -7.87210E-003	  8.04355E-003	 -2.11435E-003	  3.37046E-003
  1.31072E+002	  1.49901E-003	  6.48942E-003	  1.75557E-004	  4.87227E-004
  1.44179E+002	 -9.92856E-003	 -7.83336E-003	 -8.47633E-003	 -2.83828E-003
  1.57286E+002	  7.77347E-003	 -1.85866E-004	 -9.27138E-003	  2.86826E-004
  1.70394E+002	 -9.41389E-003	 -2.56743E-003	 -8.19671E-004	  1.01417E-002
  1.83501E+002	  2.42075E-003	 -1.85850E-003	 -5.34267E-003	  5.73832E-003
  1.96608E+002	  4.51767E-003	  3.58785E-003	  8.38630E-004	 -1.15040E-002
  2.09715E+002	  1.02673E-002	  6.78428E-003	  8.10406E-003	  4.12348E-003
  2.35930E+002	 -1.45369E-003	  8.33171E-003	  6.10497E-003	 -2.87996E-004
  2.62144E+002	  8.33945E-003	 -6.47261E-003	 -1.53228E-002	  9.63375E-004
  2.88358E+002	 -7.02769E-003	 -6.60550E-003	 -3.16426E-003	 -3.61725E-003
  3.14573E+002	 -1.45894E-003	  3.13670E-003	  6.11526E-003	 -5.51100E-003
  3.40787E+002	 -5.53045E-003	  2.80154E-003	  3.85409E-003	 -2.03501E-003
  3.67002E+002	 -5.28331E-003	  5.73085E-004	 -1.14388E-002	  6.01031E-003
  3.93216E+002	  2.47764E-004	 -6.08157E-003	 -9.16419E-003	 -7.34296E-003

"Count Rate"
       0.01311	      69.88525	      57.22046	      45.77637	      45.39490
       0.02621	      51.42212	      53.40576	      43.64014	      44.17419
       0.03932	      54.39758	      58.05969	      59.81445	      47.60742
       0.05243	      61.79810	      55.46570	      70.34302	      62.25586
       0.06554	      39.06250	      68.96973	      58.67004	      57.67822
       0.07864	      61.41663	      52.03247	      53.86353	      54.70276
       0.09175	      51.19324	      52.18506	      60.34851	      45.47119
       0.10486	      40.43579	      52.18506	      74.23401	      45.31860
       0.11796	      52.26135	      37.53662	      78.35388	      53.93982
       0.13107	      56.07605	      50.27771	      56.53381	      68.51196
       0.14418	      51.26953	      58.21228	      55.92346	      57.37305
       0.15729	      63.62915	      62.25586	      65.30762	      50.35400
       0.17039	      54.39758	      53.48206	      54.85535	      59.58557
       0.18350	      63.40027	      51.72729	      37.23145	      52.71912
       0.19661	      49.28589	      59.89075	      66.52832	      49.89624
       0.20972	      45.24231	      62.40845	      74.53918	      42.87720
       0.22282	      65.15503	      71.25854	      46.99707	      62.78992
       0.23593	      52.94800	      52.49023	      61.26404	      39.52026
       0.24904	      67.74902	      61.11145	      42.95349	      36.92627
       0.26214	      55.00793	      56.53381	      43.02979	      55.16052
       0.27525	      93.30750	      48.90442	      45.08972	      44.70825
       0.28836	      55.54199	      45.39490	      52.49023	      48.98071
       0.30147	      45.54749	      62.17957	      63.09509	      52.79541
       0.31457	      48.21777	      71.94519	      50.50659	      42.80090
       0.32768	      40.13062	      52.64282	      45.39490	      55.61829
       0.34079	      51.34583	      72.17407	      64.62097	      45.39490
       0.35389	      39.21509	      53.48206	      38.37585	      44.47937
       0.36700	      41.04614	      61.56921	      45.85266	      52.56653
       0.38011	      58.28857	      44.93713	      65.46021	      56.45752
       0.39322	      38.52844	      63.93433	      38.83362	      54.39758
       0.40632	      67.82532	      49.28589	      71.64001	      54.70276
       0.41943	      65.00244	      75.22583	      68.51196	      52.64282
       0.43254	      54.70276	      81.55823	      39.36768	      49.28589
       0.44564	      49.13330	      50.81177	      63.62915	      43.86902
       0.45875	      53.32947	      54.70276	      47.45483	      47.68372
       0.47186	      52.87170	      60.42480	      40.28320	      41.27502
       0.48497	      58.13599	      39.59656	      49.74365	      60.27222
       0.49807	      74.92065	      60.34851	      46.31042	      49.97253
       0.51118	      50.96436	      66.22314	      43.79272	      41.27502
       0.52429	      45.16602	      44.47937	      50.88806	      45.62378
       0.53740	      75.22583	      51.04065	      69.35120	      78.96423
       0.55050	      35.40039	      73.39478	      61.41663	      47.60742
       0.56361	      51.11694	      53.25317	      46.69189	      30.05981
       0.57672	      39.74915	      54.32129	      57.22046	      57.22046
       0.58982	      57.67822	      48.52295	      40.13062	      68.89343
       0.60293	      59.12781	      40.20691	      44.32678	      65.30762
       0.61604	      40.20691	      54.77905	      57.44934	      47.14966
       0.62915	      49.28589	      54.32129	      65.84167	      50.96436
       0.64225	      51.42212	      46.61560	      67.44385	      59.50928
       0.65536	      53.78723	      47.14966	      59.50928	      50.88806
       0.66847	      67.06238	      41.42761	      48.82813	      55.23682
       0.68157	      63.70544	      73.01331	      36.16333	      62.71362
       0.69468	      75.75989	      39.97803	      56.91528	      34.86633
       0.70779	      50.58289	      57.44934	      71.10596	      66.75720
       0.72090	      58.89893	      33.34045	      40.43579	      61.79810
       0.73400	      37.23145	      47.30225	      81.93970	      47.53113
       0.74711	      55.31311	      66.14685	      61.34033	      42.34314
