ALV-7004/USB-FAST
Date :	"11/11/2025"
Time :	"4:00:19 PM"
Samplename : 	""
SampMemo(0) : 	""
SampMemo(1) : 	""
SampMemo(2) : 	""
SampMemo(3) : 	""
SampMemo(4) : 	""
SampMemo(5) : 	""
SampMemo(6) : 	""
SampMemo(7) : 	""
SampMemo(8) : 	""
SampMemo(9) : 	""
Temperature [K] :	     298.16000
Viscosity [cp]  :	       0.89000
Refractive Index:	       1.33200
Wavelength [nm] :	       0.00000
Angle [°]       :	       0.00000
Duration [s]    :	         1
FloatDur [ms]   :	          944
Stop TP [ms]   :	     68556
Runs            :	         1
Mode            :	"A-CH0+1  A-CH2+3 "
MeanCR0 [kHz]   :	      55.68716
MeanCR1 [kHz]   :	      57.49173
MeanCR2 [kHz]   :	      55.13191
MeanCR3 [kHz]   :	      55.94889

"Correlation"
  3.12500E-006	 -1.00000E+000	 -1.00000E+000	 -1.00000E+000	 -1.00000E+000
  6.25000E-006	 -1.00000E+000	 -1.00000E+000	 -1.00000E+000	 -1.00000E+000
  9.37500E-006	 -1.00000E+000	 -1.00000E+000	 -1.00000E+000	 -1.00000E+000
  1.25000E-005	 -1.00000E+000	 -1.00000E+000	 -1.00000E+000	 -1.00000E+000
  1.56250E-005	 -1.00000E+000	 -1.00000E+000	 -1.00000E+000	 -1.00000E+000
  1.87500E-005	 -1.00000E+000	 -1.00000E+000	 -1.00000E+000	 -1.00000E+000
  2.18750E-005	 -1.00000E+000	  5.38821E-001	  7.84931E-001	 -5.66704E-001
  2.50000E-005	  9.71577E+000	  1.19261E+001	  1.27217E+001	  2.34812E+001
  2.81250E-005	  3.70182E+000	  2.69317E+000	  1.11961E+000	  9.07413E+000
  3.12500E-005	  3.04575E+000	  2.28282E+000	  1.67740E+000	  5.49944E+000
  3.43750E-005	  1.29624E+000	  1.66729E+000	  1.56584E+000	  4.52452E+000
  3.75000E-005	 -1.58986E-002	  1.46211E+000	  1.45428E+000	  3.11631E+000
  4.06250E-005	  1.29624E+000	  8.46585E-001	  1.23116E+000	  2.35804E+000
  4.37500E-005	  9.34460E-002	  1.46211E+000	  5.61815E-001	  2.89966E+000
  4.68750E-005	  1.07755E+000	  5.38821E-001	  1.15582E-001	  1.59978E+000
  5.00000E-005	  8.04186E-001	  6.92703E-001	  8.96489E-001	  2.14139E+000
  5.62500E-005	  4.21480E-001	  8.97879E-001	  1.34272E+000	  2.14139E+000
  6.25000E-005	  6.40169E-001	  7.43997E-001	  8.40710E-001	  1.97891E+000
  6.87500E-005	  9.13530E-001	  4.36233E-001	  4.50256E-001	  1.54561E+000
  7.50000E-005	  8.58858E-001	  8.97879E-001	  4.50256E-001	  1.27480E+000
  8.12500E-005	  5.30824E-001	  6.41409E-001	  5.06035E-001	  7.33183E-001
  8.75000E-005	  4.21480E-001	  2.31057E-001	  8.96489E-001	  1.00399E+000
  9.37500E-005	  1.48118E-001	  5.90115E-001	  8.96489E-001	  1.11232E+000
  1.00000E-004	  8.31522E-001	  4.36233E-001	  4.78146E-001	  8.14426E-001
  1.12500E-004	  6.40169E-001	  6.67056E-001	  8.96489E-001	  8.41507E-001
  1.25000E-004	  3.66807E-001	  8.20938E-001	  6.73372E-001	  1.19356E+000
  1.37500E-004	  5.30824E-001	  5.90115E-001	  7.01262E-001	  6.51940E-001
  1.50000E-004	  8.04186E-001	  1.79763E-001	  2.27140E-001	  8.41507E-001
  1.62500E-004	  3.66807E-001	  6.92703E-001	  7.57041E-001	  7.06102E-001
  1.75000E-004	  8.58858E-001	  3.33645E-001	  7.29151E-001	  4.35292E-001
  1.87500E-004	  7.22177E-001	  4.36233E-001	  6.73372E-001	  5.97778E-001
  2.00000E-004	  6.94841E-001	  3.59291E-001	  7.15206E-001	  6.11318E-001
  2.25000E-004	  6.53836E-001	  7.18349E-001	  5.75759E-001	  5.43616E-001
  2.50000E-004	  3.53139E-001	  4.61879E-001	  6.73372E-001	  4.21751E-001
  2.75000E-004	  6.40168E-001	  6.41408E-001	  4.64201E-001	  6.38399E-001
  3.00000E-004	  4.89820E-001	  4.10585E-001	  5.61814E-001	  3.40509E-001
  3.25000E-004	  4.21479E-001	  4.61879E-001	  4.08421E-001	  5.57156E-001
  3.50000E-004	  5.17156E-001	  5.13173E-001	  7.15206E-001	  4.21751E-001
  3.75000E-004	  1.34450E-001	  6.92702E-001	  7.70985E-001	  6.11318E-001
  4.00000E-004	  4.14645E-001	  4.10585E-001	  5.06034E-001	  6.45169E-001
  4.50000E-004	  8.65691E-001	  5.13173E-001	  4.71172E-001	  3.94670E-001
  5.00000E-004	  5.99164E-001	  5.90114E-001	  5.06034E-001	  6.31628E-001
  5.50000E-004	  4.76151E-001	  9.49172E-001	  4.22366E-001	  4.96224E-001
  6.00000E-004	  5.51325E-001	  4.16997E-001	  3.73559E-001	  5.70696E-001
  6.50000E-004	  4.62483E-001	  4.29820E-001	  4.29338E-001	  4.69143E-001
  7.00000E-004	  5.30823E-001	  4.81114E-001	  5.61813E-001	  6.11318E-001
  7.50000E-004	  4.14645E-001	  6.09349E-001	  3.87504E-001	  4.75913E-001
  8.00000E-004	  5.20571E-001	  5.29229E-001	  3.24777E-001	  5.26688E-001
  9.00000E-004	  4.07809E-001	  5.22817E-001	  4.85144E-001	  5.97776E-001
  1.00000E-003	  4.76150E-001	  6.28613E-001	  6.14136E-001	  4.31905E-001
  1.10000E-003	  3.73639E-001	  4.84346E-001	  4.08447E-001	  3.26966E-001
  1.20000E-003	  4.72733E-001	  4.42669E-001	  3.17804E-001	  4.96222E-001
  1.30000E-003	  3.73639E-001	  4.33051E-001	  3.87529E-001	  4.25135E-001
  1.40000E-003	  3.97558E-001	  4.61904E-001	  4.15419E-001	  6.68863E-001
  1.50000E-003	  3.66805E-001	  5.54876E-001	  5.40924E-001	  2.93115E-001
  1.60000E-003	  3.94139E-001	  4.79562E-001	  4.20674E-001	  2.89728E-001
  1.80000E-003	  4.21475E-001	  4.77959E-001	  3.45718E-001	  4.92835E-001
  2.00000E-003	  3.48009E-001	  3.72161E-001	  4.50307E-001	  4.33595E-001
  2.20000E-003	  4.55645E-001	  5.06813E-001	  5.02573E-001	  4.48828E-001
  2.40000E-003	  4.48811E-001	  3.80176E-001	  3.57894E-001	  3.67585E-001
  2.60000E-003	  4.19767E-001	  4.93989E-001	  4.20646E-001	  3.98051E-001
  2.80000E-003	  4.91524E-001	  5.45285E-001	  5.32206E-001	  4.08207E-001
  3.00000E-003	  4.81273E-001	  4.41090E-001	  4.52022E-001	  4.23440E-001
  3.20000E-003	  3.93280E-001	  4.46776E-001	  4.54660E-001	  4.12433E-001
  3.60000E-003	  4.51369E-001	  4.39562E-001	  4.45073E-001	  4.58132E-001
  4.00000E-003	  4.32576E-001	  3.87462E-001	  5.14799E-001	  4.14972E-001
  4.40000E-003	  4.17199E-001	  4.39562E-001	  4.14568E-001	  4.51390E-001
  4.80000E-003	  4.20616E-001	  4.26737E-001	  3.89292E-001	  4.48851E-001
  5.20000E-003	  3.72778E-001	  3.45757E-001	  3.56172E-001	  3.34627E-001
  5.60000E-003	  4.46243E-001	  4.11482E-001	  3.54403E-001	  4.18411E-001
  6.00000E-003	  4.18053E-001	  4.86825E-001	  4.38073E-001	  4.59034E-001
  6.40000E-003	  4.29576E-001	  4.47621E-001	  4.11508E-001	  4.47599E-001
  7.20000E-003	  4.11210E-001	  3.87478E-001	  3.88847E-001	  4.31096E-001
  8.00000E-003	  3.65081E-001	  3.67439E-001	  3.24351E-001	  4.47599E-001
  8.80000E-003	  3.67643E-001	  3.65009E-001	  3.87104E-001	  3.78625E-001
  9.60000E-003	  4.05230E-001	  4.01505E-001	  3.84925E-001	  4.29826E-001
  1.04000E-002	  3.74477E-001	  3.87077E-001	  3.84489E-001	  3.66354E-001
  1.12000E-002	  3.91989E-001	  3.63031E-001	  3.96255E-001	  3.87088E-001
  1.20000E-002	  3.62091E-001	  3.89456E-001	  3.64852E-001	  3.26180E-001
  1.28000E-002	  3.96909E-001	  3.69701E-001	  3.76408E-001	  3.52820E-001
  1.44000E-002	  3.44159E-001	  3.61084E-001	  3.49172E-001	  4.08492E-001
  1.60000E-002	  3.64447E-001	  3.26039E-001	  3.73820E-001	  3.50519E-001
  1.76000E-002	  3.50993E-001	  3.31650E-001	  3.36560E-001	  3.92200E-001
  1.92000E-002	  3.28142E-001	  3.35458E-001	  3.31767E-001	  3.14761E-001
  2.08000E-002	  3.35403E-001	  3.33830E-001	  3.29370E-001	  3.44171E-001
  2.24000E-002	  2.95894E-001	  3.03747E-001	  3.06273E-001	  3.23013E-001
  2.40000E-002	  3.21974E-001	  3.11762E-001	  3.13681E-001	  3.20897E-001
  2.56000E-002	  2.76474E-001	  3.01278E-001	  2.97345E-001	  3.18428E-001
  2.88000E-002	  2.92680E-001	  2.71920E-001	  2.65529E-001	  3.02983E-001
  3.20000E-002	  2.49327E-001	  2.53985E-001	  2.89500E-001	  2.73151E-001
  3.52000E-002	  2.62272E-001	  2.50254E-001	  2.33605E-001	  2.42497E-001
  3.84000E-002	  2.49565E-001	  2.20997E-001	  2.66837E-001	  2.26334E-001
  4.16000E-002	  2.19345E-001	  1.85327E-001	  2.35349E-001	  2.46329E-001
  4.48000E-002	  2.30237E-001	  2.10576E-001	  2.07456E-001	  2.33892E-001
  4.80000E-002	  2.05487E-001	  1.83502E-001	  2.21293E-001	  1.98345E-001
  5.12000E-002	  2.13476E-001	  1.76160E-001	  2.05256E-001	  1.86234E-001
  5.76000E-002	  1.75621E-001	  1.59578E-001	  1.68838E-001	  1.91259E-001
  6.40000E-002	  1.58376E-001	  1.56213E-001	  1.50586E-001	  1.52274E-001
  7.04000E-002	  1.28690E-001	  1.34771E-001	  1.33925E-001	  1.58930E-001
  7.68000E-002	  1.11178E-001	  1.19210E-001	  1.21416E-001	  1.23752E-001
  8.32000E-002	  1.07954E-001	  1.00433E-001	  1.03512E-001	  1.15308E-001
  8.96000E-002	  1.09555E-001	  9.45004E-002	  8.68401E-002	  1.17234E-001
  9.60000E-002	  8.20266E-002	  8.20247E-002	  8.64042E-002	  9.35527E-002
  1.02400E-001	  8.16856E-002	  7.72223E-002	  7.11713E-002	  8.80060E-002
  1.15200E-001	  7.02802E-002	  7.27724E-002	  5.64578E-002	  7.80933E-002
  1.28000E-001	  5.19732E-002	  6.59670E-002	  5.58177E-002	  5.92291E-002
  1.40800E-001	  4.25695E-002	  4.19788E-002	  3.89523E-002	  4.10195E-002
  1.53600E-001	  3.12966E-002	  3.57652E-002	  4.15680E-002	  3.13497E-002
  1.66400E-001	  3.66023E-002	  3.05037E-002	  3.54596E-002	  2.37689E-002
  1.79200E-001	  2.93673E-002	  1.70242E-002	  2.83017E-002	  2.28958E-002
  1.92000E-001	  2.35545E-002	  1.91038E-002	  2.11485E-002	  1.84243E-002
  2.04800E-001	  2.52080E-002	  1.84126E-002	  2.14178E-002	  1.87547E-002
  2.30400E-001	  2.11828E-002	  1.48981E-002	  2.02067E-002	  2.14000E-003
  2.56000E-001	  1.38676E-002	  1.11516E-002	  1.01860E-002	  2.09454E-003
  2.81600E-001	  8.75762E-003	  2.26201E-003	  4.48267E-003	 -9.91612E-003
  3.07200E-001	  2.29813E-003	  4.57070E-004	  3.71964E-003	 -1.29732E-002
  3.32800E-001	 -2.43238E-003	 -4.44216E-003	  2.46840E-003	 -1.12869E-002
  3.58400E-001	  3.70970E-003	 -6.45464E-003	  1.78151E-003	 -4.85315E-003
  3.84000E-001	  6.61297E-003	 -1.58838E-003	  1.30700E-003	 -4.62255E-003
  4.09600E-001	  3.29024E-003	 -4.01335E-003	 -3.38358E-003	 -2.06083E-003
  4.60800E-001	 -2.91355E-003	 -9.65272E-003	  2.03870E-003	 -2.27839E-003
  5.12000E-001	  8.23831E-004	  7.41100E-003	 -4.84164E-003	 -4.04289E-004
  5.63200E-001	  2.96034E-003	  4.19119E-003	  5.08172E-003	  5.70962E-004
  6.14400E-001	  4.85139E-004	  1.63568E-003	 -4.84164E-003	  1.85074E-003
  6.65600E-001	  5.61657E-003	 -6.39277E-003	 -2.11727E-003	 -6.42440E-003
  7.16800E-001	  1.14006E-002	 -2.44553E-003	 -6.63426E-003	  2.16772E-003
  7.68000E-001	  6.96401E-003	 -9.85430E-003	 -7.56654E-003	  6.34107E-003
  8.19200E-001	  3.92851E-003	 -8.23915E-003	 -3.57579E-003	  5.10336E-003
  9.21600E-001	 -3.66873E-003	 -5.58944E-003	 -6.10548E-003	  3.01960E-003
  1.02400E+000	 -1.40168E-003	 -5.22878E-003	 -4.42038E-003	  1.21868E-003
  1.12640E+000	 -3.55508E-003	 -2.15097E-003	  3.17984E-003	  7.09021E-004
  1.22880E+000	  2.88472E-003	  5.89948E-003	  5.14148E-003	 -7.87697E-003
  1.33120E+000	 -2.95217E-003	  2.80502E-003	 -2.38127E-003	 -6.97461E-005
  1.43360E+000	  1.74250E-003	  3.18344E-003	 -1.03679E-003	  4.44281E-003
  1.53600E+000	 -9.06084E-004	  4.87775E-005	  7.80682E-004	  3.23517E-003
  1.63840E+000	  3.10925E-003	 -4.14390E-003	  4.23097E-003	 -3.85391E-003
  1.84320E+000	 -6.82701E-004	 -2.34394E-003	  4.49698E-003	  4.14029E-003
  2.04800E+000	 -7.89392E-003	  5.00783E-003	 -9.78530E-004	  5.93359E-003
  2.25280E+000	 -7.87775E-004	 -3.04431E-004	  4.27525E-003	 -5.37964E-004
  2.45760E+000	 -7.81640E-005	  7.55462E-003	 -4.35758E-003	  5.15221E-003
  2.66240E+000	 -8.72495E-004	  2.43055E-003	 -5.66082E-003	  7.61780E-003
  2.86720E+000	  3.34232E-003	  2.88853E-003	  1.95087E-003	  3.68949E-003
  3.07200E+000	  2.75045E-003	  1.44542E-003	 -4.33807E-003	  6.71478E-003
  3.27680E+000	  6.17158E-004	  5.07440E-004	 -7.45074E-004	  1.39549E-003
  3.68640E+000	  1.92259E-004	  3.68147E-003	 -2.74286E-004	 -2.74753E-003
  4.09600E+000	 -5.68401E-003	  5.59055E-003	 -2.61376E-003	 -6.40280E-004
  4.50560E+000	  2.35690E-003	  3.37530E-003	  3.25720E-003	  1.41964E-004
  4.91520E+000	  2.16999E-003	  5.19833E-003	 -3.61118E-004	 -6.31278E-004
  5.32480E+000	  2.54076E-003	 -2.33098E-003	  1.15634E-003	 -2.68113E-003
  5.73440E+000	  7.16702E-004	  8.54346E-004	  5.64116E-003	 -3.09916E-003
  6.14400E+000	  2.87962E-003	  2.73893E-004	  1.97901E-003	 -2.85328E-003
  6.55360E+000	  1.76271E-003	  2.40892E-003	 -2.15212E-003	 -3.51750E-003
  7.37280E+000	 -1.86620E-003	 -6.09917E-004	 -6.06463E-003	 -2.95729E-003
  8.19200E+000	  4.06557E-003	  6.36338E-003	 -1.12427E-003	  2.07263E-003
  9.01120E+000	 -2.65050E-003	  3.61225E-004	 -3.07124E-004	 -2.52995E-003
  9.83040E+000	  6.79796E-003	 -1.07113E-003	  1.55195E-003	  2.92327E-005
  1.06496E+001	  8.76348E-004	 -2.50462E-004	 -5.06145E-003	 -6.33547E-004
  1.14688E+001	 -2.17446E-003	  2.60809E-003	  2.66290E-004	 -2.34383E-003
  1.22880E+001	  3.93324E-004	  1.25400E-003	  1.75442E-003	  2.89588E-003
  1.31072E+001	 -7.65022E-004	 -1.94061E-003	  1.11832E-003	  8.40780E-006
  1.47456E+001	  4.40301E-004	  1.14541E-003	  2.03861E-003	 -6.80742E-004
  1.63840E+001	 -4.76109E-003	  1.79257E-003	 -2.84036E-003	  3.45109E-003
  1.80224E+001	  1.05364E-003	 -8.71308E-005	  8.76884E-004	 -1.06526E-005
  1.96608E+001	 -2.84449E-003	  4.09363E-003	 -9.37662E-004	 -2.23151E-003
  2.12992E+001	 -1.86584E-003	 -7.42411E-004	 -3.12614E-003	 -3.49827E-003
  2.29376E+001	 -1.62085E-003	  3.07097E-004	 -8.16104E-004	 -2.34984E-004
  2.45760E+001	 -1.74064E-003	 -2.58139E-004	  1.45563E-004	  7.00297E-004
  2.62144E+001	  6.15534E-004	 -3.93782E-004	 -1.02636E-003	  2.50503E-003
  2.94912E+001	  6.26325E-006	 -7.94402E-004	  2.62360E-003	  1.67218E-003
  3.27680E+001	 -3.53595E-004	  6.35004E-004	 -4.64134E-004	 -1.27149E-003
  3.60448E+001	 -9.22817E-004	 -1.22452E-004	  1.50778E-003	 -5.61585E-004
  3.93216E+001	  1.84737E-003	 -1.02573E-003	  3.21911E-004	  7.83045E-004
  4.25984E+001	  1.40302E-003	  5.23710E-004	  3.99632E-004	  4.91065E-004
  4.58752E+001	 -3.23326E-003	 -1.50647E-004	  2.20543E-003	  1.09990E-003
  4.91520E+001	 -3.47136E-004	  2.70352E-003	  1.43371E-003	 -7.48356E-004
  5.24288E+001	 -9.49187E-004	  7.37873E-004	 -3.63623E-004	 -3.85348E-004
  5.89824E+001	 -2.58276E-003	  7.38177E-004	  9.03070E-004	 -2.97876E-004
  6.55360E+001	  6.29619E-004	 -1.84263E-003	  1.68879E-004	  6.75138E-004
  7.20896E+001	  5.50063E-004	 -9.19672E-004	 -1.93540E-003	 -1.06767E-003
  7.86432E+001	  6.58014E-004	  6.96809E-004	  3.73874E-004	 -3.90124E-003
  8.51968E+001	 -3.99667E-004	 -3.19195E-004	 -2.66925E-004	 -3.48566E-004
  9.17504E+001	  2.94330E-004	  1.07306E-003	 -7.55237E-004	  3.34270E-004
  9.83040E+001	 -3.67609E-004	  3.57189E-004	 -2.36209E-004	 -1.09922E-004
  1.04858E+002	  9.25678E-004	 -3.06141E-004	 -4.36744E-004	 -4.77218E-004
  1.17965E+002	  7.33307E-004	 -7.50538E-004	 -9.73927E-005	 -1.07503E-003
  1.31072E+002	 -8.77196E-004	 -7.88596E-004	  1.22636E-004	 -8.22916E-004
  1.44179E+002	  1.17164E-004	  2.45499E-006	  4.18859E-005	 -1.71011E-004
  1.57286E+002	 -1.55069E-003	 -3.04516E-004	  1.00121E-003	 -5.59676E-004
  1.70394E+002	  1.87047E-004	  1.76015E-004	 -7.59424E-005	  4.09937E-004
  1.83501E+002	  3.19550E-004	 -6.94764E-005	  4.31554E-004	  3.72806E-004
  1.96608E+002	 -8.07135E-004	  6.50028E-004	  4.16186E-004	 -1.01651E-004
  2.09715E+002	  5.45196E-004	 -1.50398E-004	 -9.41360E-005	 -5.61277E-004
  2.35930E+002	 -2.55447E-004	  3.83242E-004	  1.85741E-004	 -7.64227E-005
  2.62144E+002	  4.45360E-005	  7.96573E-005	 -1.67688E-005	  5.14284E-004
  2.88358E+002	 -3.97875E-004	  7.78253E-004	 -3.85353E-004	  5.71371E-005
  3.14573E+002	  4.88341E-004	 -4.12756E-004	  1.09247E-004	 -1.58274E-004
  3.40787E+002	  5.67050E-004	  9.98890E-005	 -3.34345E-004	  2.00311E-004
  3.67002E+002	 -1.38404E-003	 -4.34605E-004	  1.18903E-004	  1.12320E-003
  3.93216E+002	  5.31849E-004	 -1.02602E-003	  2.39127E-004	  3.87738E-004

"Count Rate"
       0.01311	      51.42212	      54.24500	      50.96436	      54.16870
       0.02621	      54.39758	      49.59106	      58.28857	      47.76001
       0.03932	      50.58289	      54.32129	      50.27771	      61.95068
       0.05243	      52.87170	      48.37036	      55.08423	      55.61829
       0.06554	      52.41394	      61.11145	      65.00244	      55.08423
       0.07864	      45.39490	      53.63464	      52.18506	      59.81445
       0.09175	      53.10059	      47.07336	      50.50659	      50.35400
       0.10486	      56.38123	      50.27771	      60.80627	      55.77087
       0.11796	      60.50110	      67.13867	      62.71362	      50.88806
       0.13107	      50.65918	      51.34583	      49.97253	      45.16602
       0.14418	      65.76538	      58.05969	      57.52563	      56.15234
       0.15729	      59.28040	      54.47388	      57.83081	      53.86353
       0.17039	      43.33496	      53.86353	      57.83081	      56.76270
       0.18350	      49.43848	      51.26953	      59.96704	      50.96436
       0.19661	      47.07336	      52.41394	      63.32397	      66.14685
       0.20972	      62.63733	      51.87988	      49.05701	      56.76270
       0.22282	      60.19592	      53.32947	      54.47388	      60.27222
       0.23593	      57.22046	      54.70276	      54.24500	      57.37305
       0.24904	      55.61829	      56.61011	      54.77905	      54.01611
       0.26214	      49.43848	      56.38123	      48.44666	      58.82263
       0.27525	      54.70276	      57.52563	      50.58289	      50.58289
       0.28836	      63.09509	      54.47388	      52.03247	      51.04065
       0.30147	      51.11694	      54.47388	      52.94800	      51.87988
       0.31457	      50.58289	      57.90710	      60.11963	      58.13599
       0.32768	      63.09509	      60.95886	      56.91528	      53.78723
       0.34079	      54.85535	      56.68640	      57.83081	      52.64282
       0.35389	      58.28857	      66.90979	      59.12781	      49.51477
       0.36700	      53.25317	      55.31311	      50.58289	      53.78723
       0.38011	      55.46570	      55.38940	      58.36487	      54.24500
       0.39322	      57.44934	      59.96704	      54.77905	      52.87170
       0.40632	      51.11694	      60.04333	      53.63464	      55.84717
       0.41943	      52.03247	      56.15234	      52.64282	      57.75452
       0.43254	      52.64282	      54.85535	      51.19324	      60.27222
       0.44564	      57.14417	      57.83081	      55.84717	      53.86353
       0.45875	      53.55835	      50.81177	      47.98889	      51.04065
       0.47186	      57.06787	      57.98340	      56.68640	      59.28040
       0.48497	      57.75452	      56.61011	      54.39758	      56.30493
       0.49807	      56.38123	      65.23132	      55.08423	      55.46570
       0.51118	      57.83081	      53.25317	      53.10059	      55.31311
       0.52429	      48.75183	      57.14417	      54.16870	      57.83081
       0.53740	      56.99158	      57.14417	      55.99976	      53.10059
       0.55050	      59.89075	      65.38391	      51.87988	      51.26953
       0.56361	      60.19592	      54.55017	      51.65100	      60.42480
       0.57672	      49.20959	      58.97522	      57.14417	      56.30493
       0.58982	      57.75452	      58.74634	      53.63464	      53.25317
       0.60293	      53.40576	      58.67004	      54.47388	      63.40027
       0.61604	      54.24500	      56.07605	      56.22864	      56.61011
       0.62915	      53.71094	      58.51746	      55.46570	      49.28589
       0.64225	      52.49023	      61.56921	      53.93982	      50.81177
       0.65536	      57.29675	      61.03516	      53.10059	      50.20142
       0.66847	      59.12781	      54.09241	      48.82813	      60.04333
       0.68157	      55.23682	      53.10059	      54.09241	      46.00525
       0.69468	      53.17688	      54.62646	      56.30493	      56.68640
       0.70779	      56.15234	      57.06787	      50.96436	      53.93982
       0.72090	      48.98071	      57.29675	      51.95618	      52.10876
       0.73400	      54.93164	      55.38940	      59.66187	      53.63464
       0.74711	      50.27771	      52.18506	      55.23682	      55.31311
