ALV-7004/USB-FAST
Date :	"11/11/2025"
Time :	"3:53:53 PM"
Samplename : 	""
SampMemo(0) : 	""
SampMemo(1) : 	""
SampMemo(2) : 	""
SampMemo(3) : 	""
SampMemo(4) : 	""
SampMemo(5) : 	""
SampMemo(6) : 	""
SampMemo(7) : 	""
SampMemo(8) : 	""
SampMemo(9) : 	""
Temperature [K] :	     298.16000
Viscosity [cp]  :	       0.89000
Refractive Index:	       1.33200
Wavelength [nm] :	       0.00000
Angle [°]       :	       0.00000
Duration [s]    :	         1
FloatDur [ms]   :	          944
Stop TP [ms]   :	     58801
Runs            :	         1
Mode            :	"A-CH0+1  A-CH2+3 "
MeanCR0 [kHz]   :	      55.35232
MeanCR1 [kHz]   :	      57.26602
MeanCR2 [kHz]   :	      55.67657
MeanCR3 [kHz]   :	      53.61769

"Correlation"
  3.12500E-006	 -1.00000E+000	 -1.00000E+000	 -1.00000E+000	 -1.00000E+000
  6.25000E-006	 -1.00000E+000	 -1.00000E+000	 -1.00000E+000	 -1.00000E+000
  9.37500E-006	 -1.00000E+000	 -1.00000E+000	 -1.00000E+000	 -1.00000E+000
  1.25000E-005	 -1.00000E+000	 -1.00000E+000	 -1.00000E+000	 -1.00000E+000
  1.56250E-005	 -1.00000E+000	 -1.00000E+000	 -1.00000E+000	 -1.00000E+000
  1.87500E-005	 -1.00000E+000	 -1.00000E+000	 -1.00000E+000	 -1.00000E+000
  2.18750E-005	 -1.00000E+000	  5.50975E-001	  1.40650E+000	 -6.46155E-001
  2.50000E-005	  1.30553E+001	  1.06840E+001	  1.13606E+001	  2.63640E+001
  2.81250E-005	  3.64820E+000	  1.89515E+000	  2.28159E+000	  1.03230E+001
  3.12500E-005	  1.76679E+000	  1.37816E+000	  1.07834E+000	  4.66151E+000
  3.43750E-005	  1.21343E+000	  1.58496E+000	  1.18772E+000	  4.66151E+000
  3.75000E-005	  1.43477E+000	  8.61170E-001	  3.12635E-001	  3.24614E+000
  4.06250E-005	  2.17387E-001	  3.44178E-001	  9.68952E-001	  2.42050E+000
  4.37500E-005	  6.60073E-001	  1.17136E+000	  1.29711E+000	  4.42562E+000
  4.68750E-005	  7.70745E-001	  1.17136E+000	  1.73466E+000	  2.42050E+000
  5.00000E-005	  1.26877E+000	  8.09470E-001	  6.95486E-001	  2.53845E+000
  5.62500E-005	  5.49401E-001	  1.01627E+000	  1.02365E+000	  2.00768E+000
  6.25000E-005	  8.26080E-001	  9.12869E-001	  3.12635E-001	  9.46145E-001
  6.87500E-005	  4.94066E-001	  1.01627E+000	  9.14259E-001	  1.00512E+000
  7.50000E-005	  4.94066E-001	  8.61170E-001	  9.14259E-001	  1.29999E+000
  8.12500E-005	  4.94066E-001	  3.95877E-001	  5.86100E-001	  4.15378E-001
  8.75000E-005	  2.72723E-001	  8.61170E-001	  9.68952E-001	  1.12307E+000
  9.37500E-005	  6.60073E-001	  4.47576E-001	  9.14259E-001	  1.06409E+000
  1.00000E-004	  6.04737E-001	  7.57771E-001	  5.86100E-001	  1.09358E+000
  1.12500E-004	  4.66398E-001	  5.50975E-001	  5.31407E-001	  5.92301E-001
  1.25000E-004	  5.77069E-001	  6.80222E-001	  3.67328E-001	  5.92301E-001
  1.37500E-004	  3.28058E-001	  5.76824E-001	  5.04060E-001	  7.10249E-001
  1.50000E-004	  3.83394E-001	  2.40780E-001	  7.22833E-001	  4.15378E-001
  1.62500E-004	  4.94065E-001	  8.09470E-001	  6.68140E-001	  4.44865E-001
  1.75000E-004	  5.49401E-001	  4.73426E-001	  9.14259E-001	  7.10249E-001
  1.87500E-004	  4.38730E-001	  5.76824E-001	  5.04060E-001	  5.92301E-001
  2.00000E-004	  2.72722E-001	  5.63899E-001	  3.94674E-001	  5.48070E-001
  2.25000E-004	  4.94065E-001	  6.54373E-001	  5.45080E-001	  6.21787E-001
  2.50000E-004	  6.18571E-001	  7.18996E-001	  5.86100E-001	  4.15378E-001
  2.75000E-004	  4.94065E-001	  5.63899E-001	  3.94674E-001	  4.44865E-001
  3.00000E-004	  6.60072E-001	  6.67297E-001	  5.04060E-001	  4.89096E-001
  3.25000E-004	  5.21733E-001	  4.21726E-001	  6.13446E-001	  6.95505E-001
  3.50000E-004	  3.41892E-001	  3.70027E-001	  6.68139E-001	  4.74352E-001
  3.75000E-004	  2.86556E-001	  5.89749E-001	  3.81001E-001	  2.97430E-001
  4.00000E-004	  3.41891E-001	  5.38049E-001	  5.58753E-001	  4.37493E-001
  4.50000E-004	  5.28649E-001	  4.79887E-001	  5.17733E-001	  4.59608E-001
  5.00000E-004	  1.82801E-001	  4.41113E-001	  5.72426E-001	  4.08006E-001
  5.50000E-004	  5.35566E-001	  6.02673E-001	  4.56203E-001	  4.15377E-001
  6.00000E-004	  4.38729E-001	  5.44540E-001	  4.90386E-001	  5.92300E-001
  6.50000E-004	  4.04144E-001	  6.73821E-001	  4.76713E-001	  5.55441E-001
  7.00000E-004	  3.41891E-001	  3.44227E-001	  7.91198E-001	  4.74351E-001
  7.50000E-004	  3.83393E-001	  5.18718E-001	  3.60490E-001	  4.30121E-001
  8.00000E-004	  3.69558E-001	  4.54090E-001	  5.21150E-001	  5.07523E-001
  9.00000E-004	  3.59183E-001	  4.99329E-001	  6.16863E-001	  4.33806E-001
  1.00000E-003	  4.38728E-001	  3.76539E-001	  4.90385E-001	  3.74832E-001
  1.10000E-003	  4.97522E-001	  5.93037E-001	  4.97222E-001	  3.52716E-001
  1.20000E-003	  3.90309E-001	  4.73478E-001	  4.69875E-001	  3.71146E-001
  1.30000E-003	  3.76475E-001	  4.70247E-001	  5.07476E-001	  5.70183E-001
  1.40000E-003	  5.11356E-001	  6.18887E-001	  5.21150E-001	  3.26915E-001
  1.50000E-003	  4.24894E-001	  4.99329E-001	  5.04058E-001	  4.33806E-001
  1.60000E-003	  3.74743E-001	  5.42949E-001	  4.51072E-001	  4.50390E-001
  1.80000E-003	  4.85415E-001	  4.26622E-001	  4.56199E-001	  4.28274E-001
  2.00000E-003	  5.30375E-001	  4.18543E-001	  4.18598E-001	  5.42536E-001
  2.20000E-003	  4.90602E-001	  5.25177E-001	  4.61327E-001	  4.81719E-001
  2.40000E-003	  5.64959E-001	  5.49411E-001	  4.25435E-001	  3.41656E-001
  2.60000E-003	  4.92331E-001	  5.25177E-001	  5.10892E-001	  3.71143E-001
  2.80000E-003	  3.55722E-001	  4.15312E-001	  4.81837E-001	  5.03835E-001
  3.00000E-003	  3.78202E-001	  4.91248E-001	  4.08343E-001	  4.96463E-001
  3.20000E-003	  4.38720E-001	  5.10631E-001	  4.98068E-001	  4.98301E-001
  3.60000E-003	  4.05865E-001	  5.41328E-001	  4.83541E-001	  5.41610E-001
  4.00000E-003	  4.94920E-001	  5.29211E-001	  4.60467E-001	  4.38406E-001
  4.40000E-003	  4.84545E-001	  4.92858E-001	  5.30542E-001	  4.60521E-001
  4.80000E-003	  4.68982E-001	  4.25001E-001	  5.25415E-001	  4.64207E-001
  5.20000E-003	  3.88573E-001	  5.76064E-001	  4.39957E-001	  5.09358E-001
  5.60000E-003	  4.43908E-001	  5.09823E-001	  4.63031E-001	  4.28269E-001
  6.00000E-003	  3.84249E-001	  4.67816E-001	  4.45085E-001	  4.79871E-001
  6.40000E-003	  3.94183E-001	  4.98531E-001	  4.58321E-001	  4.63304E-001
  7.20000E-003	  3.99803E-001	  5.02570E-001	  5.08313E-001	  4.62383E-001
  8.00000E-003	  4.84535E-001	  5.22766E-001	  4.80112E-001	  4.84498E-001
  8.80000E-003	  4.50383E-001	  5.09033E-001	  4.69858E-001	  4.51786E-001
  9.60000E-003	  4.21418E-001	  5.00550E-001	  4.94640E-001	  4.38424E-001
  1.04000E-002	  4.17095E-001	  4.94896E-001	  4.86094E-001	  4.66529E-001
  1.12000E-002	  3.81214E-001	  5.09840E-001	  4.83103E-001	  4.31513E-001
  1.20000E-002	  4.31794E-001	  5.21958E-001	  5.36514E-001	  4.49482E-001
  1.28000E-002	  4.40420E-001	  5.23985E-001	  4.71844E-001	  4.54098E-001
  1.44000E-002	  4.49066E-001	  5.19918E-001	  4.82100E-001	  4.49721E-001
  1.60000E-002	  4.21183E-001	  4.84805E-001	  4.96443E-001	  4.63083E-001
  1.76000E-002	  4.46256E-001	  4.79352E-001	  4.93879E-001	  4.58706E-001
  1.92000E-002	  3.99136E-001	  4.76121E-001	  4.52457E-001	  4.40506E-001
  2.08000E-002	  4.20751E-001	  4.86017E-001	  4.90945E-001	  4.56402E-001
  2.24000E-002	  4.21615E-001	  4.98942E-001	  4.78367E-001	  4.37281E-001
  2.40000E-002	  4.10159E-001	  5.02173E-001	  4.74307E-001	  4.45344E-001
  2.56000E-002	  4.20172E-001	  4.88886E-001	  4.75875E-001	  4.24025E-001
  2.88000E-002	  4.12931E-001	  4.83130E-001	  4.80604E-001	  4.33037E-001
  3.20000E-002	  4.19739E-001	  4.85508E-001	  4.63588E-001	  4.42483E-001
  3.52000E-002	  4.22657E-001	  4.86013E-001	  4.63105E-001	  4.52417E-001
  3.84000E-002	  4.20820E-001	  4.67734E-001	  4.66524E-001	  4.15442E-001
  4.16000E-002	  4.09689E-001	  4.91540E-001	  4.56375E-001	  4.47205E-001
  4.48000E-002	  4.26872E-001	  4.85077E-001	  4.63454E-001	  4.43865E-001
  4.80000E-002	  4.03961E-001	  4.58646E-001	  4.43902E-001	  4.16105E-001
  5.12000E-002	  3.94915E-001	  4.77159E-001	  4.45726E-001	  4.13461E-001
  5.76000E-002	  3.95644E-001	  4.72188E-001	  4.36618E-001	  4.17348E-001
  6.40000E-002	  4.02587E-001	  4.57947E-001	  4.41613E-001	  4.15763E-001
  7.04000E-002	  3.85836E-001	  4.56988E-001	  4.20564E-001	  3.84257E-001
  7.68000E-002	  3.70840E-001	  4.29212E-001	  4.16638E-001	  3.92493E-001
  8.32000E-002	  3.56059E-001	  4.15175E-001	  4.07422E-001	  3.83911E-001
  8.96000E-002	  3.57166E-001	  4.23658E-001	  4.19441E-001	  3.75156E-001
  9.60000E-002	  3.41438E-001	  4.06867E-001	  3.98073E-001	  3.47713E-001
  1.02400E-001	  3.38468E-001	  4.05739E-001	  3.97010E-001	  3.48728E-001
  1.15200E-001	  3.19851E-001	  3.90462E-001	  3.75929E-001	  3.26041E-001
  1.28000E-001	  3.01176E-001	  3.60971E-001	  3.49474E-001	  3.22122E-001
  1.40800E-001	  2.97663E-001	  3.61653E-001	  3.40548E-001	  2.89636E-001
  1.53600E-001	  2.75747E-001	  3.50366E-001	  3.20476E-001	  2.65358E-001
  1.66400E-001	  2.74098E-001	  3.30618E-001	  3.09709E-001	  2.66585E-001
  1.79200E-001	  2.54392E-001	  3.04862E-001	  2.99314E-001	  2.44408E-001
  1.92000E-001	  2.34043E-001	  2.87640E-001	  2.82699E-001	  2.30407E-001
  2.04800E-001	  2.25325E-001	  2.80788E-001	  2.60392E-001	  2.23165E-001
  2.30400E-001	  2.05064E-001	  2.51385E-001	  2.41806E-001	  2.01397E-001
  2.56000E-001	  1.80114E-001	  2.25281E-001	  2.24607E-001	  1.78160E-001
  2.81600E-001	  1.63471E-001	  2.02030E-001	  1.99721E-001	  1.49932E-001
  3.07200E-001	  1.48536E-001	  1.79834E-001	  1.79179E-001	  1.33970E-001
  3.32800E-001	  1.32303E-001	  1.63175E-001	  1.49425E-001	  1.17735E-001
  3.58400E-001	  1.20479E-001	  1.39309E-001	  1.43945E-001	  9.77273E-002
  3.84000E-001	  1.03662E-001	  1.22841E-001	  1.31760E-001	  9.39022E-002
  4.09600E-001	  9.51430E-002	  1.11305E-001	  1.11706E-001	  8.03088E-002
  4.60800E-001	  7.88906E-002	  9.05839E-002	  8.75886E-002	  5.78609E-002
  5.12000E-001	  6.41925E-002	  7.54965E-002	  6.48211E-002	  4.68119E-002
  5.63200E-001	  4.65304E-002	  5.58582E-002	  4.53353E-002	  3.38003E-002
  6.14400E-001	  3.69420E-002	  4.50463E-002	  2.95301E-002	  2.43654E-002
  6.65600E-001	  2.44514E-002	  3.84613E-002	  1.52078E-002	  2.48558E-002
  7.16800E-001	  1.55550E-002	  2.99558E-002	  1.31169E-002	  2.09462E-002
  7.68000E-001	  1.20019E-002	  1.88824E-002	  1.29162E-003	  1.66042E-002
  8.19200E-001	  1.07307E-002	  1.58528E-002	  2.82844E-003	  1.93121E-002
  9.21600E-001	  1.45441E-002	  5.65076E-003	  5.12204E-003	  2.08478E-002
  1.02400E+000	  7.80025E-003	 -6.34055E-004	  4.89541E-003	  2.04549E-002
  1.12640E+000	  4.65663E-003	 -3.27967E-003	  3.66846E-003	  2.00448E-002
  1.22880E+000	  4.90614E-004	 -4.70413E-003	  3.38254E-003	  2.14341E-002
  1.33120E+000	  4.04877E-004	 -7.40678E-003	 -6.66652E-003	  2.22956E-002
  1.43360E+000	 -4.13172E-004	  4.52494E-003	 -5.47218E-003	  1.98204E-002
  1.53600E+000	 -2.07751E-003	  9.35978E-003	 -5.52465E-003	  1.27446E-002
  1.63840E+000	  5.64483E-003	  1.24739E-002	 -3.58572E-003	  6.82848E-003
  1.84320E+000	  1.09470E-002	  1.18207E-002	  5.84087E-003	 -5.68658E-003
  2.04800E+000	  6.29162E-003	  1.97736E-002	  1.26279E-002	 -1.38812E-002
  2.25280E+000	 -6.97315E-004	  1.42963E-002	  7.11890E-003	 -5.31778E-003
  2.45760E+000	 -8.93225E-003	  4.67760E-003	  1.09736E-002	 -2.16851E-003
  2.66240E+000	 -4.55077E-003	 -6.37488E-003	  1.16735E-002	  7.82037E-003
  2.86720E+000	  1.04229E-003	 -1.06892E-002	  4.23360E-003	  8.21692E-003
  3.07200E+000	 -1.43296E-003	 -1.33632E-002	 -3.88372E-003	  4.51484E-003
  3.27680E+000	 -5.93720E-003	 -2.57133E-003	 -7.70915E-003	  1.17396E-003
  3.68640E+000	 -5.21736E-003	  7.60876E-003	 -8.03665E-003	  2.64294E-003
  4.09600E+000	 -8.28019E-003	  2.16668E-002	 -1.84911E-002	  1.79201E-002
  4.50560E+000	 -1.53683E-002	  9.63895E-003	 -4.03455E-003	  3.47004E-003
  4.91520E+000	 -4.63719E-003	 -5.96871E-003	  1.56915E-002	 -7.74217E-004
  5.32480E+000	 -9.14318E-003	 -1.48767E-003	  1.19619E-002	  6.11187E-004
  5.73440E+000	  5.76861E-003	  1.44999E-002	  6.75120E-003	 -3.72504E-003
  6.14400E+000	  8.38162E-003	  8.89691E-003	 -1.18628E-002	 -1.04037E-002
  6.55360E+000	  7.63530E-003	  7.55799E-003	 -1.37569E-003	 -6.73618E-003
  7.37280E+000	  4.65982E-003	  2.47090E-004	 -2.02125E-003	  7.38563E-004
  8.19200E+000	 -2.72652E-003	  5.07365E-003	 -1.01395E-002	  4.53798E-003
  9.01120E+000	  1.40280E-003	 -2.18768E-003	 -1.64300E-003	  5.00613E-003
  9.83040E+000	  9.70692E-003	 -1.14268E-002	  2.56092E-003	 -6.38694E-003
  1.06496E+001	 -4.64320E-003	 -2.36090E-003	  2.49436E-003	 -1.36377E-002
  1.14688E+001	 -4.85610E-003	 -7.82416E-003	  1.03037E-002	 -4.08268E-003
  1.22880E+001	  3.32121E-003	 -6.68148E-003	  3.46075E-003	  6.63279E-004
  1.31072E+001	 -4.41669E-003	 -7.61308E-004	 -4.11124E-003	 -1.16678E-003
  1.47456E+001	 -6.70344E-003	 -5.80948E-003	  3.24896E-003	  2.93162E-003
  1.63840E+001	  4.31102E-003	 -1.48983E-002	  3.23738E-004	 -5.28414E-004
  1.80224E+001	  5.24934E-003	  6.56188E-003	 -1.27002E-002	  5.47095E-003
  1.96608E+001	 -8.86035E-004	  1.30527E-002	 -7.18965E-003	  7.70134E-003
  2.12992E+001	 -3.07636E-004	 -9.63143E-003	 -5.72245E-003	 -3.10105E-003
  2.29376E+001	  1.30997E-002	  1.68706E-002	  1.41928E-002	  1.83578E-003
  2.45760E+001	  3.59894E-004	  1.07407E-002	  4.88002E-003	 -7.57211E-004
  2.62144E+001	  2.01567E-003	  8.60857E-005	  1.07585E-002	  6.10068E-004
  2.94912E+001	  9.43234E-003	 -8.61911E-003	  7.50398E-003	 -1.72077E-003
  3.27680E+001	 -4.03609E-003	 -5.87006E-003	 -8.65665E-003	 -7.76986E-003
  3.60448E+001	  2.56595E-003	 -3.70163E-003	  3.59231E-003	 -1.00697E-002
  3.93216E+001	 -2.76822E-003	 -4.95555E-003	 -2.74797E-003	  2.77513E-003
  4.25984E+001	  2.51724E-003	 -2.76978E-003	 -4.85229E-006	 -4.18350E-003
  4.58752E+001	  9.38034E-004	  1.19423E-003	  1.50674E-003	  5.69952E-003
  4.91520E+001	 -2.97420E-003	  7.95310E-004	 -1.32372E-004	  3.56586E-003
  5.24288E+001	  4.08575E-003	 -3.72601E-003	 -5.00592E-003	 -9.57095E-003
  5.89824E+001	  3.47364E-004	 -2.68019E-003	 -3.30444E-003	 -3.40831E-003
  6.55360E+001	 -1.15620E-003	 -4.92426E-005	 -7.62809E-003	  3.48057E-003
  7.20896E+001	 -2.25931E-003	  2.11098E-003	  5.78154E-003	  5.75552E-003
  7.86432E+001	 -6.95764E-004	 -3.10951E-003	 -2.17992E-005	  5.58075E-003
  8.51968E+001	 -2.54443E-003	  5.27330E-003	 -3.78956E-003	  5.78164E-004
  9.17504E+001	 -6.18014E-004	  7.29983E-003	 -3.00154E-003	  1.07755E-003
  9.83040E+001	 -4.92640E-003	  3.02611E-004	 -2.77765E-003	  3.02664E-003
  1.04858E+002	 -4.85438E-003	 -4.29241E-003	 -1.87264E-003	  3.55123E-003
  1.17965E+002	  3.12775E-004	  4.70281E-003	  2.81994E-005	 -4.81615E-003
  1.31072E+002	 -5.20886E-003	 -3.35226E-003	 -2.72356E-004	 -6.14354E-003
  1.44179E+002	  2.42539E-003	  6.82500E-003	  9.41209E-004	 -2.06419E-003
  1.57286E+002	 -5.67489E-003	 -2.05328E-003	  5.09237E-003	  2.41942E-003
  1.70394E+002	 -1.45933E-003	  7.53177E-003	 -2.77256E-003	  7.51208E-004
  1.83501E+002	 -3.97468E-003	 -8.99124E-003	  1.90338E-003	 -6.17764E-004
  1.96608E+002	 -1.17261E-003	  4.36269E-003	 -3.51955E-003	  9.39846E-005
  2.09715E+002	  8.97551E-004	 -3.32436E-003	 -7.37618E-003	  3.91159E-003
  2.35930E+002	  1.67557E-004	 -2.05236E-003	  9.87544E-004	  1.89538E-003
  2.62144E+002	  3.30403E-003	 -2.04078E-003	 -4.76452E-003	 -3.64707E-003
  2.88358E+002	  3.07416E-003	  8.80969E-004	  3.60810E-003	  3.31122E-003
  3.14573E+002	 -5.67492E-004	  2.27599E-003	 -5.45808E-004	  2.36210E-003
  3.40787E+002	  3.18061E-003	 -4.49950E-003	  1.02107E-003	 -2.80907E-003
  3.67002E+002	 -4.56288E-004	 -4.33618E-003	 -9.76189E-004	 -9.37094E-004
  3.93216E+002	  2.89360E-004	  8.73114E-004	  4.83246E-004	  4.83412E-003

"Count Rate"
       0.01311	      62.56104	      53.93982	      51.26953	      42.95349
       0.02621	      46.69189	      64.23950	      62.63733	      47.53113
       0.03932	      54.24500	      47.07336	      53.78723	      53.17688
       0.05243	      51.19324	      49.74365	      46.92078	      53.25317
       0.06554	      51.04065	      53.32947	      51.72729	      40.43579
       0.07864	      48.90442	      62.02698	      55.61829	      50.88806
       0.09175	      50.65918	      62.10327	      56.38123	      54.47388
       0.10486	      59.81445	      48.67554	      55.61829	      52.64282
       0.11796	      47.60742	      45.77637	      58.82263	      58.67004
       0.13107	      52.64282	      53.71094	      54.39758	      43.02979
       0.14418	      49.59106	      48.98071	      51.65100	      42.49573
       0.15729	      46.84448	      72.47925	      51.19324	      54.55017
       0.17039	      42.87720	      60.95886	      51.42212	      66.29944
       0.18350	      51.04065	      61.56921	      67.13867	      64.69727
       0.19661	      55.38940	      49.81995	      50.35400	      60.88257
       0.20972	      62.56104	      51.57471	      62.78992	      46.15784
       0.22282	      48.59924	      47.68372	      47.60742	      51.34583
       0.23593	      60.50110	      51.87988	      58.44116	      56.61011
       0.24904	      59.35669	      43.79272	      67.52014	      45.08972
       0.26214	      54.01611	      50.27771	      71.18225	      71.10596
       0.27525	      63.70544	      53.32947	      58.82263	      63.40027
       0.28836	      53.25317	      65.99426	      61.26404	      65.07874
       0.30147	      65.38391	      51.26953	      57.29675	      47.37854
       0.31457	      58.05969	      58.82263	      37.07886	      45.16602
       0.32768	      63.32397	      69.65637	      51.65100	      58.28857
       0.34079	      46.92078	      47.91260	      48.75183	      61.11145
       0.35389	      70.03784	      63.93433	      51.65100	      61.34033
       0.36700	      42.11426	      66.68091	      69.88525	      53.02429
       0.38011	      52.03247	      62.10327	      47.07336	      45.54749
       0.39322	      41.12244	      35.17151	      48.21777	      40.81726
       0.40632	      38.98621	      49.28589	      56.22864	      43.79272
       0.41943	      55.99976	      51.42212	      46.61560	      53.93982
       0.43254	      46.38672	      71.02966	      54.39758	      50.43030
       0.44564	      51.49841	      65.99426	      42.26685	      42.64832
       0.45875	      51.72729	      75.53101	      49.74365	      67.44385
       0.47186	      56.38123	      50.27771	      39.29138	      48.29407
       0.48497	      65.91797	      66.52832	      59.28040	      50.88806
       0.49807	      55.92346	      54.16870	      63.78174	      56.22864
       0.51118	      58.82263	      43.33496	      56.30493	      47.37854
       0.52429	      43.02979	      72.17407	      54.32129	      53.40576
       0.53740	      57.83081	      45.08972	      56.83899	      56.91528
       0.55050	      55.61829	      68.58826	      60.72998	      46.99707
       0.56361	      56.30493	      43.10608	      46.08154	      73.54736
       0.57672	      61.34033	      69.65637	      47.14966	      54.16870
       0.58982	      51.65100	      57.60193	      51.19324	      47.98889
       0.60293	      65.38391	      61.49292	      55.46570	      47.98889
       0.61604	      44.78455	      60.95886	      59.58557	      45.92896
       0.62915	      66.98608	      56.53381	      48.14148	      55.16052
       0.64225	      43.25867	      61.41663	      64.84985	      46.61560
       0.65536	      62.17957	      54.77905	      59.12781	      55.16052
       0.66847	      47.68372	      66.68091	      50.73547	      50.88806
       0.68157	      46.53931	      59.73816	      74.84436	      62.56104
       0.69468	      62.63733	      66.90979	      56.07605	      40.66467
       0.70779	      59.12781	      33.26416	      53.17688	      51.34583
       0.72090	      37.99438	      53.48206	      50.96436	      70.11414
       0.73400	      50.50659	      53.86353	      51.72729	      48.59924
       0.74711	      62.17957	      68.58826	      44.70825	      42.03796
