ALV-7004/USB-FAST
Date :	"11/11/2025"
Time :	"3:58:35 PM"
Samplename : 	""
SampMemo(0) : 	""
SampMemo(1) : 	""
SampMemo(2) : 	""
SampMemo(3) : 	""
SampMemo(4) : 	""
SampMemo(5) : 	""
SampMemo(6) : 	""
SampMemo(7) : 	""
SampMemo(8) : 	""
SampMemo(9) : 	""
Temperature [K] :	     298.16000
Viscosity [cp]  :	       0.89000
Refractive Index:	       1.33200
Wavelength [nm] :	       0.00000
Angle [°]       :	       0.00000
Duration [s]    :	         1
FloatDur [ms]   :	          944
Stop TP [ms]   :	     68093
Runs            :	         1
Mode            :	"A-CH0+1  A-CH2+3 "
MeanCR0 [kHz]   :	      55.91816
MeanCR1 [kHz]   :	      57.17807
MeanCR2 [kHz]   :	      58.31718
MeanCR3 [kHz]   :	      55.37775

"Correlation"
  3.12500E-006	 -1.00000E+000	 -1.00000E+000	 -1.00000E+000	 -1.00000E+000
  6.25000E-006	 -1.00000E+000	 -1.00000E+000	 -1.00000E+000	 -1.00000E+000
  9.37500E-006	 -1.00000E+000	 -1.00000E+000	 -1.00000E+000	 -1.00000E+000
  1.25000E-005	 -1.00000E+000	 -1.00000E+000	 -1.00000E+000	 -1.00000E+000
  1.56250E-005	 -1.00000E+000	 -1.00000E+000	 -1.00000E+000	 -1.00000E+000
  1.87500E-005	 -1.00000E+000	 -1.00000E+000	 -1.00000E+000	 -1.00000E+000
  2.18750E-005	 -8.91557E-001	 -1.70267E-001	  7.94680E-001	 -8.89430E-001
  2.50000E-005	  1.35314E+001	  1.32092E+001	  9.16985E+000	  2.73059E+001
  2.81250E-005	  2.90395E+000	  8.66900E-001	  1.29320E+000	  7.40331E+000
  3.12500E-005	  2.79551E+000	  2.52637E+000	  8.94384E-001	  5.08135E+000
  3.43750E-005	  1.16886E+000	  9.70616E-001	  2.29025E+000	  3.97565E+000
  3.75000E-005	  1.06042E+000	  5.55750E-001	  1.19350E+000	  3.53337E+000
  4.06250E-005	  1.06042E+000	  1.69663E+000	  8.94384E-001	  4.08622E+000
  4.37500E-005	  1.06042E+000	  1.48920E+000	  5.95271E-001	  3.20166E+000
  4.68750E-005	  9.51975E-001	  1.59292E+000	  6.94975E-001	  2.86995E+000
  5.00000E-005	  1.22308E+000	  7.63183E-001	  6.94975E-001	  2.81466E+000
  5.62500E-005	  8.97753E-001	  5.55750E-001	  6.45123E-001	  1.48782E+000
  6.25000E-005	  6.80867E-001	  6.59466E-001	  6.45123E-001	  1.81953E+000
  6.87500E-005	  5.18203E-001	  7.63183E-001	  5.45419E-001	  1.10083E+000
  7.50000E-005	  7.35089E-001	  1.92741E-001	  5.95271E-001	  1.15611E+000
  8.12500E-005	  5.72424E-001	  7.63183E-001	  1.34305E+000	  1.21140E+000
  8.75000E-005	  4.09760E-001	  1.92741E-001	  2.46305E-001	  9.90258E-001
  9.37500E-005	  1.92874E-001	  6.07608E-001	  8.94384E-001	  1.21140E+000
  1.00000E-004	  4.91092E-001	  4.26104E-001	  4.70640E-001	  7.69118E-001
  1.12500E-004	  5.18202E-001	  7.37254E-001	  7.69753E-001	  4.09766E-001
  1.25000E-004	  7.07978E-001	  9.96545E-001	  3.21083E-001	  1.04554E+000
  1.37500E-004	  4.91092E-001	  6.85395E-001	  6.20197E-001	  8.79688E-001
  1.50000E-004	  2.47095E-001	  5.03891E-001	  5.70344E-001	  4.37409E-001
  1.62500E-004	  6.53756E-001	  1.92741E-001	  1.04394E+000	  7.13833E-001
  1.75000E-004	  6.26646E-001	  2.96458E-001	  5.20492E-001	  6.58548E-001
  1.87500E-004	  6.80867E-001	  4.00175E-001	  3.21083E-001	  2.99196E-001
  2.00000E-004	  3.82648E-001	  6.59466E-001	  4.45714E-001	  5.06514E-001
  2.25000E-004	  5.58868E-001	  5.68714E-001	  6.45122E-001	  6.30906E-001
  2.50000E-004	  3.55538E-001	  6.85395E-001	  6.94975E-001	  5.75621E-001
  2.75000E-004	  7.48644E-001	  6.07608E-001	  4.58177E-001	  5.61799E-001
  3.00000E-004	  5.85979E-001	  4.39068E-001	  5.32955E-001	  4.78872E-001
  3.25000E-004	  5.72424E-001	  4.64997E-001	  7.32364E-001	  7.13833E-001
  3.50000E-004	  4.50425E-001	  4.39068E-001	  4.95566E-001	  3.40660E-001
  3.75000E-004	  6.67311E-001	  6.07608E-001	  2.96157E-001	  4.65051E-001
  4.00000E-004	  4.77535E-001	  5.81678E-001	  3.33546E-001	  5.47977E-001
  4.50000E-004	  5.31757E-001	  5.49266E-001	  3.52240E-001	  5.06514E-001
  5.00000E-004	  4.84313E-001	  6.78912E-001	  5.39186E-001	  5.96352E-001
  5.50000E-004	  5.65645E-001	  4.90926E-001	  5.70343E-001	  7.20743E-001
  6.00000E-004	  5.52090E-001	  4.64997E-001	  3.89629E-001	  5.61769E-001
  6.50000E-004	  3.62315E-001	  4.26103E-001	  5.39186E-001	  4.16649E-001
  7.00000E-004	  3.69092E-001	  6.65947E-001	  5.14260E-001	  5.89411E-001
  7.50000E-004	  3.96203E-001	  4.90926E-001	  5.39186E-001	  5.27216E-001
  8.00000E-004	  3.31814E-001	  4.16378E-001	  5.17374E-001	  4.65049E-001
  9.00000E-004	  4.60590E-001	  5.13612E-001	  4.11438E-001	  4.65049E-001
  1.00000E-003	  4.60590E-001	  4.22861E-001	  6.10847E-001	  5.61797E-001
  1.10000E-003	  4.02980E-001	  4.09896E-001	  4.17670E-001	  5.51431E-001
  1.20000E-003	  4.87701E-001	  4.48790E-001	  4.64406E-001	  3.57934E-001
  1.30000E-003	  4.40257E-001	  3.80726E-001	  5.82805E-001	  5.41066E-001
  1.40000E-003	  4.16535E-001	  4.22861E-001	  4.14554E-001	  5.23760E-001
  1.50000E-003	  5.96144E-001	  4.00173E-001	  5.01795E-001	  3.71729E-001
  1.60000E-003	  4.45338E-001	  4.82819E-001	  4.83098E-001	  4.32221E-001
  1.80000E-003	  5.97835E-001	  3.96929E-001	  4.92446E-001	  4.40859E-001
  2.00000E-003	  4.77532E-001	  4.64993E-001	  5.18930E-001	  4.80595E-001
  2.20000E-003	  4.41949E-001	  3.82344E-001	  4.16110E-001	  4.23583E-001
  2.40000E-003	  4.50421E-001	  4.50408E-001	  4.23899E-001	  4.32221E-001
  2.60000E-003	  4.08061E-001	  4.29340E-001	  4.47267E-001	  3.33745E-001
  2.80000E-003	  4.87698E-001	  4.08273E-001	  4.55057E-001	  3.40656E-001
  3.00000E-003	  4.28394E-001	  4.13135E-001	  4.45709E-001	  4.06279E-001
  3.20000E-003	  4.33472E-001	  4.46351E-001	  4.72188E-001	  4.25306E-001
  3.60000E-003	  4.86846E-001	  4.13130E-001	  3.86505E-001	  4.20987E-001
  4.00000E-003	  4.08056E-001	  4.41490E-001	  3.28864E-001	  3.98527E-001
  4.40000E-003	  3.83487E-001	  4.60126E-001	  4.37915E-001	  4.36535E-001
  4.80000E-003	  3.98737E-001	  3.74236E-001	  3.99747E-001	  4.59858E-001
  5.20000E-003	  3.85181E-001	  4.43110E-001	  4.08316E-001	  4.57267E-001
  5.60000E-003	  4.42791E-001	  4.69850E-001	  4.05979E-001	  4.28761E-001
  6.00000E-003	  3.59765E-001	  4.33387E-001	  3.98189E-001	  3.61383E-001
  6.40000E-003	  3.66136E-001	  4.11095E-001	  4.42968E-001	  4.02405E-001
  7.20000E-003	  3.69525E-001	  4.62142E-001	  4.81915E-001	  4.26160E-001
  8.00000E-003	  4.11038E-001	  4.43911E-001	  3.91170E-001	  3.92903E-001
  8.80000E-003	  3.66559E-001	  4.00156E-001	  3.63517E-001	  4.36121E-001
  9.60000E-003	  4.33913E-001	  4.17982E-001	  3.98205E-001	  3.88610E-001
  1.04000E-002	  4.02142E-001	  3.75848E-001	  3.34332E-001	  4.19708E-001
  1.12000E-002	  3.37754E-001	  3.91243E-001	  3.51469E-001	  4.31802E-001
  1.20000E-002	  3.38178E-001	  3.65719E-001	  3.55363E-001	  4.20140E-001
  1.28000E-002	  3.50046E-001	  3.68334E-001	  3.39401E-001	  4.04194E-001
  1.44000E-002	  3.42633E-001	  3.83527E-001	  3.70000E-001	  3.53443E-001
  1.60000E-002	  3.33525E-001	  3.71575E-001	  3.57536E-001	  3.23856E-001
  1.76000E-002	  3.08719E-001	  3.15262E-001	  3.45462E-001	  3.49987E-001
  1.92000E-002	  3.47690E-001	  3.61042E-001	  3.30492E-001	  3.68560E-001
  2.08000E-002	  3.20368E-001	  3.51318E-001	  3.08704E-001	  3.43292E-001
  2.24000E-002	  3.33288E-001	  3.55167E-001	  3.05588E-001	  3.24719E-001
  2.40000E-002	  3.10837E-001	  3.48077E-001	  3.14960E-001	  3.24719E-001
  2.56000E-002	  3.03332E-001	  3.21376E-001	  2.82814E-001	  3.07241E-001
  2.88000E-002	  2.84905E-001	  3.10235E-001	  2.81280E-001	  3.11236E-001
  3.20000E-002	  2.51464E-001	  2.92915E-001	  3.09032E-001	  3.02490E-001
  3.52000E-002	  2.78364E-001	  2.70429E-001	  2.80988E-001	  2.70959E-001
  3.84000E-002	  2.35684E-001	  2.76810E-001	  2.56157E-001	  2.79872E-001
  4.16000E-002	  2.49134E-001	  2.47438E-001	  2.46419E-001	  2.48343E-001
  4.48000E-002	  2.54723E-001	  2.29814E-001	  2.37678E-001	  2.48990E-001
  4.80000E-002	  2.18081E-001	  2.27889E-001	  2.10606E-001	  2.67671E-001
  5.12000E-002	  2.03311E-001	  2.18939E-001	  2.12165E-001	  2.24255E-001
  5.76000E-002	  2.04030E-001	  1.93694E-001	  2.09584E-001	  1.84294E-001
  6.40000E-002	  1.71223E-001	  1.88478E-001	  1.79933E-001	  1.73494E-001
  7.04000E-002	  1.67009E-001	  1.63104E-001	  1.59748E-001	  1.65610E-001
  7.68000E-002	  1.54958E-001	  1.38236E-001	  1.62009E-001	  1.53136E-001
  8.32000E-002	  1.48445E-001	  1.34914E-001	  1.50858E-001	  1.56808E-001
  8.96000E-002	  1.25675E-001	  1.25747E-001	  1.45134E-001	  1.36190E-001
  9.60000E-002	  1.07703E-001	  1.11161E-001	  1.24586E-001	  1.34354E-001
  1.02400E-001	  1.05408E-001	  1.05750E-001	  1.23008E-001	  1.19636E-001
  1.15200E-001	  9.36243E-002	  8.40259E-002	  1.07520E-001	  1.08332E-001
  1.28000E-001	  9.14206E-002	  7.89915E-002	  8.80095E-002	  8.61692E-002
  1.40800E-001	  7.02622E-002	  5.86360E-002	  7.91182E-002	  6.66962E-002
  1.53600E-001	  6.18083E-002	  4.53526E-002	  6.08091E-002	  5.67909E-002
  1.66400E-001	  5.01365E-002	  3.85334E-002	  5.63292E-002	  5.06871E-002
  1.79200E-001	  5.02689E-002	  2.77716E-002	  4.24838E-002	  5.09842E-002
  1.92000E-001	  3.44862E-002	  3.06396E-002	  3.16187E-002	  3.76836E-002
  2.04800E-001	  3.11760E-002	  1.92242E-002	  2.31233E-002	  3.01007E-002
  2.30400E-001	  2.41055E-002	  1.82301E-002	  2.37621E-002	  2.83242E-002
  2.56000E-001	  1.43600E-002	  1.32282E-002	  9.90679E-003	  2.43945E-002
  2.81600E-001	  5.75977E-003	  6.96027E-003	  1.02295E-002	  2.02642E-002
  3.07200E-001	  6.62792E-003	  1.09049E-002	  1.61585E-002	  8.40195E-003
  3.32800E-001	  2.20337E-003	  1.86729E-004	  2.19386E-003	  3.41361E-003
  3.58400E-001	  4.15636E-004	  3.98610E-003	  3.91810E-004	 -1.74220E-005
  3.84000E-001	 -7.37861E-003	  1.58120E-002	  1.06761E-003	  7.81526E-003
  4.09600E-001	 -3.04985E-003	  5.95282E-003	  5.12398E-003	  3.41796E-003
  4.60800E-001	  1.77022E-003	 -8.49378E-004	  6.84675E-003	 -6.32093E-003
  5.12000E-001	  9.95541E-003	  4.89410E-003	  6.46921E-003	 -7.47595E-003
  5.63200E-001	  9.57048E-003	  5.88246E-003	  4.69778E-003	 -8.86759E-003
  6.14400E-001	  9.08543E-003	  1.27661E-002	  1.74539E-003	 -1.03403E-002
  6.65600E-001	  8.33174E-003	  6.23475E-003	  1.98880E-003	 -1.03350E-002
  7.16800E-001	  3.03489E-003	  5.48063E-003	  1.57489E-003	 -6.55452E-004
  7.68000E-001	  2.76736E-003	  7.00816E-003	  1.79409E-003	 -3.45154E-003
  8.19200E-001	  5.56288E-003	  1.34122E-004	 -4.56604E-003	 -2.28392E-003
  9.21600E-001	  4.41321E-003	 -6.82510E-003	  3.03929E-003	  3.76816E-003
  1.02400E+000	  5.62266E-003	 -2.38072E-003	  6.73265E-003	  5.24059E-003
  1.12640E+000	  1.82852E-003	 -5.09065E-003	 -8.88798E-003	  6.13896E-003
  1.22880E+000	  4.72080E-003	 -8.54139E-003	 -1.03623E-002	  3.12929E-003
  1.33120E+000	  1.51020E-003	 -1.12426E-002	 -9.14887E-003	  3.31419E-003
  1.43360E+000	 -2.72660E-003	 -4.50982E-003	 -6.00623E-003	 -3.86055E-003
  1.53600E+000	  1.20159E-003	 -1.51530E-003	 -9.72304E-003	 -2.42619E-003
  1.63840E+000	 -2.87838E-004	  2.36932E-003	 -2.74613E-003	 -5.30760E-003
  1.84320E+000	 -1.32794E-003	 -5.73154E-003	  9.45952E-004	 -3.45965E-004
  2.04800E+000	 -7.49434E-003	  1.48022E-003	  7.70985E-003	 -2.40171E-003
  2.25280E+000	  5.39429E-004	 -2.75161E-003	 -1.35741E-003	  4.06093E-003
  2.45760E+000	  1.10426E-002	  2.98760E-003	 -6.44433E-003	  6.27651E-003
  2.66240E+000	  2.23974E-003	  1.60288E-003	 -5.00883E-004	 -1.12725E-003
  2.86720E+000	 -7.77044E-003	 -4.47584E-003	  6.82079E-003	 -3.48197E-004
  3.07200E+000	 -1.28232E-003	  1.74293E-003	  5.85296E-005	  7.51464E-003
  3.27680E+000	  4.37800E-003	 -5.57618E-003	 -2.22696E-003	  7.87909E-003
  3.68640E+000	  3.78343E-003	 -6.18257E-004	  9.35176E-003	 -3.94765E-003
  4.09600E+000	 -4.38871E-004	  2.95715E-004	  1.34802E-003	  1.32536E-003
  4.50560E+000	  6.62707E-004	 -1.94691E-003	 -4.90625E-003	 -3.51278E-003
  4.91520E+000	  4.84202E-003	 -2.38328E-003	 -1.54261E-003	 -1.36064E-003
  5.32480E+000	  3.68479E-003	  1.85440E-004	  1.19763E-003	  6.62745E-003
  5.73440E+000	 -9.48096E-003	 -2.00453E-003	  3.89689E-003	  1.09542E-003
  6.14400E+000	 -3.19342E-003	 -4.58111E-003	  2.12391E-003	  7.35151E-003
  6.55360E+000	 -2.18829E-003	  3.66402E-004	  8.50680E-004	  1.80654E-003
  7.37280E+000	 -2.89847E-004	 -7.31756E-003	  6.71547E-004	  1.35639E-003
  8.19200E+000	  1.46577E-003	  3.54616E-004	  3.25641E-003	 -6.72442E-005
  9.01120E+000	  4.51778E-003	 -3.71186E-003	  9.12782E-004	 -1.68331E-003
  9.83040E+000	  5.60687E-003	 -2.18062E-003	  1.47806E-003	  1.21873E-003
  1.06496E+001	 -4.71568E-003	  3.45918E-004	 -1.51837E-003	 -2.88399E-003
  1.14688E+001	 -9.46437E-004	 -3.14594E-003	  9.01760E-005	  1.09498E-003
  1.22880E+001	 -1.50560E-003	  1.14262E-003	  1.30221E-003	 -4.19136E-003
  1.31072E+001	  9.67324E-004	 -8.33208E-004	  2.34246E-004	 -9.84728E-004
  1.47456E+001	  2.49778E-003	 -2.88151E-003	  3.61520E-003	 -3.84599E-004
  1.63840E+001	 -2.11003E-003	 -6.88078E-004	 -1.00273E-003	 -1.00697E-003
  1.80224E+001	  2.44704E-003	  2.78938E-003	 -1.82425E-003	 -5.98497E-004
  1.96608E+001	 -2.64523E-003	  4.88281E-004	  7.17968E-004	  4.06147E-003
  2.12992E+001	 -1.16423E-003	  1.08941E-003	 -5.41808E-004	 -3.10306E-003
  2.29376E+001	  1.35600E-004	 -3.12028E-004	  7.85613E-004	  1.25101E-003
  2.45760E+001	 -9.65629E-004	  1.52881E-003	  2.75375E-003	  1.50042E-004
  2.62144E+001	  2.67125E-004	 -1.26824E-004	  3.20682E-003	 -3.35075E-003
  2.94912E+001	  1.15258E-003	 -3.36984E-003	 -1.03838E-003	 -6.05991E-004
  3.27680E+001	  1.54430E-003	  1.18093E-003	 -1.02188E-003	 -1.60244E-003
  3.60448E+001	  1.81535E-003	 -3.58166E-004	  2.20949E-003	 -4.28235E-003
  3.93216E+001	 -2.00945E-003	  1.43088E-003	  1.74208E-003	 -2.49220E-003
  4.25984E+001	  7.26906E-005	  1.71200E-003	 -3.58528E-004	 -1.07773E-003
  4.58752E+001	  4.36936E-004	 -1.01683E-003	  1.13947E-004	  2.60178E-003
  4.91520E+001	  4.15514E-004	  1.21124E-003	  3.76971E-003	  8.60021E-004
  5.24288E+001	  1.97615E-004	 -7.81959E-004	 -6.98178E-004	  7.21969E-005
  5.89824E+001	  1.99601E-004	 -1.80168E-003	 -2.78319E-003	 -1.06141E-003
  6.55360E+001	  1.86043E-003	  9.16099E-004	  1.48181E-003	  1.09339E-003
  7.20896E+001	  1.65255E-003	  1.53746E-003	 -1.01291E-004	  2.93854E-004
  7.86432E+001	 -4.48786E-004	 -8.50873E-004	 -1.02704E-003	 -3.73740E-004
  8.51968E+001	 -1.08383E-003	 -7.67108E-004	 -1.18855E-004	  9.86278E-005
  9.17504E+001	  7.25776E-004	  1.49167E-003	  6.15029E-004	  1.72761E-003
  9.83040E+001	  4.72801E-004	  5.79361E-006	 -7.68966E-004	 -3.06786E-003
  1.04858E+002	  3.02611E-004	 -1.73097E-003	 -5.18532E-004	 -1.00505E-003
  1.17965E+002	 -9.29383E-004	 -1.89548E-004	 -2.51271E-005	  7.28936E-004
  1.31072E+002	 -9.09506E-004	 -7.92331E-004	 -5.35821E-005	 -7.13532E-004
  1.44179E+002	  2.06582E-004	  1.25110E-004	 -1.73701E-003	 -4.56409E-004
  1.57286E+002	 -2.50259E-003	  8.92833E-004	  2.30812E-004	  1.55657E-003
  1.70394E+002	 -2.90235E-004	 -1.47417E-003	  4.92604E-004	 -1.03926E-003
  1.83501E+002	 -1.03335E-003	  9.94164E-004	  5.37408E-004	 -3.84600E-005
  1.96608E+002	 -2.27892E-004	 -1.22671E-003	 -2.92690E-004	  1.33338E-003
  2.09715E+002	 -1.14418E-004	  1.02713E-005	  5.80376E-004	  4.38671E-004
  2.35930E+002	 -5.66884E-004	  2.58498E-004	 -1.29973E-003	  8.75814E-005
  2.62144E+002	  7.23030E-004	  1.95929E-005	 -2.78547E-003	  1.46170E-003
  2.88358E+002	  1.57314E-004	 -2.32221E-004	  4.35293E-004	 -1.69555E-005
  3.14573E+002	 -1.16894E-003	  3.12243E-004	  5.02790E-004	 -1.07590E-003
  3.40787E+002	 -4.86508E-004	 -7.81830E-004	  2.79031E-004	 -8.34528E-004
  3.67002E+002	 -1.34869E-004	  1.02467E-004	  1.68363E-003	  1.02059E-004
  3.93216E+002	 -1.06562E-003	 -7.74182E-004	  3.32589E-004	  3.81561E-004

"Count Rate"
       0.01311	      64.23950	      55.61829	      61.79810	      56.61011
       0.02621	      55.84717	      57.60193	      58.36487	      49.13330
       0.03932	      56.15234	      61.87439	      57.06787	      56.07605
       0.05243	      46.46301	      57.06787	      55.61829	      51.19324
       0.06554	      51.95618	      54.77905	      56.83899	      53.40576
       0.07864	      58.44116	      57.90710	      57.67822	      55.84717
       0.09175	      54.01611	      55.31311	      56.07605	      56.83899
       0.10486	      49.43848	      50.73547	      55.00793	      50.20142
       0.11796	      53.02429	      57.22046	      56.76270	      56.45752
       0.13107	      57.29675	      56.68640	      60.27222	      52.18506
       0.14418	      52.64282	      63.70544	      51.04065	      56.91528
       0.15729	      41.35132	      52.79541	      54.62646	      53.78723
       0.17039	      51.34583	      62.33215	      54.62646	      51.34583
       0.18350	      47.07336	      55.84717	      55.61829	      54.93164
       0.19661	      58.97522	      56.99158	      64.39209	      57.52563
       0.20972	      54.24500	      58.21228	      59.12781	      55.23682
       0.22282	      56.15234	      53.55835	      58.89893	      50.73547
       0.23593	      55.61829	      58.21228	      55.16052	      48.98071
       0.24904	      59.58557	      45.62378	      57.90710	      55.99976
       0.26214	      50.65918	      59.05151	      52.87170	      49.13330
       0.27525	      57.52563	      56.91528	      50.88806	      55.16052
       0.28836	      47.98889	      54.32129	      51.87988	      53.55835
       0.30147	      55.92346	      53.17688	      51.72729	      57.29675
       0.31457	      64.84985	      50.50659	      58.97522	      54.47388
       0.32768	      57.60193	      59.43298	      59.96704	      49.59106
       0.34079	      67.44385	      53.55835	      60.11963	      46.99707
       0.35389	      51.65100	      64.69727	      60.19592	      51.26953
       0.36700	      57.83081	      52.41394	      60.80627	      48.21777
       0.38011	      51.26953	      51.95618	      62.33215	      63.17139
       0.39322	      54.09241	      57.37305	      48.98071	      69.19861
       0.40632	      63.70544	      54.85535	      62.56104	      55.00793
       0.41943	      52.49023	      65.53650	      54.93164	      46.38672
       0.43254	      55.46570	      55.84717	      62.94250	      52.94800
       0.44564	      55.92346	      52.49023	      63.47656	      61.56921
       0.45875	      54.09241	      54.85535	      45.24231	      54.55017
       0.47186	      52.26135	      53.48206	      51.57471	      53.86353
       0.48497	      58.97522	      52.49023	      58.89893	      47.37854
       0.49807	      58.59375	      57.22046	      50.65918	      54.47388
       0.51118	      56.76270	      58.82263	      50.35400	      61.56921
       0.52429	      52.79541	      50.12512	      55.38940	      48.67554
       0.53740	      53.40576	      54.01611	      59.66187	      53.71094
       0.55050	      57.06787	      53.86353	      59.12781	      55.69458
       0.56361	      55.61829	      56.38123	      57.67822	      57.37305
       0.57672	      59.12781	      57.29675	      56.45752	      53.17688
       0.58982	      49.89624	      51.95618	      50.58289	      55.23682
       0.60293	      56.15234	      59.28040	      54.01611	      56.45752
       0.61604	      56.22864	      56.22864	      58.36487	      52.56653
       0.62915	      48.90442	      53.71094	      54.32129	      55.23682
       0.64225	      49.28589	      57.29675	      53.93982	      55.99976
       0.65536	      52.56653	      61.11145	      54.47388	      61.95068
       0.66847	      47.76001	      58.74634	      55.69458	      66.60461
       0.68157	      52.33765	      59.12781	      49.05701	      46.84448
       0.69468	      62.94250	      57.29675	      65.61279	      55.69458
       0.70779	      51.87988	      52.64282	      59.20410	      51.95618
       0.72090	      55.08423	      58.67004	      70.41931	      52.56653
       0.73400	      46.15784	      61.56921	      64.16321	      50.50659
       0.74711	      57.67822	      50.88806	      56.83899	      51.11694
