ALV-7004/USB-FAST
Date :	"11/11/2025"
Time :	"3:59:47 PM"
Samplename : 	""
SampMemo(0) : 	""
SampMemo(1) : 	""
SampMemo(2) : 	""
SampMemo(3) : 	""
SampMemo(4) : 	""
SampMemo(5) : 	""
SampMemo(6) : 	""
SampMemo(7) : 	""
SampMemo(8) : 	""
SampMemo(9) : 	""
Temperature [K] :	     298.16000
Viscosity [cp]  :	       0.89000
Refractive Index:	       1.33200
Wavelength [nm] :	       0.00000
Angle [°]       :	       0.00000
Duration [s]    :	         1
FloatDur [ms]   :	          944
Stop TP [ms]   :	     68432
Runs            :	         1
Mode            :	"A-CH0+1  A-CH2+3 "
MeanCR0 [kHz]   :	      57.17807
MeanCR1 [kHz]   :	      58.52805
MeanCR2 [kHz]   :	      59.63855
MeanCR3 [kHz]   :	      56.96721

"Correlation"
  3.12500E-006	 -1.00000E+000	 -1.00000E+000	 -1.00000E+000	 -1.00000E+000
  6.25000E-006	 -1.00000E+000	 -1.00000E+000	 -1.00000E+000	 -1.00000E+000
  9.37500E-006	 -1.00000E+000	 -1.00000E+000	 -1.00000E+000	 -1.00000E+000
  1.25000E-005	 -1.00000E+000	 -1.00000E+000	 -1.00000E+000	 -1.00000E+000
  1.56250E-005	 -1.00000E+000	 -1.00000E+000	 -1.00000E+000	 -1.00000E+000
  1.87500E-005	 -1.00000E+000	 -1.00000E+000	 -1.00000E+000	 -1.00000E+000
  2.18750E-005	 -1.00000E+000	  2.86835E-001	  8.11369E-001	 -7.91028E-001
  2.50000E-005	  1.33129E+001	  1.09775E+001	  1.03449E+001	  2.35542E+001
  2.81250E-005	  3.66725E+000	  1.57367E+000	  2.52740E+000	  8.61270E+000
  3.12500E-005	  2.31893E+000	  1.57367E+000	  1.57405E+000	  4.01532E+000
  3.43750E-005	  9.70616E-001	  1.07873E+000	  1.09737E+000	  4.64224E+000
  3.75000E-005	  1.38548E+000	  4.84809E-001	  1.28805E+000	  3.59738E+000
  4.06250E-005	  1.17805E+000	  6.82784E-001	  7.16034E-001	  2.76149E+000
  4.37500E-005	  8.66900E-001	  5.83796E-001	  2.39358E-001	  2.13458E+000
  4.68750E-005	 -3.77700E-001	  1.07873E+000	  1.28805E+000	  1.92561E+000
  5.00000E-005	  6.07608E-001	  1.27671E+000	  9.54372E-001	  1.55990E+000
  5.62500E-005	  7.63183E-001	  4.84809E-001	  6.68366E-001	  2.29131E+000
  6.25000E-005	  1.33362E+000	  5.34303E-001	  5.73031E-001	  1.71663E+000
  6.87500E-005	  5.03891E-001	  5.34303E-001	  3.34693E-001	  1.76888E+000
  7.50000E-005	  6.07608E-001	  8.31265E-001	  8.11369E-001	  7.24017E-001
  8.12500E-005	  9.18758E-001	  7.81771E-001	  1.00204E+000	  1.08972E+000
  8.75000E-005	  4.52033E-001	  7.32277E-001	  1.91690E-001	  4.62803E-001
  9.37500E-005	  6.59466E-001	  9.30252E-001	 -1.89651E-001	  4.62803E-001
  1.00000E-004	  8.15041E-001	  5.83796E-001	  2.39358E-001	  7.24017E-001
  1.12500E-004	  4.52033E-001	  2.62088E-001	  3.58527E-001	  1.01135E+000
  1.25000E-004	  1.66812E-001	  7.07530E-001	  4.53862E-001	  8.80746E-001
  1.37500E-004	  7.11325E-001	  6.82783E-001	  3.34693E-001	  2.01588E-001
  1.50000E-004	  8.40970E-001	  7.81771E-001	  8.35203E-001	  6.45653E-001
  1.62500E-004	  4.52033E-001	  1.87847E-001	  6.44532E-001	  3.58317E-001
  1.75000E-004	  4.00175E-001	  5.59049E-001	  3.34693E-001	  5.67288E-001
  1.87500E-004	  5.81679E-001	  5.83796E-001	  8.11369E-001	  7.50139E-001
  2.00000E-004	  5.81678E-001	  6.33290E-001	  4.30028E-001	  7.37077E-001
  2.25000E-004	  4.77962E-001	  5.83796E-001	  4.89612E-001	  5.93409E-001
  2.50000E-004	  3.48316E-001	  6.82783E-001	  6.32615E-001	  6.32592E-001
  2.75000E-004	  2.96458E-001	  5.21929E-001	  4.53861E-001	  3.71377E-001
  3.00000E-004	  4.13139E-001	  5.46676E-001	  5.84947E-001	  8.02381E-001
  3.25000E-004	  5.16855E-001	  5.71422E-001	  4.65778E-001	  6.19531E-001
  3.50000E-004	  4.26103E-001	  3.61075E-001	  5.01529E-001	  6.58713E-001
  3.75000E-004	  4.00174E-001	  4.84809E-001	  1.04971E+000	  4.36681E-001
  4.00000E-004	  3.74245E-001	  5.59048E-001	  5.78988E-001	  5.21575E-001
  4.50000E-004	  4.58514E-001	  6.51849E-001	  3.40650E-001	  5.67287E-001
  5.00000E-004	  2.57563E-001	  4.41501E-001	  4.35985E-001	  6.06470E-001
  5.50000E-004	  3.28869E-001	  4.29128E-001	  4.65778E-001	  4.82393E-001
  6.00000E-004	  6.40018E-001	  4.53874E-001	  5.07487E-001	  4.17089E-001
  6.50000E-004	  5.42784E-001	  4.53874E-001	  3.52567E-001	  4.62801E-001
  7.00000E-004	  3.61280E-001	  4.53874E-001	  5.73030E-001	  5.15044E-001
  7.50000E-004	  4.58514E-001	  5.71422E-001	  5.43238E-001	  5.08514E-001
  8.00000E-004	  4.81201E-001	  5.00273E-001	  4.21088E-001	  5.64021E-001
  9.00000E-004	  4.61754E-001	  3.23953E-001	  4.74714E-001	  5.37899E-001
  1.00000E-003	  4.45548E-001	  5.65234E-001	  4.38963E-001	  4.95452E-001
  1.10000E-003	  5.42783E-001	  5.40487E-001	  4.27047E-001	  4.10557E-001
  1.20000E-003	  5.33059E-001	  5.43580E-001	  4.12151E-001	  5.37899E-001
  1.30000E-003	  4.16378E-001	  4.87900E-001	  4.83652E-001	  4.30148E-001
  1.40000E-003	  4.84442E-001	  4.72433E-001	  5.19402E-001	  4.98717E-001
  1.50000E-003	  4.39066E-001	  4.63180E-001	  5.19402E-001	  4.56270E-001
  1.60000E-003	  5.29816E-001	  4.66271E-001	  4.09169E-001	  4.74226E-001
  1.80000E-003	  4.64993E-001	  3.99763E-001	  4.30023E-001	  4.17085E-001
  2.00000E-003	  5.15230E-001	  4.89471E-001	  5.17910E-001	  4.56267E-001
  2.20000E-003	  4.27720E-001	  4.83284E-001	  4.53857E-001	  4.85654E-001
  2.40000E-003	  4.05032E-001	  4.60084E-001	  4.70243E-001	  4.93817E-001
  2.60000E-003	  4.30961E-001	  4.38430E-001	  4.55347E-001	  4.43207E-001
  2.80000E-003	  4.89301E-001	  3.22428E-001	  4.18107E-001	  3.76271E-001
  3.00000E-003	  4.13135E-001	  4.67817E-001	  3.18303E-001	  4.59533E-001
  3.20000E-003	  4.16371E-001	  4.38425E-001	  4.22571E-001	  4.66058E-001
  3.60000E-003	  3.70185E-001	  4.52346E-001	  4.38211E-001	  4.22795E-001
  4.00000E-003	  4.00976E-001	  4.68586E-001	  4.04695E-001	  3.99938E-001
  4.40000E-003	  4.33387E-001	  3.90503E-001	  4.17357E-001	  4.21978E-001
  4.80000E-003	  3.96924E-001	  4.74026E-001	  3.85330E-001	  4.84016E-001
  5.20000E-003	  4.31766E-001	  4.21437E-001	  3.95013E-001	  4.34223E-001
  5.60000E-003	  3.96114E-001	  4.35358E-001	  3.93523E-001	  4.58711E-001
  6.00000E-003	  4.07458E-001	  4.39998E-001	  4.58321E-001	  3.82796E-001
  6.40000E-003	  3.72201E-001	  4.22588E-001	  4.28147E-001	  4.42811E-001
  7.20000E-003	  4.17172E-001	  3.95546E-001	  4.22188E-001	  4.02812E-001
  8.00000E-003	  3.64504E-001	  3.32516E-001	  4.03569E-001	  3.69752E-001
  8.80000E-003	  3.95294E-001	  3.56104E-001	  4.07665E-001	  3.44447E-001
  9.60000E-003	  3.52755E-001	  3.54557E-001	  3.89045E-001	  3.51793E-001
  1.04000E-002	  3.21154E-001	  3.97866E-001	  3.97238E-001	  4.53858E-001
  1.12000E-002	  3.49109E-001	  3.65771E-001	  3.57391E-001	  3.48145E-001
  1.20000E-002	  3.91648E-001	  3.82398E-001	  4.05803E-001	  4.01614E-001
  1.28000E-002	  3.51724E-001	  3.79479E-001	  3.79716E-001	  3.75294E-001
  1.44000E-002	  3.42203E-001	  3.66719E-001	  3.71896E-001	  3.85881E-001
  1.60000E-002	  3.31467E-001	  3.71939E-001	  3.50297E-001	  3.52412E-001
  1.76000E-002	  3.06956E-001	  3.52799E-001	  3.50670E-001	  3.51213E-001
  1.92000E-002	  3.33493E-001	  3.60919E-001	  3.43618E-001	  3.35499E-001
  2.08000E-002	  3.21339E-001	  3.32305E-001	  3.56466E-001	  3.10193E-001
  2.24000E-002	  2.86902E-001	  3.33875E-001	  3.26302E-001	  3.37948E-001
  2.40000E-002	  3.02500E-001	  3.28268E-001	  3.07495E-001	  3.08560E-001
  2.56000E-002	  2.82310E-001	  3.39543E-001	  3.13441E-001	  3.14692E-001
  2.88000E-002	  2.80713E-001	  3.19919E-001	  3.02456E-001	  3.00837E-001
  3.20000E-002	  2.79194E-001	  3.04065E-001	  2.97987E-001	  2.81040E-001
  3.52000E-002	  2.43340E-001	  2.77191E-001	  2.65589E-001	  2.67082E-001
  3.84000E-002	  2.51240E-001	  2.68031E-001	  2.84231E-001	  2.52818E-001
  4.16000E-002	  2.37972E-001	  2.66000E-001	  2.31629E-001	  2.55550E-001
  4.48000E-002	  2.35058E-001	  2.71124E-001	  2.51087E-001	  2.34040E-001
  4.80000E-002	  2.18650E-001	  2.42413E-001	  2.45222E-001	  2.29754E-001
  5.12000E-002	  2.07820E-001	  2.31880E-001	  2.18104E-001	  2.13738E-001
  5.76000E-002	  1.89105E-001	  2.24533E-001	  2.18125E-001	  1.92413E-001
  6.40000E-002	  1.75179E-001	  1.99254E-001	  1.85048E-001	  1.85479E-001
  7.04000E-002	  1.46689E-001	  2.01473E-001	  1.79529E-001	  1.78889E-001
  7.68000E-002	  1.40004E-001	  1.72713E-001	  1.67492E-001	  1.66153E-001
  8.32000E-002	  1.22786E-001	  1.58765E-001	  1.60509E-001	  1.53693E-001
  8.96000E-002	  1.31091E-001	  1.58620E-001	  1.42912E-001	  1.45978E-001
  9.60000E-002	  1.21874E-001	  1.46053E-001	  1.31180E-001	  1.44039E-001
  1.02400E-001	  1.17409E-001	  1.35237E-001	  1.27098E-001	  1.15224E-001
  1.15200E-001	  8.30654E-002	  1.11384E-001	  1.02656E-001	  9.94060E-002
  1.28000E-001	  6.91731E-002	  9.01215E-002	  9.51409E-002	  8.33717E-002
  1.40800E-001	  6.20154E-002	  8.23157E-002	  6.97450E-002	  7.04422E-002
  1.53600E-001	  5.24373E-002	  7.76516E-002	  6.82087E-002	  6.33806E-002
  1.66400E-001	  5.27354E-002	  6.71827E-002	  5.11184E-002	  5.17218E-002
  1.79200E-001	  3.59200E-002	  5.91110E-002	  5.46055E-002	  5.50851E-002
  1.92000E-001	  2.86331E-002	  5.80668E-002	  4.32129E-002	  4.68662E-002
  2.04800E-001	  3.46098E-002	  4.55694E-002	  3.81158E-002	  4.11078E-002
  2.30400E-001	  2.21550E-002	  4.19513E-002	  3.42593E-002	  2.55585E-002
  2.56000E-001	  1.75704E-002	  3.01539E-002	  2.54971E-002	  1.10354E-002
  2.81600E-001	  1.89822E-002	  2.89093E-002	  2.45170E-002	  1.71378E-002
  3.07200E-001	  2.02738E-002	  2.18177E-002	  1.38335E-002	  2.63845E-003
  3.32800E-001	  1.73605E-002	  1.88882E-002	  9.92709E-003	 -1.56353E-003
  3.58400E-001	  2.03053E-002	  1.18609E-002	  1.58435E-003	  4.82693E-003
  3.84000E-001	  1.56184E-002	  7.52269E-003	  3.65261E-003	  1.21527E-003
  4.09600E-001	  1.01634E-002	  1.31251E-002	  4.28356E-003	  2.11946E-003
  4.60800E-001	  7.81296E-003	  9.27016E-003	  3.69009E-003	  2.61132E-003
  5.12000E-001	  7.21801E-003	  3.21460E-003	 -1.23139E-003	 -2.19640E-003
  5.63200E-001	  5.86952E-003	  3.00315E-003	  5.17935E-003	 -2.43100E-003
  6.14400E-001	 -1.69464E-003	 -1.17940E-003	  6.85836E-003	 -6.01344E-003
  6.65600E-001	 -5.31850E-003	 -2.84891E-004	  8.06457E-003	 -4.71691E-003
  7.16800E-001	 -2.42321E-003	  1.45599E-003	  4.80140E-003	  1.90626E-003
  7.68000E-001	 -1.11226E-003	  4.95018E-003	  6.91925E-003	 -1.71792E-003
  8.19200E-001	 -9.28529E-005	  2.82969E-003	  8.13076E-003	 -5.18356E-005
  9.21600E-001	  1.69377E-003	  8.58268E-004	  6.20898E-003	  5.13833E-003
  1.02400E+000	  3.23006E-003	  1.20298E-003	  6.52798E-003	 -5.47931E-003
  1.12640E+000	  5.64115E-003	 -2.66652E-004	  9.87768E-004	  3.21225E-003
  1.22880E+000	 -2.19991E-004	 -6.24857E-003	  6.05806E-003	  3.98745E-003
  1.33120E+000	 -7.43032E-003	 -1.51571E-003	  8.96576E-003	  4.68808E-003
  1.43360E+000	 -5.92499E-003	 -4.38959E-003	  1.49387E-003	  4.35802E-003
  1.53600E+000	  2.23602E-003	  3.64767E-003	 -2.40381E-003	  2.97608E-003
  1.63840E+000	  1.90674E-003	 -2.61989E-003	 -3.56192E-003	  7.86471E-003
  1.84320E+000	 -6.26334E-004	 -1.25847E-003	  3.02021E-003	  8.78715E-003
  2.04800E+000	  2.31247E-004	  8.50633E-004	  2.94058E-003	 -2.44206E-003
  2.25280E+000	  1.50510E-003	 -3.79946E-003	 -4.80310E-003	  5.12642E-003
  2.45760E+000	  9.31860E-005	 -1.10567E-002	 -8.12336E-004	  4.43457E-003
  2.66240E+000	 -2.27464E-003	 -1.08969E-002	 -4.55435E-004	  1.25202E-003
  2.86720E+000	  1.62797E-003	 -7.78971E-003	  6.95028E-003	  8.48046E-003
  3.07200E+000	 -1.08908E-003	 -1.56310E-003	  4.78067E-003	 -1.80111E-003
  3.27680E+000	  1.03063E-004	 -4.15398E-003	 -5.36344E-004	  1.34034E-003
  3.68640E+000	  5.72557E-004	 -6.67244E-003	 -3.16159E-003	  1.98945E-004
  4.09600E+000	 -1.82188E-004	 -3.15114E-003	 -4.23524E-003	  5.49698E-004
  4.50560E+000	  1.25420E-003	 -2.38827E-003	  2.67272E-003	 -2.36192E-004
  4.91520E+000	  2.76480E-003	 -9.32939E-004	  1.91419E-003	 -2.26088E-003
  5.32480E+000	 -3.70441E-003	  4.27269E-003	 -8.14174E-004	 -2.45333E-003
  5.73440E+000	 -5.05859E-003	  4.51459E-003	 -2.21836E-003	  1.49258E-003
  6.14400E+000	 -5.22360E-004	  3.39104E-003	 -2.84950E-003	  3.82968E-003
  6.55360E+000	  1.99551E-003	  3.95061E-004	 -3.26131E-003	  1.83446E-003
  7.37280E+000	  8.76126E-004	 -5.75084E-004	  6.02415E-004	 -1.01366E-003
  8.19200E+000	  1.10102E-004	 -3.11528E-004	  1.12661E-004	  3.11311E-003
  9.01120E+000	  2.09259E-003	  1.34813E-003	  1.31247E-003	  1.24393E-004
  9.83040E+000	 -1.02568E-003	  3.00053E-004	 -8.75385E-004	  1.75893E-003
  1.06496E+001	  3.03699E-004	  2.52569E-003	 -2.81322E-004	 -3.21759E-003
  1.14688E+001	 -2.18377E-003	  4.46903E-003	 -3.71267E-003	  2.57789E-003
  1.22880E+001	  2.59828E-003	 -1.95589E-003	 -2.44851E-004	 -5.76574E-003
  1.31072E+001	  4.10358E-003	 -5.35029E-003	  3.29357E-004	 -1.76622E-003
  1.47456E+001	 -4.32598E-004	  8.09609E-004	 -3.45085E-003	 -2.99745E-003
  1.63840E+001	  3.33674E-004	 -2.20640E-003	 -1.98437E-006	 -2.92679E-003
  1.80224E+001	  3.29678E-004	 -8.46592E-004	  3.98365E-005	 -6.40599E-003
  1.96608E+001	 -1.99964E-003	 -9.48808E-004	 -3.83125E-004	 -4.00378E-003
  2.12992E+001	  1.11104E-003	 -4.81525E-003	  3.17775E-003	 -2.76094E-003
  2.29376E+001	  1.64055E-003	  8.75289E-003	 -2.10177E-003	  2.02391E-003
  2.45760E+001	 -3.34348E-004	 -2.49586E-003	 -2.77828E-003	 -1.36048E-003
  2.62144E+001	  9.11396E-004	 -9.06792E-004	 -2.35513E-004	 -6.76862E-004
  2.94912E+001	  2.32438E-003	  1.65015E-003	 -2.11496E-003	  2.59306E-003
  3.27680E+001	  5.66218E-004	  1.10718E-003	  1.14473E-003	 -1.14508E-003
  3.60448E+001	 -6.32667E-004	 -1.85007E-003	 -8.99308E-005	  3.37249E-003
  3.93216E+001	  1.17790E-003	 -1.63137E-004	  1.26261E-003	  8.06282E-004
  4.25984E+001	  3.70493E-004	 -3.15492E-003	  1.35768E-003	  4.53952E-004
  4.58752E+001	  7.03171E-004	 -2.53179E-003	 -2.61238E-004	  8.67462E-004
  4.91520E+001	 -8.84127E-004	 -2.01535E-003	  1.91057E-003	  4.21808E-003
  5.24288E+001	 -2.01843E-003	  1.00478E-003	  5.39302E-004	 -8.40981E-005
  5.89824E+001	 -1.64035E-004	  2.23936E-003	 -7.17836E-004	 -2.51174E-003
  6.55360E+001	  1.52213E-003	  3.72731E-005	 -1.54124E-003	 -2.65144E-003
  7.20896E+001	 -1.22689E-004	 -1.49137E-004	 -7.73161E-004	  5.21758E-004
  7.86432E+001	 -1.04956E-003	 -2.13333E-003	  1.12278E-003	  3.06301E-003
  8.51968E+001	 -6.64965E-004	  1.28889E-005	  5.87482E-004	  6.19951E-004
  9.17504E+001	  1.75184E-003	  1.51461E-003	 -2.78728E-004	 -2.04562E-003
  9.83040E+001	  7.41087E-004	 -8.51893E-004	 -2.66766E-004	 -6.39057E-004
  1.04858E+002	  5.00103E-004	 -9.42788E-004	 -7.29163E-004	  7.87885E-004
  1.17965E+002	 -1.05991E-003	  1.59618E-003	  2.82260E-004	 -1.15686E-003
  1.31072E+002	  2.54830E-003	  4.03546E-004	  9.11865E-005	  1.26179E-003
  1.44179E+002	 -2.34936E-003	  2.11259E-003	 -1.07639E-003	  4.88934E-004
  1.57286E+002	 -1.76575E-004	 -1.02087E-003	 -1.09183E-003	  1.51908E-003
  1.70394E+002	  3.41986E-005	 -9.73783E-004	 -7.76400E-004	 -4.35823E-004
  1.83501E+002	 -1.87379E-003	 -1.41233E-003	 -1.31539E-003	  1.77728E-003
  1.96608E+002	  8.39326E-004	 -5.46937E-004	 -9.57995E-004	 -1.13753E-003
  2.09715E+002	  3.56413E-004	 -8.95641E-004	 -1.80682E-003	 -4.22108E-004
  2.35930E+002	  1.05206E-003	  2.15438E-004	  1.64378E-003	 -3.10837E-004
  2.62144E+002	  9.27543E-005	 -6.14848E-004	  1.21431E-003	  7.92341E-005
  2.88358E+002	 -4.33700E-004	  9.77411E-004	 -2.75242E-004	  4.97952E-004
  3.14573E+002	 -3.73727E-004	 -8.78819E-004	 -9.55241E-005	  8.66131E-004
  3.40787E+002	  9.85764E-004	 -1.67676E-004	  9.24484E-005	 -1.67530E-004
  3.67002E+002	 -6.07592E-004	 -1.17573E-004	  7.33762E-004	 -8.96089E-004
  3.93216E+002	 -8.51889E-004	 -8.49916E-004	 -4.50472E-004	  4.06102E-004

"Count Rate"
       0.01311	      50.81177	      56.45752	      54.24500	      54.93164
       0.02621	      49.97253	      70.11414	      54.16870	      55.38940
       0.03932	      51.72729	      52.71912	      58.36487	      50.81177
       0.05243	      55.23682	      57.83081	      62.10327	      47.68372
       0.06554	      56.61011	      54.24500	      54.39758	      57.37305
       0.07864	      52.03247	      50.12512	      56.99158	      56.22864
       0.09175	      56.07605	      57.29675	      52.79541	      52.87170
       0.10486	      56.53381	      64.39209	      69.50378	      50.81177
       0.11796	      56.30493	      56.53381	      52.64282	      51.11694
       0.13107	      54.09241	      55.69458	      58.51746	      54.47388
       0.14418	      49.36218	      52.56653	      59.20410	      54.39758
       0.15729	      51.11694	      60.04333	      57.29675	      59.05151
       0.17039	      55.61829	      58.59375	      53.86353	      51.65100
       0.18350	      56.15234	      65.15503	      67.21497	      56.22864
       0.19661	      59.20410	      57.75452	      63.70544	      54.01611
       0.20972	      53.55835	      55.99976	      52.87170	      60.04333
       0.22282	      56.07605	      61.34033	      59.20410	      53.78723
       0.23593	      61.18774	      65.76538	      64.01062	      61.34033
       0.24904	      57.90710	      59.89075	      62.48474	      55.46570
       0.26214	      61.34033	      50.12512	      63.40027	      54.09241
       0.27525	      52.87170	      59.28040	      62.63733	      54.85535
       0.28836	      70.72449	      55.92346	      57.52563	      56.45752
       0.30147	      56.68640	      63.70544	      53.86353	      55.54199
       0.31457	      61.26404	      60.57739	      63.47656	      53.63464
       0.32768	      68.89343	      62.25586	      63.55286	      46.61560
       0.34079	      51.26953	      50.88806	      58.89893	      56.38123
       0.35389	      61.26404	      54.70276	      60.27222	      50.73547
       0.36700	      52.79541	      59.66187	      54.24500	      57.44934
       0.38011	      53.25317	      55.38940	      58.28857	      61.72180
       0.39322	      64.46838	      56.15234	      60.95886	      55.99976
       0.40632	      53.78723	      61.11145	      53.48206	      60.72998
       0.41943	      69.80896	      63.17139	      48.37036	      58.51746
       0.43254	      52.49023	      55.69458	      53.48206	      58.21228
       0.44564	      59.89075	      64.16321	      48.90442	      58.36487
       0.45875	      60.65369	      60.80627	      55.16052	      52.56653
       0.47186	      49.74365	      53.63464	      58.97522	      60.34851
       0.48497	      56.68640	      49.13330	      62.10327	      52.18506
       0.49807	      56.15234	      52.10876	      64.16321	      56.76270
       0.51118	      58.59375	      53.71094	      63.24768	      55.16052
       0.52429	      59.20410	      61.56921	      63.17139	      59.96704
       0.53740	      57.90710	      54.77905	      50.50659	      51.57471
       0.55050	      58.44116	      58.97522	      55.77087	      71.94519
       0.56361	      59.05151	      52.87170	      66.75720	      50.04883
       0.57672	      57.98340	      59.66187	      58.97522	      59.89075
       0.58982	      59.28040	      55.99976	      60.42480	      52.71912
       0.60293	      51.19324	      58.82263	      60.50110	      53.02429
       0.61604	      60.50110	      55.23682	      62.56104	      59.50928
       0.62915	      54.70276	      46.23413	      54.32129	      61.72180
       0.64225	      54.39758	      55.38940	      65.61279	      42.34314
       0.65536	      57.06787	      56.76270	      52.33765	      66.07056
       0.66847	      59.35669	      64.54468	      54.09241	      58.36487
       0.68157	      52.03247	      52.79541	      60.11963	      48.14148
       0.69468	      48.75183	      57.67822	      59.58557	      59.96704
       0.70779	      51.72729	      62.48474	      51.42212	      71.56372
       0.72090	      53.32947	      65.30762	      60.95886	      50.35400
       0.73400	      54.70276	      56.53381	      55.00793	      55.77087
       0.74711	      67.06238	      52.18506	      69.65637	      59.20410
