ALV-7004/USB-FAST
Date :	"11/11/2025"
Time :	"3:54:11 PM"
Samplename : 	""
SampMemo(0) : 	""
SampMemo(1) : 	""
SampMemo(2) : 	""
SampMemo(3) : 	""
SampMemo(4) : 	""
SampMemo(5) : 	""
SampMemo(6) : 	""
SampMemo(7) : 	""
SampMemo(8) : 	""
SampMemo(9) : 	""
Temperature [K] :	     298.16000
Viscosity [cp]  :	       0.89000
Refractive Index:	       1.33200
Wavelength [nm] :	       0.00000
Angle [°]       :	       0.00000
Duration [s]    :	         1
FloatDur [ms]   :	          944
Stop TP [ms]   :	     59715
Runs            :	         1
Mode            :	"A-CH0+1  A-CH2+3 "
MeanCR0 [kHz]   :	      54.62011
MeanCR1 [kHz]   :	      53.60179
MeanCR2 [kHz]   :	      54.87230
MeanCR3 [kHz]   :	      52.17340

"Correlation"
  3.12500E-006	 -1.00000E+000	 -1.00000E+000	 -1.00000E+000	 -1.00000E+000
  6.25000E-006	 -1.00000E+000	 -1.00000E+000	 -1.00000E+000	 -1.00000E+000
  9.37500E-006	 -1.00000E+000	 -1.00000E+000	 -1.00000E+000	 -1.00000E+000
  1.25000E-005	 -1.00000E+000	 -1.00000E+000	 -1.00000E+000	 -1.00000E+000
  1.56250E-005	 -1.00000E+000	 -1.00000E+000	 -1.00000E+000	 -1.00000E+000
  1.87500E-005	 -1.00000E+000	 -1.00000E+000	 -1.00000E+000	 -1.00000E+000
  2.18750E-005	 -7.72683E-001	  4.16218E-001	  1.02709E+000	 -7.50862E-001
  2.50000E-005	  1.21844E+001	  1.09198E+001	  1.43158E+001	  2.70280E+001
  2.81250E-005	  4.45561E+000	  1.00631E+000	  1.70279E+000	  8.09352E+000
  3.12500E-005	  1.38683E+000	  4.16218E-001	  2.15326E+000	  4.85473E+000
  3.43750E-005	  7.04880E-001	  1.83244E+000	  9.14477E-001	  5.35301E+000
  3.75000E-005	  1.72781E+000	  4.16218E-001	  2.38779E-001	  3.98275E+000
  4.06250E-005	  1.72781E+000	  2.98200E-001	  9.14477E-001	  2.61249E+000
  4.37500E-005	  1.61415E+000	 -5.58547E-002	  4.64012E-001	  3.23534E+000
  4.68750E-005	  7.04880E-001	  1.12433E+000	  8.01861E-001	  3.48448E+000
  5.00000E-005	  9.89026E-001	  1.12433E+000	  8.01860E-001	  2.42564E+000
  5.62500E-005	  1.04586E+000	  6.52254E-001	  9.14477E-001	  2.61249E+000
  6.25000E-005	  7.04879E-001	  1.80182E-001	  2.95087E-001	  1.17995E+000
  6.87500E-005	  7.61709E-001	  8.88291E-001	  1.26163E-001	  1.36681E+000
  7.50000E-005	  9.32197E-001	  1.06532E+000	  7.45552E-001	  8.06247E-001
  8.12500E-005	  1.04586E+000	  4.75227E-001	  6.89244E-001	  8.68532E-001
  8.75000E-005	  7.04879E-001	  3.57209E-001	  1.02709E+000	  1.30452E+000
  9.37500E-005	  1.10268E+000	  3.57209E-001	  5.20320E-001	  4.32541E-001
  1.00000E-004	  7.90123E-001	  5.63740E-001	  1.02709E+000	  8.68531E-001
  1.12500E-004	  3.35489E-001	  2.39191E-001	  4.07703E-001	  7.43963E-001
  1.25000E-004	  5.34391E-001	  5.93245E-001	  4.64011E-001	  1.11767E+000
  1.37500E-004	  7.97569E-002	  5.34236E-001	  5.48474E-001	  5.25967E-001
  1.50000E-004	  4.20733E-001	  2.39191E-001	  6.61090E-001	  1.21110E+000
  1.62500E-004	  5.05977E-001	  5.04731E-001	  6.04782E-001	  5.57109E-001
  1.75000E-004	  4.77562E-001	  2.39191E-001	  7.45552E-001	  1.05538E+000
  1.87500E-004	  5.05977E-001	  6.52254E-001	  7.73706E-001	  5.88252E-001
  2.00000E-004	  6.76464E-001	  5.34236E-001	  6.47013E-001	  6.66107E-001
  2.25000E-004	  2.78659E-001	  4.30970E-001	  5.76627E-001	  3.54685E-001
  2.50000E-004	  4.06525E-001	  4.01465E-001	  5.76627E-001	  7.59533E-001
  2.75000E-004	  7.04879E-001	  6.81758E-001	  5.20319E-001	  7.59533E-001
  3.00000E-004	  5.34391E-001	  5.04731E-001	  4.92165E-001	  5.10396E-001
  3.25000E-004	  5.05976E-001	  5.93245E-001	  5.62550E-001	  3.70256E-001
  3.50000E-004	  8.46952E-001	  5.93245E-001	  6.04781E-001	  3.39114E-001
  3.75000E-004	  6.19635E-001	  5.19483E-001	  7.59629E-001	  7.90676E-001
  4.00000E-004	  5.77012E-001	  4.75226E-001	  4.07702E-001	  5.80465E-001
  4.50000E-004	  5.34390E-001	  3.71960E-001	  5.34396E-001	  6.66106E-001
  5.00000E-004	  5.13079E-001	  5.93244E-001	  4.42895E-001	  7.12819E-001
  5.50000E-004	  4.49146E-001	  4.82602E-001	  5.83665E-001	  7.36211E-001
  6.00000E-004	  4.06525E-001	  4.67850E-001	  6.04781E-001	  5.41569E-001
  6.50000E-004	  4.63354E-001	  6.37501E-001	  6.18858E-001	  6.81711E-001
  7.00000E-004	  5.98323E-001	  6.37501E-001	  4.71049E-001	  5.80497E-001
  7.50000E-004	  5.27287E-001	  4.53098E-001	  5.20319E-001	  5.72712E-001
  8.00000E-004	  4.81112E-001	  4.64161E-001	  5.55510E-001	  6.93388E-001
  9.00000E-004	  4.74008E-001	  5.30546E-001	  4.07701E-001	  4.87068E-001
  1.00000E-003	  4.27834E-001	  5.34234E-001	  6.50530E-001	  6.27210E-001
  1.10000E-003	  4.59801E-001	  5.56362E-001	  3.37316E-001	  4.24782E-001
  1.20000E-003	  4.91767E-001	  5.23169E-001	  4.81606E-001	  5.84389E-001
  1.30000E-003	  5.20182E-001	  3.90399E-001	  5.16798E-001	  5.99960E-001
  1.40000E-003	  4.95319E-001	  4.38344E-001	  6.85722E-001	  5.45460E-001
  1.50000E-003	  4.70456E-001	  4.82601E-001	  4.64009E-001	  6.03853E-001
  1.60000E-003	  4.22504E-001	  5.58203E-001	  4.88670E-001	  5.70761E-001
  1.80000E-003	  5.45042E-001	  5.54515E-001	  5.16825E-001	  5.29886E-001
  2.00000E-003	  4.84661E-001	  4.19901E-001	  4.99228E-001	  5.62975E-001
  2.20000E-003	  5.37938E-001	  4.45718E-001	  5.39700E-001	  6.17475E-001
  2.40000E-003	  5.21955E-001	  5.39763E-001	  4.25323E-001	  5.39618E-001
  2.60000E-003	  5.43266E-001	  4.03305E-001	  4.93949E-001	  6.17475E-001
  2.80000E-003	  5.57473E-001	  5.39763E-001	  5.32662E-001	  5.04583E-001
  3.00000E-003	  5.55697E-001	  4.40186E-001	  5.22104E-001	  5.78547E-001
  3.20000E-003	  4.71337E-001	  4.39316E-001	  5.38815E-001	  5.68809E-001
  3.60000E-003	  4.87320E-001	  4.72509E-001	  4.78107E-001	  5.02631E-001
  4.00000E-003	  5.18398E-001	  4.51302E-001	  5.12450E-001	  4.64676E-001
  4.40000E-003	  4.91760E-001	  4.64211E-001	  5.09810E-001	  4.87060E-001
  4.80000E-003	  4.29603E-001	  5.02015E-001	  5.08051E-001	  5.50318E-001
  5.20000E-003	  4.94423E-001	  5.28754E-001	  5.05411E-001	  5.46426E-001
  5.60000E-003	  5.77003E-001	  5.62870E-001	  5.04531E-001	  5.93140E-001
  6.00000E-003	  4.37594E-001	  4.43004E-001	  5.08930E-001	  5.55184E-001
  6.40000E-003	  4.99741E-001	  4.84113E-001	  5.03230E-001	  5.44469E-001
  7.20000E-003	  4.76654E-001	  4.65210E-001	  5.33145E-001	  5.54687E-001
  8.00000E-003	  4.95301E-001	  5.20997E-001	  4.73315E-001	  4.76345E-001
  8.80000E-003	  4.97521E-001	  4.66564E-001	  5.00151E-001	  4.99215E-001
  9.60000E-003	  5.41918E-001	  4.60571E-001	  4.79034E-001	  5.59067E-001
  1.04000E-002	  5.20164E-001	  4.85467E-001	  5.17308E-001	  5.47388E-001
  1.12000E-002	  4.97521E-001	  4.91921E-001	  4.47799E-001	  5.75125E-001
  1.20000E-002	  4.86866E-001	  4.27376E-001	  5.11589E-001	  4.87050E-001
  1.28000E-002	  4.95059E-001	  4.47987E-001	  4.76652E-001	  5.25714E-001
  1.44000E-002	  4.89982E-001	  4.97782E-001	  4.84131E-001	  5.79239E-001
  1.60000E-002	  4.75997E-001	  4.54932E-001	  4.97080E-001	  5.09170E-001
  1.76000E-002	  4.70003E-001	  4.41964E-001	  4.85862E-001	  4.94572E-001
  1.92000E-002	  5.07297E-001	  4.75421E-001	  4.98620E-001	  5.12333E-001
  2.08000E-002	  4.74250E-001	  4.55364E-001	  5.23696E-001	  5.12089E-001
  2.24000E-002	  5.14652E-001	  4.74700E-001	  5.00819E-001	  4.99225E-001
  2.40000E-002	  4.76498E-001	  4.76083E-001	  5.01479E-001	  5.35477E-001
  2.56000E-002	  4.97354E-001	  4.85641E-001	  4.95337E-001	  5.25825E-001
  2.88000E-002	  4.83952E-001	  4.75267E-001	  4.93028E-001	  5.16458E-001
  3.20000E-002	  4.88614E-001	  4.74921E-001	  4.86099E-001	  5.32669E-001
  3.52000E-002	  4.57868E-001	  4.67399E-001	  4.76750E-001	  5.35223E-001
  3.84000E-002	  4.91500E-001	  4.77658E-001	  4.81589E-001	  5.32547E-001
  4.16000E-002	  4.73132E-001	  4.89531E-001	  4.93688E-001	  5.12992E-001
  4.48000E-002	  4.68581E-001	  4.67456E-001	  4.66082E-001	  5.13357E-001
  4.80000E-002	  4.61838E-001	  4.64142E-001	  4.73369E-001	  4.86350E-001
  5.12000E-002	  4.70779E-001	  4.63690E-001	  4.93146E-001	  5.00715E-001
  5.76000E-002	  4.89873E-001	  4.65880E-001	  4.98810E-001	  5.10965E-001
  6.40000E-002	  4.59901E-001	  4.79714E-001	  4.75933E-001	  4.82831E-001
  7.04000E-002	  4.72278E-001	  4.48559E-001	  4.80772E-001	  5.05277E-001
  7.68000E-002	  4.75719E-001	  4.56513E-001	  4.78077E-001	  4.97887E-001
  8.32000E-002	  4.51242E-001	  4.44409E-001	  4.77198E-001	  4.92047E-001
  8.96000E-002	  4.66839E-001	  4.54064E-001	  4.76124E-001	  4.79211E-001
  9.60000E-002	  4.70058E-001	  4.61902E-001	  4.87316E-001	  4.80793E-001
  1.02400E-001	  4.59134E-001	  4.47535E-001	  4.72394E-001	  4.99519E-001
  1.15200E-001	  4.55887E-001	  4.55346E-001	  4.60240E-001	  4.81512E-001
  1.28000E-001	  4.38016E-001	  4.35688E-001	  4.67114E-001	  4.81846E-001
  1.40800E-001	  4.49949E-001	  4.46930E-001	  4.74236E-001	  4.68280E-001
  1.53600E-001	  4.47202E-001	  4.32375E-001	  4.58316E-001	  4.64265E-001
  1.66400E-001	  4.34103E-001	  4.15197E-001	  4.52955E-001	  4.69831E-001
  1.79200E-001	  4.38460E-001	  4.18712E-001	  4.40554E-001	  4.46987E-001
  1.92000E-001	  4.31717E-001	  4.25688E-001	  4.35907E-001	  4.50028E-001
  2.04800E-001	  4.20306E-001	  4.15919E-001	  4.34168E-001	  4.43234E-001
  2.30400E-001	  4.10009E-001	  4.02671E-001	  4.25053E-001	  4.34238E-001
  2.56000E-001	  3.98505E-001	  3.92317E-001	  4.17313E-001	  4.27850E-001
  2.81600E-001	  3.95020E-001	  3.86983E-001	  4.03756E-001	  4.08328E-001
  3.07200E-001	  3.72468E-001	  3.67524E-001	  3.89636E-001	  4.01448E-001
  3.32800E-001	  3.57090E-001	  3.57396E-001	  3.85237E-001	  3.86473E-001
  3.58400E-001	  3.48968E-001	  3.44497E-001	  3.69177E-001	  3.87584E-001
  3.84000E-001	  3.36878E-001	  3.42292E-001	  3.57228E-001	  3.62896E-001
  4.09600E-001	  3.23845E-001	  3.24765E-001	  3.45468E-001	  3.50507E-001
  4.60800E-001	  3.03702E-001	  3.05046E-001	  3.20680E-001	  3.24244E-001
  5.12000E-001	  2.76666E-001	  2.81706E-001	  2.99612E-001	  3.05102E-001
  5.63200E-001	  2.50574E-001	  2.61490E-001	  2.81146E-001	  2.84973E-001
  6.14400E-001	  2.29500E-001	  2.41958E-001	  2.60447E-001	  2.66886E-001
  6.65600E-001	  2.09769E-001	  2.19863E-001	  2.39864E-001	  2.43417E-001
  7.16800E-001	  1.88808E-001	  2.04640E-001	  2.29910E-001	  2.23947E-001
  7.68000E-001	  1.68933E-001	  1.89096E-001	  2.09070E-001	  2.08870E-001
  8.19200E-001	  1.51273E-001	  1.71058E-001	  1.92307E-001	  1.88198E-001
  9.21600E-001	  1.17342E-001	  1.32471E-001	  1.62035E-001	  1.56584E-001
  1.02400E+000	  9.30417E-002	  1.14834E-001	  1.38155E-001	  1.27983E-001
  1.12640E+000	  6.27993E-002	  9.00027E-002	  1.14632E-001	  1.02634E-001
  1.22880E+000	  4.39756E-002	  7.40520E-002	  9.91429E-002	  8.06551E-002
  1.33120E+000	  3.04139E-002	  5.75185E-002	  8.59366E-002	  5.98947E-002
  1.43360E+000	  1.86695E-002	  4.56388E-002	  7.39670E-002	  5.12413E-002
  1.53600E+000	  1.26742E-002	  3.49337E-002	  5.63880E-002	  3.89266E-002
  1.63840E+000	  1.63638E-003	  2.89905E-002	  5.00756E-002	  2.74333E-002
  1.84320E+000	 -1.08456E-002	  1.72509E-002	  3.08844E-002	  4.88625E-003
  2.04800E+000	 -1.82456E-002	  1.17815E-002	  1.79995E-002	 -8.95684E-003
  2.25280E+000	 -1.69546E-002	  2.73047E-003	  1.20538E-002	 -1.72477E-002
  2.45760E+000	 -1.97488E-002	  3.26584E-003	  9.80718E-003	 -1.90776E-002
  2.66240E+000	 -2.16835E-002	  3.48865E-004	  1.03626E-002	 -2.10852E-002
  2.86720E+000	 -1.68483E-002	 -1.63013E-003	  2.82946E-003	 -1.55208E-002
  3.07200E+000	 -1.11587E-002	 -5.72782E-003	 -2.67779E-003	 -9.64435E-003
  3.27680E+000	 -4.83734E-003	 -5.68979E-003	 -1.16937E-002	 -6.32599E-003
  3.68640E+000	  7.13222E-003	 -7.00419E-003	 -2.52529E-002	  6.37513E-003
  4.09600E+000	  9.87357E-003	 -7.41905E-003	 -2.55526E-002	  1.11739E-002
  4.50560E+000	  1.65303E-002	 -1.72624E-002	 -1.18790E-002	  8.69690E-003
  4.91520E+000	  1.83974E-002	 -3.20105E-002	  1.28881E-002	  3.31337E-003
  5.32480E+000	  1.54473E-002	 -3.96738E-002	  3.49780E-002	 -7.22590E-003
  5.73440E+000	  2.44544E-003	 -2.83932E-002	  4.28836E-002	 -7.09383E-003
  6.14400E+000	 -1.16978E-002	 -1.72270E-002	  4.43937E-002	 -1.27175E-002
  6.55360E+000	 -1.84437E-002	 -3.34258E-003	  2.91338E-002	 -1.32259E-002
  7.37280E+000	 -2.74219E-002	  1.44642E-002	  1.78571E-002	 -4.40319E-003
  8.19200E+000	 -2.05871E-002	 -6.68306E-003	 -1.38136E-003	 -1.01003E-002
  9.01120E+000	 -7.86456E-003	  1.34719E-003	 -1.31901E-002	 -5.04178E-003
  9.83040E+000	 -1.02301E-002	 -1.89111E-003	 -1.65820E-002	  1.30032E-002
  1.06496E+001	 -9.36870E-003	  8.86557E-003	  3.83526E-003	  1.49396E-002
  1.14688E+001	  3.39350E-003	  5.23076E-003	  1.25305E-002	  8.60508E-003
  1.22880E+001	  9.40680E-003	  4.56025E-003	  2.26787E-002	  7.23753E-003
  1.31072E+001	 -2.78745E-004	  1.20835E-003	  2.10396E-002	 -8.20783E-004
  1.47456E+001	 -1.15982E-002	  5.65540E-003	  4.69396E-003	 -5.67908E-003
  1.63840E+001	  3.00293E-003	 -1.19886E-002	  1.30715E-003	  2.02895E-002
  1.80224E+001	  1.36626E-002	  1.83784E-004	 -1.03019E-003	  4.05177E-003
  1.96608E+001	 -1.31634E-002	  7.05512E-004	 -9.27357E-003	 -5.97214E-003
  2.12992E+001	  9.93860E-003	  2.48153E-003	  2.56108E-003	  3.23738E-002
  2.29376E+001	  1.14436E-002	  1.25764E-002	 -7.58525E-003	  1.05689E-002
  2.45760E+001	  2.26301E-002	 -7.02586E-004	  9.00839E-003	 -1.35621E-002
  2.62144E+001	  9.23897E-004	 -2.60704E-003	 -1.14148E-002	  1.40575E-002
  2.94912E+001	  6.31075E-003	  6.90751E-003	  8.27266E-003	  1.42758E-002
  3.27680E+001	  8.28865E-003	 -1.20544E-002	  9.40975E-003	 -4.56983E-003
  3.60448E+001	  9.04071E-003	  4.04611E-003	 -2.91798E-003	  1.29358E-002
  3.93216E+001	  1.35345E-003	 -4.98657E-003	  3.27850E-003	  2.71163E-003
  4.25984E+001	 -1.42563E-002	  4.04651E-003	  6.73410E-003	  6.26909E-003
  4.58752E+001	 -1.40327E-003	  2.29285E-002	  2.61623E-003	 -7.67641E-003
  4.91520E+001	 -8.75341E-003	 -1.13721E-002	 -1.32221E-002	 -2.57643E-003
  5.24288E+001	 -6.48183E-003	  6.95672E-003	  5.59674E-003	  2.71693E-003
  5.89824E+001	  1.65756E-002	 -1.60853E-002	 -4.65566E-003	 -8.24989E-003
  6.55360E+001	 -4.87425E-004	 -1.42332E-002	 -1.63383E-002	 -4.52302E-003
  7.20896E+001	  3.86384E-003	  1.71948E-002	 -6.92457E-003	 -5.53078E-003
  7.86432E+001	  2.94829E-004	 -1.09180E-003	 -2.49792E-003	  4.83579E-003
  8.51968E+001	 -8.74198E-004	 -2.96213E-003	 -1.08201E-002	 -1.67734E-004
  9.17504E+001	  2.83918E-003	 -4.64730E-003	 -4.17497E-003	 -2.79981E-003
  9.83040E+001	  1.80547E-002	 -7.88959E-003	 -1.79701E-002	 -7.81620E-003
  1.04858E+002	  8.81250E-003	 -1.10737E-002	 -1.22276E-002	 -4.41644E-003
  1.17965E+002	 -3.98102E-003	 -8.38721E-003	 -1.32991E-002	  5.85227E-003
  1.31072E+002	  7.75805E-003	 -1.09574E-002	 -3.47689E-003	 -3.33415E-003
  1.44179E+002	 -4.09915E-003	  1.59623E-003	 -1.66752E-003	  4.04642E-003
  1.57286E+002	 -4.91189E-003	  5.62830E-003	 -7.23938E-003	  9.87000E-004
  1.70394E+002	  2.45144E-003	  6.02671E-003	  3.44951E-003	  6.75993E-003
  1.83501E+002	 -5.15198E-003	  2.81220E-004	  4.02144E-003	 -6.46161E-003
  1.96608E+002	  7.32214E-003	  8.95098E-004	  9.36721E-004	  1.00438E-002
  2.09715E+002	 -1.63125E-003	  2.24706E-004	 -8.45706E-003	 -4.68888E-003
  2.35930E+002	 -1.02512E-003	  6.32542E-003	 -2.19632E-003	 -3.93326E-003
  2.62144E+002	  3.61096E-003	 -1.18668E-003	 -1.02270E-002	 -1.29835E-002
  2.88358E+002	  3.13582E-003	 -4.41126E-003	  7.43742E-003	 -1.10409E-002
  3.14573E+002	 -2.52484E-003	  4.84867E-003	  3.41815E-003	  4.95654E-003
  3.40787E+002	 -3.81452E-004	 -1.09202E-002	 -1.12867E-003	  2.79963E-003
  3.67002E+002	  7.16339E-003	 -9.18480E-003	  1.01943E-002	 -4.46936E-003
  3.93216E+002	  2.33076E-003	  7.50023E-003	 -1.07450E-002	 -3.75622E-003

"Count Rate"
       0.01311	      56.91528	      47.37854	      64.62097	      61.41663
       0.02621	      56.68640	      39.74915	      45.85266	      67.67273
       0.03932	      60.27222	      61.64551	      46.46301	      49.89624
       0.05243	      34.40857	      54.62646	      43.18237	      87.73804
       0.06554	      39.29138	      33.95081	      40.20691	      45.70007
       0.07864	      46.15784	      64.69727	      60.19592	      66.29944
       0.09175	      38.68103	      53.02429	      71.18225	      52.87170
       0.10486	      46.92078	      53.40576	      53.17688	      44.55566
       0.11796	      61.34033	      35.62927	      58.89893	      50.73547
       0.13107	      65.91797	      47.14966	      79.87976	      46.69189
       0.14418	      42.95349	      37.91809	      81.10046	      34.86633
       0.15729	      83.31299	      42.19055	      53.25317	      63.70544
       0.17039	      61.26404	      43.48755	      40.51208	      63.01880
       0.18350	      51.72729	      43.94531	      44.63196	      46.23413
       0.19661	      56.76270	      51.57471	      50.73547	      61.11145
       0.20972	      62.40845	      64.84985	      51.11694	      58.28857
       0.22282	      62.25586	      40.96985	      48.59924	      69.80896
       0.23593	      62.25586	      65.91797	      41.80908	      41.96167
       0.24904	      58.59375	      55.92346	      42.34314	      67.36755
       0.26214	      83.46558	      59.89075	      55.23682	      57.60193
       0.27525	      55.54199	      83.92334	      50.88806	      45.31860
       0.28836	      58.59375	      66.07056	      50.35400	      60.88257
       0.30147	      52.64282	      46.84448	      46.92078	      24.26147
       0.31457	      47.91260	      49.97253	      85.60181	      50.20142
       0.32768	      67.29126	      49.13330	      49.59106	      58.44116
       0.34079	      55.16052	      31.66199	      54.01611	      66.52832
       0.35389	      65.53650	      58.51746	      41.42761	      58.74634
       0.36700	      49.81995	      53.78723	      65.84167	      76.44653
       0.38011	      37.68921	      46.23413	      69.50378	      52.41394
       0.39322	      60.04333	      42.19055	      70.11414	      35.55298
       0.40632	      68.51196	      45.92896	      55.54199	      56.99158
       0.41943	      54.16870	      53.63464	      45.16602	      31.50940
       0.43254	      60.50110	      61.95068	      54.77905	      46.76819
       0.44564	      37.38403	      50.35400	      54.32129	      37.00256
       0.45875	      46.08154	      52.79541	      50.65918	      44.40308
       0.47186	      48.75183	      51.95618	      54.62646	      42.03796
       0.48497	      59.96704	      54.93164	      52.71912	      40.28320
       0.49807	      47.76001	      54.09241	      35.47668	      44.93713
       0.51118	      49.36218	      58.51746	      35.93445	      52.49023
       0.52429	      72.25037	      60.50110	      62.78992	      48.52295
       0.53740	      65.91797	      59.20410	      40.51208	      47.68372
       0.55050	      41.50391	      41.96167	      48.06519	      35.01892
       0.56361	      57.67822	      49.36218	      59.50928	      58.51746
       0.57672	      41.27502	      53.93982	      51.49841	      49.81995
       0.58982	      66.75720	      46.46301	      41.42761	      47.60742
       0.60293	      41.35132	      52.41394	      64.92615	      56.22864
       0.61604	      67.97791	      65.99426	      45.08972	      34.48486
       0.62915	      38.98621	      25.93994	      70.49561	      43.41125
       0.64225	      59.43298	      40.96985	      36.62109	      49.28589
       0.65536	      40.20691	      46.53931	      39.21509	      55.31311
       0.66847	      50.65918	      84.53369	      65.00244	      57.06787
       0.68157	      43.48755	      59.73816	      48.90442	      60.95886
       0.69468	      60.27222	      46.31042	      38.75732	      38.68103
       0.70779	      47.45483	      67.52014	      61.18774	      75.37842
       0.72090	      74.15771	      58.44116	      68.96973	      47.53113
       0.73400	      32.34863	      69.73267	      69.27490	      56.22864
       0.74711	      35.55298	      52.18506	      80.49011	      42.49573
