ALV-7004/USB-FAST
Date :	"11/11/2025"
Time :	"3:53:16 PM"
Samplename : 	""
SampMemo(0) : 	""
SampMemo(1) : 	""
SampMemo(2) : 	""
SampMemo(3) : 	""
SampMemo(4) : 	""
SampMemo(5) : 	""
SampMemo(6) : 	""
SampMemo(7) : 	""
SampMemo(8) : 	""
SampMemo(9) : 	""
Temperature [K] :	     298.16000
Viscosity [cp]  :	       0.89000
Refractive Index:	       1.33200
Wavelength [nm] :	       0.00000
Angle [°]       :	       0.00000
Duration [s]    :	         1
FloatDur [ms]   :	          944
Stop TP [ms]   :	     58124
Runs            :	         1
Mode            :	"A-CH0+1  A-CH2+3 "
MeanCR0 [kHz]   :	      56.65249
MeanCR1 [kHz]   :	      58.53017
MeanCR2 [kHz]   :	      57.38788
MeanCR3 [kHz]   :	      55.66597

"Correlation"
  3.12500E-006	 -1.00000E+000	 -1.00000E+000	 -1.00000E+000	 -1.00000E+000
  6.25000E-006	 -1.00000E+000	 -1.00000E+000	 -1.00000E+000	 -1.00000E+000
  9.37500E-006	 -1.00000E+000	 -1.00000E+000	 -1.00000E+000	 -1.00000E+000
  1.25000E-005	 -1.00000E+000	 -1.00000E+000	 -1.00000E+000	 -1.00000E+000
  1.56250E-005	 -1.00000E+000	 -1.00000E+000	 -1.00000E+000	 -1.00000E+000
  1.87500E-005	 -1.00000E+000	 -1.00000E+000	 -1.00000E+000	 -1.00000E+000
  2.18750E-005	 -7.88700E-001	  1.87761E-001	  2.95967E-002	 -1.00000E+000
  2.50000E-005	  1.28401E+001	  1.31542E+001	  1.09433E+001	  2.23081E+001
  2.81250E-005	  2.48645E+000	  2.26634E+000	  1.98583E+000	  7.75423E+000
  3.12500E-005	  1.85255E+000	  1.47450E+000	  1.77991E+000	  5.45624E+000
  3.43750E-005	  1.32430E+000	  1.07858E+000	  1.05919E+000	  4.47139E+000
  3.75000E-005	  5.84750E-001	  1.57348E+000	  1.98583E+000	  4.47139E+000
  4.06250E-005	  6.90400E-001	  3.85722E-001	  1.67695E+000	  3.15826E+000
  4.37500E-005	  3.73450E-001	  4.84702E-001	  8.53274E-001	  3.15826E+000
  4.68750E-005	  9.01700E-001	  6.82662E-001	  1.57399E+000	  2.06398E+000
  5.00000E-005	  1.27147E+000	  8.31132E-001	  9.56234E-001	  1.89984E+000
  5.62500E-005	  6.37575E-001	  6.33172E-001	  8.53274E-001	  1.40741E+000
  6.25000E-005	  1.00735E+000	  4.84702E-001	  5.44395E-001	  1.89984E+000
  6.87500E-005	  5.84750E-001	  6.82662E-001	  4.41435E-001	  1.73570E+000
  7.50000E-005	  5.84750E-001	  4.84702E-001	  1.16215E+000	  1.13384E+000
  8.12500E-005	  5.84750E-001	  5.34192E-001	  4.41435E-001	  1.07913E+000
  8.75000E-005	  1.09325E-001	  8.80622E-001	  7.50314E-001	  1.46213E+000
  9.37500E-005	  6.90400E-001	  1.12807E+000	  8.10765E-002	  8.60274E-001
  1.00000E-004	  5.05512E-001	  5.58936E-001	  2.61256E-001	  6.14061E-001
  1.12500E-004	  5.58337E-001	  6.57917E-001	  8.53274E-001	  6.68775E-001
  1.25000E-004	  5.84750E-001	  7.56897E-001	  6.47354E-001	  9.14988E-001
  1.37500E-004	  2.94212E-001	  1.63016E-001	  7.50314E-001	  9.97058E-001
  1.50000E-004	  3.20625E-001	  3.85721E-001	  6.98834E-001	  5.86704E-001
  1.62500E-004	  5.05512E-001	  6.57917E-001	  2.86996E-001	  1.76349E-001
  1.75000E-004	  1.88562E-001	  6.33172E-001	  5.70135E-001	  2.03706E-001
  1.87500E-004	  1.08659E+000	  6.57917E-001	  9.04754E-001	  4.77276E-001
  2.00000E-004	  7.30018E-001	  5.09446E-001	  6.60224E-001	  6.41418E-001
  2.25000E-004	  6.24368E-001	  4.84701E-001	  6.85964E-001	  4.49919E-001
  2.50000E-004	  3.73449E-001	  4.59956E-001	  3.77085E-001	  5.04633E-001
  2.75000E-004	  4.39481E-001	  6.33171E-001	  6.21614E-001	  8.46595E-001
  3.00000E-004	  4.39481E-001	  5.83681E-001	  3.25605E-001	  1.76349E-001
  3.25000E-004	  4.65893E-001	  3.98094E-001	  5.44394E-001	  4.36240E-001
  3.50000E-004	  4.39481E-001	  3.85721E-001	  7.88924E-001	  7.37167E-001
  3.75000E-004	  4.13068E-001	  4.84701E-001	  3.77085E-001	  6.68774E-001
  4.00000E-004	  3.99861E-001	  3.98093E-001	  4.22129E-001	  5.73024E-001
  4.50000E-004	  4.92305E-001	  4.04279E-001	  4.99349E-001	  6.89291E-001
  5.00000E-004	  7.63033E-001	  5.34190E-001	  4.92914E-001	  6.07221E-001
  5.50000E-004	  2.28180E-001	  4.97073E-001	  3.96389E-001	  4.84114E-001
  6.00000E-004	  3.73449E-001	  5.21818E-001	  4.02824E-001	  4.90954E-001
  6.50000E-004	  5.05511E-001	  3.60975E-001	  5.83004E-001	  5.93542E-001
  7.00000E-004	  4.52686E-001	  5.96053E-001	  4.47869E-001	  5.11471E-001
  7.50000E-004	  3.53639E-001	  4.22838E-001	  5.95874E-001	  5.59346E-001
  8.00000E-004	  4.65891E-001	  3.91906E-001	  5.73350E-001	  6.07219E-001
  9.00000E-004	  5.78144E-001	  3.67161E-001	  4.47868E-001	  5.69604E-001
  1.00000E-003	  3.43734E-001	  5.24910E-001	  4.76825E-001	  5.25149E-001
  1.10000E-003	  5.84747E-001	  5.49655E-001	  3.83518E-001	  4.19140E-001
  1.20000E-003	  4.92304E-001	  4.84699E-001	  4.54303E-001	  4.02042E-001
  1.30000E-003	  5.02208E-001	  3.60974E-001	  3.38473E-001	  5.38827E-001
  1.40000E-003	  4.59288E-001	  4.81606E-001	  4.89695E-001	  4.39658E-001
  1.50000E-003	  5.38526E-001	  3.42416E-001	  4.86478E-001	  4.87533E-001
  1.60000E-003	  4.65889E-001	  4.50672E-001	  4.71997E-001	  5.31985E-001
  1.80000E-003	  4.34524E-001	  4.16648E-001	  3.93168E-001	  5.08048E-001
  2.00000E-003	  3.81699E-001	  5.51199E-001	  4.23734E-001	  4.39656E-001
  2.20000E-003	  5.36872E-001	  4.36753E-001	  4.02821E-001	  4.73852E-001
  2.40000E-003	  3.86652E-001	  4.05822E-001	  3.81907E-001	  5.64471E-001
  2.60000E-003	  5.10460E-001	  4.95523E-001	  3.86733E-001	  4.85820E-001
  2.80000E-003	  4.57635E-001	  4.78510E-001	  4.71997E-001	  4.55044E-001
  3.00000E-003	  4.27921E-001	  4.89336E-001	  4.23734E-001	  4.31107E-001
  3.20000E-003	  4.05657E-001	  4.61493E-001	  4.41426E-001	  5.29473E-001
  3.60000E-003	  4.71689E-001	  4.51441E-001	  4.28556E-001	  4.93566E-001
  4.00000E-003	  4.48578E-001	  3.82619E-001	  4.12468E-001	  3.84990E-001
  4.40000E-003	  4.46102E-001	  4.08911E-001	  4.73600E-001	  4.72193E-001
  4.80000E-003	  4.07308E-001	  4.84692E-001	  4.41426E-001	  4.57659E-001
  5.20000E-003	  3.62736E-001	  4.55307E-001	  3.77076E-001	  4.26027E-001
  5.60000E-003	  4.68387E-001	  3.82619E-001	  4.03620E-001	  4.28592E-001
  6.00000E-003	  4.33721E-001	  4.60720E-001	  4.88079E-001	  3.90974E-001
  6.40000E-003	  4.59380E-001	  3.96142E-001	  4.33372E-001	  4.04270E-001
  7.20000E-003	  4.30516E-001	  4.41765E-001	  4.20100E-001	  4.17522E-001
  8.00000E-003	  4.06965E-001	  4.43312E-001	  4.24122E-001	  3.73491E-001
  8.80000E-003	  3.84265E-001	  3.83770E-001	  4.13263E-001	  4.29091E-001
  9.60000E-003	  4.42458E-001	  3.97689E-001	  3.89132E-001	  3.83725E-001
  1.04000E-002	  3.84678E-001	  4.01942E-001	  3.82698E-001	  3.97831E-001
  1.12000E-002	  3.78487E-001	  4.25913E-001	  3.82295E-001	  4.11083E-001
  1.20000E-002	  3.46707E-001	  3.94595E-001	  3.97578E-001	  3.62778E-001
  1.28000E-002	  3.52337E-001	  4.36359E-001	  3.56135E-001	  3.83811E-001
  1.44000E-002	  3.62242E-001	  3.91122E-001	  3.83106E-001	  3.64787E-001
  1.60000E-002	  3.57909E-001	  3.95762E-001	  3.37861E-001	  4.00697E-001
  1.76000E-002	  3.33351E-001	  3.74690E-001	  3.50329E-001	  3.49184E-001
  1.92000E-002	  3.35158E-001	  4.00015E-001	  3.77501E-001	  3.70772E-001
  2.08000E-002	  3.32038E-001	  3.50912E-001	  3.60609E-001	  3.65642E-001
  2.24000E-002	  3.31625E-001	  3.39313E-001	  3.47940E-001	  3.24338E-001
  2.40000E-002	  3.04592E-001	  3.43952E-001	  3.33260E-001	  3.15789E-001
  2.56000E-002	  3.19331E-001	  3.21636E-001	  3.05776E-001	  3.24850E-001
  2.88000E-002	  3.01996E-001	  3.22989E-001	  3.12436E-001	  3.29742E-001
  3.20000E-002	  3.04679E-001	  3.12260E-001	  2.97454E-001	  3.24611E-001
  3.52000E-002	  3.03234E-001	  3.11317E-001	  3.07710E-001	  2.80065E-001
  3.84000E-002	  2.83422E-001	  2.91091E-001	  2.78149E-001	  3.18519E-001
  4.16000E-002	  2.67222E-001	  2.80652E-001	  2.58342E-001	  2.82926E-001
  4.48000E-002	  2.86883E-001	  2.71566E-001	  2.54119E-001	  2.61122E-001
  4.80000E-002	  2.75612E-001	  2.75239E-001	  2.47382E-001	  2.67166E-001
  5.12000E-002	  2.55509E-001	  2.59058E-001	  2.50048E-001	  2.50129E-001
  5.76000E-002	  2.42249E-001	  2.28722E-001	  2.31396E-001	  2.36446E-001
  6.40000E-002	  2.06110E-001	  2.21906E-001	  2.11762E-001	  2.09593E-001
  7.04000E-002	  1.95194E-001	  1.99428E-001	  1.88334E-001	  1.94827E-001
  7.68000E-002	  1.79273E-001	  2.02522E-001	  1.70487E-001	  1.93522E-001
  8.32000E-002	  1.77106E-001	  1.79077E-001	  1.69129E-001	  1.69183E-001
  8.96000E-002	  1.58635E-001	  1.73883E-001	  1.62342E-001	  1.65634E-001
  9.60000E-002	  1.52143E-001	  1.56142E-001	  1.44595E-001	  1.44098E-001
  1.02400E-001	  1.41815E-001	  1.47315E-001	  1.30655E-001	  1.39810E-001
  1.15200E-001	  1.14825E-001	  1.22010E-001	  1.13467E-001	  1.19168E-001
  1.28000E-001	  9.42992E-002	  1.17045E-001	  1.17715E-001	  1.12674E-001
  1.40800E-001	  1.01394E-001	  1.06915E-001	  8.55259E-002	  8.86799E-002
  1.53600E-001	  8.06319E-002	  9.82992E-002	  7.52458E-002	  9.36984E-002
  1.66400E-001	  7.33369E-002	  8.08141E-002	  7.67790E-002	  8.45375E-002
  1.79200E-001	  5.74261E-002	  7.40831E-002	  6.04106E-002	  6.82339E-002
  1.92000E-001	  4.97130E-002	  4.96864E-002	  5.29146E-002	  6.73585E-002
  2.04800E-001	  5.07403E-002	  4.98926E-002	  4.56560E-002	  6.30630E-002
  2.30400E-001	  4.13953E-002	  3.51377E-002	  2.69165E-002	  4.61851E-002
  2.56000E-001	  2.44263E-002	  2.15987E-002	  2.32277E-002	  4.43009E-002
  2.81600E-001	  1.27464E-002	  1.54185E-002	  2.63573E-002	  3.59158E-002
  3.07200E-001	  1.41129E-002	  1.60452E-002	  2.86579E-002	  3.52139E-002
  3.32800E-001	  1.11013E-002	  1.87756E-002	  2.66157E-002	  2.74632E-002
  3.58400E-001	  8.02434E-003	  1.04931E-002	  2.10659E-002	  1.34703E-002
  3.84000E-001	  9.50180E-003	 -1.65792E-003	  1.26124E-002	  2.45890E-002
  4.09600E-001	  3.96488E-003	  5.90874E-003	  9.91038E-003	  2.49062E-002
  4.60800E-001	 -2.79768E-003	 -5.40350E-004	  1.50466E-002	  2.06603E-002
  5.12000E-001	 -9.45530E-004	 -1.52656E-003	  1.50029E-002	  1.46319E-002
  5.63200E-001	  1.03496E-003	 -5.63448E-003	  1.14696E-002	  9.41093E-003
  6.14400E-001	 -3.81052E-003	 -1.93192E-003	  1.58576E-002	  1.06959E-002
  6.65600E-001	 -7.54577E-003	 -1.00015E-003	  6.88055E-003	  4.14087E-003
  7.16800E-001	 -5.31863E-003	  2.38174E-003	  2.68126E-003	  1.31719E-002
  7.68000E-001	 -4.49719E-003	 -2.16093E-003	 -1.46692E-003	  4.61814E-003
  8.19200E-001	 -9.68485E-004	 -5.53887E-003	 -5.38605E-003	  1.03960E-002
  9.21600E-001	 -3.07035E-003	 -4.65392E-003	 -4.80125E-003	  5.13956E-003
  1.02400E+000	 -5.88083E-003	 -2.93566E-003	 -2.26095E-004	  6.33217E-003
  1.12640E+000	  2.26692E-003	 -3.90461E-003	 -7.02979E-003	  3.69683E-003
  1.22880E+000	  2.76508E-003	 -3.35365E-003	 -1.31476E-002	  1.20614E-003
  1.33120E+000	 -1.39592E-003	 -4.83707E-004	 -2.54166E-003	  4.61257E-003
  1.43360E+000	 -1.84737E-003	  2.08130E-003	 -5.40925E-003	  2.29282E-004
  1.53600E+000	  2.78183E-004	 -1.85831E-003	 -3.36426E-003	  2.84482E-003
  1.63840E+000	 -3.14120E-003	 -6.58552E-003	 -2.49877E-003	  8.18644E-003
  1.84320E+000	 -2.07631E-003	 -4.53098E-003	 -1.07928E-003	 -1.50923E-003
  2.04800E+000	 -2.67174E-003	 -5.34881E-003	  1.97710E-003	 -9.24673E-003
  2.25280E+000	 -5.23454E-003	 -2.37796E-003	 -4.17771E-003	  7.15147E-004
  2.45760E+000	 -9.63083E-004	  6.22483E-004	  3.95928E-003	  4.61869E-003
  2.66240E+000	  1.76236E-003	  9.95683E-004	 -6.54560E-003	 -3.26014E-004
  2.86720E+000	 -5.71932E-003	  6.97097E-003	  2.00912E-003	 -2.39481E-004
  3.07200E+000	 -7.88908E-003	  2.57973E-003	 -8.70396E-003	 -6.88789E-004
  3.27680E+000	 -8.67708E-003	  8.04625E-003	 -6.80768E-003	  2.97603E-003
  3.68640E+000	 -2.61907E-003	  1.24927E-002	  8.40769E-004	 -5.60205E-003
  4.09600E+000	 -3.87561E-003	  1.38503E-002	  5.46336E-003	 -2.37250E-003
  4.50560E+000	  2.82020E-003	  6.63648E-003	  2.14015E-003	  2.45499E-003
  4.91520E+000	 -2.43034E-003	  5.69816E-004	 -3.83651E-004	 -2.52560E-003
  5.32480E+000	  2.58102E-003	  3.22819E-003	  5.00050E-003	 -8.24911E-003
  5.73440E+000	  5.57608E-003	 -8.32921E-003	  2.81874E-003	 -3.26287E-003
  6.14400E+000	 -3.27586E-003	 -2.68418E-004	  7.97002E-003	  4.13371E-003
  6.55360E+000	  2.12095E-003	  5.24529E-003	  4.77332E-003	  2.83047E-004
  7.37280E+000	 -1.91766E-003	  1.26583E-003	  9.74259E-004	  4.09526E-003
  8.19200E+000	 -3.31472E-003	  2.79982E-004	  7.57361E-005	 -2.89835E-003
  9.01120E+000	 -4.12707E-003	  2.56649E-003	 -1.54058E-003	 -2.17057E-005
  9.83040E+000	  2.70107E-004	 -5.48839E-004	 -2.74603E-003	  4.00376E-003
  1.06496E+001	 -2.04975E-003	 -5.27428E-003	 -8.85307E-003	  3.59263E-003
  1.14688E+001	 -5.98772E-003	 -5.87869E-003	 -3.11273E-003	  2.48590E-003
  1.22880E+001	  3.95883E-003	  1.51323E-003	  6.16113E-004	 -6.19072E-003
  1.31072E+001	  2.14071E-003	  2.04092E-003	 -1.96952E-003	 -4.39174E-003
  1.47456E+001	  4.81807E-003	 -2.45248E-003	  8.29698E-004	 -2.97943E-003
  1.63840E+001	  1.23032E-003	  3.17676E-003	  2.21790E-003	  1.25959E-003
  1.80224E+001	  1.14438E-003	 -1.44119E-003	 -5.53615E-003	  1.74527E-003
  1.96608E+001	 -4.27466E-003	 -1.72368E-003	 -4.54626E-003	  1.75214E-003
  2.12992E+001	  9.31578E-004	 -2.76436E-003	  1.00803E-003	  1.43513E-004
  2.29376E+001	  3.14478E-003	 -2.59656E-003	 -1.26052E-003	 -1.48759E-003
  2.45760E+001	 -4.98567E-003	  5.03726E-004	  1.16567E-003	 -2.74017E-004
  2.62144E+001	 -2.09689E-004	 -4.62938E-003	 -6.60611E-004	  1.10832E-003
  2.94912E+001	 -7.83814E-004	 -1.32949E-003	  4.14132E-003	 -2.96994E-003
  3.27680E+001	  3.88201E-005	 -4.25325E-006	 -2.28869E-003	  1.56127E-003
  3.60448E+001	  2.39887E-003	  2.51783E-004	 -4.90686E-004	  3.90470E-003
  3.93216E+001	 -1.79761E-003	 -4.41283E-004	  2.49141E-004	  6.05439E-005
  4.25984E+001	 -7.82848E-005	 -4.10912E-004	 -3.26894E-004	  9.85772E-004
  4.58752E+001	  2.96079E-003	  1.44576E-003	  1.12910E-004	  3.02191E-003
  4.91520E+001	  1.67039E-004	  1.15812E-003	 -1.51254E-003	  8.46721E-004
  5.24288E+001	  1.39265E-004	 -6.45528E-004	  1.23909E-003	  7.31991E-004
  5.89824E+001	 -1.65420E-003	  5.39200E-004	  2.28126E-003	  3.28017E-003
  6.55360E+001	  2.20817E-003	  1.55727E-003	 -2.68901E-004	 -2.15328E-004
  7.20896E+001	 -2.50309E-004	  4.41291E-004	  8.57037E-004	 -8.27657E-004
  7.86432E+001	  8.04616E-004	 -1.21712E-003	 -1.44017E-003	  9.30799E-004
  8.51968E+001	  2.97664E-004	  6.08217E-004	 -3.59473E-004	 -1.31114E-003
  9.17504E+001	 -7.08308E-005	 -9.90684E-004	 -2.74145E-003	  1.23509E-003
  9.83040E+001	 -5.64087E-004	 -6.60718E-004	  1.21441E-003	  8.10098E-004
  1.04858E+002	  3.64446E-004	  2.22652E-003	  5.20600E-004	 -1.75806E-003
  1.17965E+002	 -2.81916E-004	 -1.41550E-003	 -2.86222E-004	  1.11271E-003
  1.31072E+002	  2.38281E-004	  1.05710E-003	 -1.68634E-003	 -2.47316E-003
  1.44179E+002	 -1.17622E-003	  2.36120E-003	 -1.09031E-003	 -1.45496E-003
  1.57286E+002	 -8.54593E-004	 -1.39845E-003	 -6.92346E-004	 -1.73925E-003
  1.70394E+002	 -1.14042E-003	  1.08235E-003	 -1.58866E-004	  6.19618E-006
  1.83501E+002	 -4.92389E-004	 -2.40366E-003	 -5.50917E-004	 -2.21740E-003
  1.96608E+002	 -4.65668E-004	 -1.18736E-003	 -7.35280E-004	 -2.16718E-003
  2.09715E+002	 -1.30413E-003	  6.17604E-004	 -2.25025E-004	  2.16029E-003
  2.35930E+002	 -3.40426E-004	  5.69535E-005	 -2.09576E-004	 -1.32738E-003
  2.62144E+002	 -1.85433E-005	 -9.74865E-004	 -8.12983E-004	  8.56557E-004
  2.88358E+002	 -1.00050E-003	  2.72566E-003	  1.46182E-003	 -5.34337E-004
  3.14573E+002	  9.25740E-004	 -2.90530E-003	  1.02318E-004	 -1.23705E-004
  3.40787E+002	  4.24176E-004	  1.92447E-003	 -5.52119E-005	  1.44341E-003
  3.67002E+002	  1.34904E-003	 -2.14844E-003	  8.00628E-004	 -2.93167E-004
  3.93216E+002	  1.12519E-003	  7.12258E-004	  2.68354E-004	  1.18941E-003

"Count Rate"
       0.01311	      57.29675	      58.51746	      49.74365	      56.91528
       0.02621	      49.20959	      52.33765	      63.17139	      60.72998
       0.03932	      64.08691	      64.46838	      53.63464	      49.28589
       0.05243	      60.57739	      61.72180	      55.38940	      55.99976
       0.06554	      61.18774	      63.47656	      57.83081	      49.89624
       0.07864	      53.48206	      56.61011	      55.31311	      56.07605
       0.09175	      59.81445	      51.11694	      60.04333	      51.26953
       0.10486	      57.29675	      64.31580	      56.99158	      51.87988
       0.11796	      51.26953	      48.90442	      51.34583	      51.34583
       0.13107	      61.03516	      53.71094	      54.32129	      54.01611
       0.14418	      47.76001	      65.84167	      52.64282	      52.03247
       0.15729	      59.20410	      60.19592	      52.94800	      48.06519
       0.17039	      52.18506	      62.86621	      62.40845	      52.10876
       0.18350	      56.22864	      64.69727	      62.48474	      53.71094
       0.19661	      52.87170	      56.53381	      62.10327	      50.12512
       0.20972	      54.62646	      66.14685	      57.75452	      45.47119
       0.22282	      52.64282	      49.81995	      55.16052	      57.14417
       0.23593	      52.56653	      50.81177	      56.68640	      60.19592
       0.24904	      51.80359	      69.35120	      64.08691	      46.84448
       0.26214	      53.02429	      63.01880	      61.34033	      68.28308
       0.27525	      53.63464	      56.45752	      51.80359	      47.76001
       0.28836	      55.92346	      55.23682	      59.12781	      73.31848
       0.30147	      50.20142	      63.70544	      58.67004	      55.69458
       0.31457	      59.43298	      70.34302	      53.25317	      62.48474
       0.32768	      53.02429	      49.89624	      54.16870	      60.42480
       0.34079	      52.71912	      58.97522	      47.83630	      57.75452
       0.35389	      51.34583	      59.58557	      52.56653	      56.83899
       0.36700	      54.39758	      50.04883	      55.77087	      59.50928
       0.38011	      66.37573	      60.19592	      56.07605	      56.76270
       0.39322	      53.71094	      61.79810	      53.93982	      49.43848
       0.40632	      48.52295	      54.62646	      51.19324	      64.39209
       0.41943	      59.35669	      58.89893	      54.70276	      53.78723
       0.43254	      53.63464	      60.04333	      53.63464	      59.66187
       0.44564	      67.97791	      55.92346	      56.99158	      56.22864
       0.45875	      59.50928	      50.88806	      57.60193	      53.86353
       0.47186	      58.97522	      56.99158	      60.04333	      48.06519
       0.48497	      50.20142	      59.96704	      56.76270	      57.14417
       0.49807	      59.89075	      49.51477	      56.38123	      55.38940
       0.51118	      58.82263	      49.59106	      57.52563	      53.71094
       0.52429	      54.39758	      57.67822	      55.23682	      56.38123
       0.53740	      56.53381	      57.90710	      64.01062	      53.02429
       0.55050	      60.88257	      53.86353	      60.57739	      48.37036
       0.56361	      55.61829	      52.87170	      57.52563	      60.88257
       0.57672	      51.11694	      53.25317	      56.83899	      54.32129
       0.58982	      53.25317	      76.82800	      50.81177	      45.24231
       0.60293	      46.08154	      54.85535	      63.70544	      50.50659
       0.61604	      57.14417	      54.55017	      52.56653	      63.93433
       0.62915	      57.14417	      46.61560	      55.92346	      55.92346
       0.64225	      51.80359	      52.56653	      57.60193	      54.77905
       0.65536	      60.34851	      60.80627	      55.16052	      59.66187
       0.66847	      55.77087	      57.29675	      57.06787	      60.27222
       0.68157	      43.94531	      60.95886	      58.97522	      59.28040
       0.69468	      60.50110	      59.50928	      48.67554	      53.71094
       0.70779	      53.55835	      50.96436	      65.07874	      51.19324
       0.72090	      49.13330	      51.26953	      57.06787	      52.18506
       0.73400	      54.09241	      62.63733	      51.34583	      62.17957
       0.74711	      54.85535	      52.03247	      52.71912	      53.71094
