ALV-7004/USB-FAST
Date :	"11/11/2025"
Time :	"3:56:33 PM"
Samplename : 	""
SampMemo(0) : 	""
SampMemo(1) : 	""
SampMemo(2) : 	""
SampMemo(3) : 	""
SampMemo(4) : 	""
SampMemo(5) : 	""
SampMemo(6) : 	""
SampMemo(7) : 	""
SampMemo(8) : 	""
SampMemo(9) : 	""
Temperature [K] :	     298.16000
Viscosity [cp]  :	       0.89000
Refractive Index:	       1.33200
Wavelength [nm] :	       0.00000
Angle [°]       :	       0.00000
Duration [s]    :	         1
FloatDur [ms]   :	          944
Stop TP [ms]   :	     67427
Runs            :	         1
Mode            :	"A-CH0+1  A-CH2+3 "
MeanCR0 [kHz]   :	      56.31235
MeanCR1 [kHz]   :	      54.07439
MeanCR2 [kHz]   :	      54.84475
MeanCR3 [kHz]   :	      53.23728

"Correlation"
  3.12500E-006	 -1.00000E+000	 -1.00000E+000	 -1.00000E+000	 -1.00000E+000
  6.25000E-006	 -1.00000E+000	 -1.00000E+000	 -1.00000E+000	 -1.00000E+000
  9.37500E-006	 -1.00000E+000	 -1.00000E+000	 -1.00000E+000	 -1.00000E+000
  1.25000E-005	 -1.00000E+000	 -1.00000E+000	 -1.00000E+000	 -1.00000E+000
  1.56250E-005	 -1.00000E+000	 -1.00000E+000	 -1.00000E+000	 -1.00000E+000
  1.87500E-005	 -1.00000E+000	 -1.00000E+000	 -1.00000E+000	 -1.00000E+000
  2.18750E-005	 -6.79209E-001	  9.71393E-001	  1.02913E+000	 -6.41080E-001
  2.50000E-005	  1.18316E+001	  1.10603E+001	  1.17384E+001	  2.61582E+001
  2.81250E-005	  3.59800E+000	  2.13104E+000	  2.15642E+000	  9.64795E+000
  3.12500E-005	  1.13860E+000	  9.71393E-001	  1.02913E+000	  5.46055E+000
  3.43750E-005	  1.03167E+000	  9.71393E-001	  1.36732E+000	  4.98199E+000
  3.75000E-005	  4.97022E-001	  7.39464E-001	  5.78212E-001	  2.82847E+000
  4.06250E-005	  1.13860E+000	  1.31929E+000	  8.03671E-001	  4.14451E+000
  4.37500E-005	  4.97022E-001	  8.55428E-001	  1.02913E+000	  2.58920E+000
  4.68750E-005	  6.03953E-001	  5.07536E-001	  1.27295E-001	  1.27316E+000
  5.00000E-005	  9.78208E-001	  7.97446E-001	  5.21848E-001	  2.17046E+000
  5.62500E-005	  8.17813E-001	  3.33589E-001	  1.14186E+000	  2.17046E+000
  6.25000E-005	  6.03952E-001	  1.01661E-001	  1.02913E+000	  7.94598E-001
  6.87500E-005	  3.90092E-001	  1.08736E+000	  6.34577E-001	  1.51244E+000
  7.50000E-005	  4.97022E-001	  6.81482E-001	  3.52753E-001	  1.51244E+000
  8.12500E-005	  7.10883E-001	  5.65518E-001	  7.47306E-001	  6.74958E-001
  8.75000E-005	  1.19207E+000	  3.91571E-001	  7.47306E-001	  1.99100E+000
  9.37500E-005	  6.57417E-001	  6.81482E-001	  6.90942E-001	  8.54417E-001
  1.00000E-004	  5.77220E-001	  4.20562E-001	  8.31853E-001	  8.84327E-001
  1.12500E-004	  6.57417E-001	  7.68455E-001	  8.60036E-001	  5.55318E-001
  1.25000E-004	  6.84150E-001	  4.49553E-001	  3.24571E-001	  4.35678E-001
  1.37500E-004	  1.00494E+000	  3.91571E-001	  8.60036E-001	  6.45048E-001
  1.50000E-004	  3.36627E-001	  3.04598E-001	  1.14186E+000	  4.35678E-001
  1.62500E-004	  6.57417E-001	  5.94509E-001	  2.96389E-001	  5.85228E-001
  1.75000E-004	  4.97022E-001	 -7.22859E-002	  2.40024E-001	  5.25408E-001
  1.87500E-004	  8.17813E-001	  8.55428E-001	  2.68206E-001	  5.55318E-001
  2.00000E-004	  6.17318E-001	  4.78544E-001	  5.21847E-001	  4.05768E-001
  2.25000E-004	  3.63359E-001	  3.04598E-001	  5.78212E-001	  8.09552E-001
  2.50000E-004	  4.97022E-001	  4.64048E-001	  6.62759E-001	  6.60002E-001
  2.75000E-004	  8.71277E-001	  6.52490E-001	  8.45944E-001	  7.64687E-001
  3.00000E-004	  4.97022E-001	  4.06066E-001	  5.64121E-001	  6.45047E-001
  3.25000E-004	  5.23754E-001	  4.64048E-001	  3.52753E-001	  7.19822E-001
  3.50000E-004	  6.84150E-001	  3.77075E-001	  7.19124E-001	  4.80542E-001
  3.75000E-004	  5.90586E-001	  5.36526E-001	  6.62759E-001	  5.70272E-001
  4.00000E-004	  5.10387E-001	  5.14782E-001	  6.97986E-001	  5.47839E-001
  4.50000E-004	  5.10387E-001	  5.58269E-001	  5.21846E-001	  5.47839E-001
  5.00000E-004	  3.36626E-001	  5.87260E-001	  5.00710E-001	  4.28199E-001
  5.50000E-004	  4.23507E-001	  4.64048E-001	  3.95026E-001	  5.32884E-001
  6.00000E-004	  4.03457E-001	  5.65516E-001	  5.78211E-001	  4.58109E-001
  6.50000E-004	  3.70042E-001	  3.48084E-001	  4.51391E-001	  5.32884E-001
  7.00000E-004	  6.10634E-001	  3.40836E-001	  5.42983E-001	  5.62794E-001
  7.50000E-004	  3.43309E-001	  4.49552E-001	  4.86618E-001	  4.80542E-001
  8.00000E-004	  5.10386E-001	  5.47396E-001	  4.76049E-001	  3.27252E-001
  9.00000E-004	  5.87242E-001	  4.60423E-001	  5.35936E-001	  4.88018E-001
  1.00000E-003	  5.37119E-001	  4.27808E-001	  5.71164E-001	  5.40360E-001
  1.10000E-003	  5.10386E-001	  3.87945E-001	  5.88778E-001	  5.51577E-001
  1.20000E-003	  3.90090E-001	  5.51020E-001	  5.78210E-001	  4.80541E-001
  1.30000E-003	  5.40460E-001	  3.73450E-001	  5.46505E-001	  4.50631E-001
  1.40000E-003	  5.10386E-001	  5.03909E-001	  6.06392E-001	  4.91757E-001
  1.50000E-003	  4.63604E-001	  4.56799E-001	  6.06392E-001	  6.15135E-001
  1.60000E-003	  4.76968E-001	  5.38333E-001	  6.04628E-001	  5.19825E-001
  1.80000E-003	  5.48811E-001	  4.20558E-001	  4.95422E-001	  4.80568E-001
  2.00000E-003	  4.66943E-001	  4.24182E-001	  5.09513E-001	  5.29172E-001
  2.20000E-003	  4.75297E-001	  3.66200E-001	  5.11274E-001	  4.89915E-001
  2.40000E-003	  5.03700E-001	  4.27805E-001	  5.04229E-001	  5.62821E-001
  2.60000E-003	  5.10384E-001	  4.04250E-001	  5.37695E-001	  4.24485E-001
  2.80000E-003	  4.26845E-001	  5.05719E-001	  5.62355E-001	  5.04870E-001
  3.00000E-003	  5.12054E-001	  3.98814E-001	  4.44341E-001	  4.76829E-001
  3.20000E-003	  4.82811E-001	  4.43202E-001	  5.29764E-001	  4.62832E-001
  3.60000E-003	  5.13720E-001	  3.68913E-001	  5.03343E-001	  4.97417E-001
  4.00000E-003	  4.81140E-001	  3.94280E-001	  5.18315E-001	  4.77758E-001
  4.40000E-003	  4.63597E-001	  3.53511E-001	  5.33286E-001	  4.73085E-001
  4.80000E-003	  4.61091E-001	  4.00622E-001	  5.42093E-001	  5.00191E-001
  5.20000E-003	  5.39617E-001	  4.27801E-001	  5.55304E-001	  5.04865E-001
  5.60000E-003	  4.54408E-001	  4.11493E-001	  5.12150E-001	  4.58130E-001
  6.00000E-003	  5.17062E-001	  4.65851E-001	  5.05985E-001	  4.40371E-001
  6.40000E-003	  5.43812E-001	  3.96082E-001	  5.04654E-001	  4.70767E-001
  7.20000E-003	  4.72804E-001	  4.19184E-001	  4.95847E-001	  5.18438E-001
  8.00000E-003	  5.05384E-001	  4.78072E-001	  5.25790E-001	  4.38520E-001
  8.80000E-003	  4.47742E-001	  4.40021E-001	  5.49128E-001	  4.92733E-001
  9.60000E-003	  5.32952E-001	  4.04689E-001	  5.30194E-001	  4.84321E-001
  1.04000E-002	  4.86588E-001	  3.89288E-001	  5.13930E-001	  4.78683E-001
  1.12000E-002	  5.02043E-001	  4.17825E-001	  5.46957E-001	  4.72140E-001
  1.20000E-002	  4.87423E-001	  4.25979E-001	  5.43874E-001	  4.68401E-001
  1.28000E-002	  4.96857E-001	  4.23468E-001	  5.32624E-001	  4.63504E-001
  1.44000E-002	  4.77197E-001	  3.98328E-001	  5.04662E-001	  4.65373E-001
  1.60000E-002	  4.56939E-001	  4.34113E-001	  5.01800E-001	  4.59093E-001
  1.76000E-002	  4.68635E-001	  4.32981E-001	  5.14570E-001	  4.67272E-001
  1.92000E-002	  4.66337E-001	  4.26639E-001	  4.85507E-001	  5.15440E-001
  2.08000E-002	  4.82419E-001	  4.30036E-001	  5.08625E-001	  4.82520E-001
  2.24000E-002	  4.70514E-001	  4.44079E-001	  4.94314E-001	  4.73640E-001
  2.40000E-002	  4.42111E-001	  4.12823E-001	  4.72297E-001	  4.84593E-001
  2.56000E-002	  4.61472E-001	  4.15757E-001	  4.95212E-001	  4.74914E-001
  2.88000E-002	  4.89250E-001	  4.35122E-001	  4.62516E-001	  4.62879E-001
  3.20000E-002	  4.83270E-001	  4.14398E-001	  5.15248E-001	  4.49326E-001
  3.52000E-002	  4.52986E-001	  4.17116E-001	  4.91139E-001	  4.63580E-001
  3.84000E-002	  4.71602E-001	  3.95487E-001	  4.81671E-001	  4.71526E-001
  4.16000E-002	  4.82852E-001	  4.06018E-001	  4.91689E-001	  4.38810E-001
  4.48000E-002	  4.72514E-001	  4.01262E-001	  5.08562E-001	  4.63142E-001
  4.80000E-002	  4.44841E-001	  3.95713E-001	  4.76636E-001	  4.75878E-001
  5.12000E-002	  4.62267E-001	  3.97447E-001	  4.87538E-001	  4.61368E-001
  5.76000E-002	  4.66601E-001	  3.94673E-001	  4.79805E-001	  4.66422E-001
  6.40000E-002	  4.71875E-001	  3.91615E-001	  4.92492E-001	  4.49536E-001
  7.04000E-002	  4.71197E-001	  3.87426E-001	  4.70256E-001	  4.47082E-001
  7.68000E-002	  4.32944E-001	  3.74319E-001	  4.93100E-001	  4.47287E-001
  8.32000E-002	  4.53439E-001	  3.75932E-001	  4.79394E-001	  4.40977E-001
  8.96000E-002	  4.44301E-001	  3.83036E-001	  4.79257E-001	  4.41620E-001
  9.60000E-002	  4.45840E-001	  4.00023E-001	  4.67202E-001	  4.26955E-001
  1.02400E-001	  4.54444E-001	  3.81260E-001	  4.64429E-001	  4.33453E-001
  1.15200E-001	  4.40734E-001	  3.77042E-001	  4.58789E-001	  4.22089E-001
  1.28000E-001	  4.37991E-001	  3.72625E-001	  4.45661E-001	  4.28341E-001
  1.40800E-001	  4.26084E-001	  3.65460E-001	  4.53726E-001	  4.12593E-001
  1.53600E-001	  4.05196E-001	  3.57757E-001	  4.48222E-001	  4.24193E-001
  1.66400E-001	  4.12375E-001	  3.39098E-001	  4.38203E-001	  4.09031E-001
  1.79200E-001	  4.16422E-001	  3.54842E-001	  4.27387E-001	  4.07600E-001
  1.92000E-001	  4.00522E-001	  3.30037E-001	  4.24139E-001	  3.93548E-001
  2.04800E-001	  4.03068E-001	  3.31707E-001	  4.16948E-001	  3.86934E-001
  2.30400E-001	  3.88263E-001	  3.21913E-001	  4.11883E-001	  3.76050E-001
  2.56000E-001	  3.81370E-001	  3.15833E-001	  3.99110E-001	  3.63237E-001
  2.81600E-001	  3.77205E-001	  3.03989E-001	  3.79549E-001	  3.51083E-001
  3.07200E-001	  3.60116E-001	  2.99713E-001	  3.69664E-001	  3.38911E-001
  3.32800E-001	  3.36632E-001	  2.78209E-001	  3.61856E-001	  3.30457E-001
  3.58400E-001	  3.43201E-001	  2.77699E-001	  3.51969E-001	  3.21304E-001
  3.84000E-001	  3.18739E-001	  2.66466E-001	  3.44644E-001	  3.08582E-001
  4.09600E-001	  3.18499E-001	  2.60840E-001	  3.36750E-001	  3.00326E-001
  4.60800E-001	  3.04445E-001	  2.42277E-001	  3.21369E-001	  2.82478E-001
  5.12000E-001	  2.79708E-001	  2.23240E-001	  2.94485E-001	  2.65921E-001
  5.63200E-001	  2.61465E-001	  2.07246E-001	  2.79297E-001	  2.42635E-001
  6.14400E-001	  2.49963E-001	  1.88237E-001	  2.55006E-001	  2.31107E-001
  6.65600E-001	  2.36539E-001	  1.81773E-001	  2.37646E-001	  2.13092E-001
  7.16800E-001	  2.22534E-001	  1.70264E-001	  2.26246E-001	  1.99894E-001
  7.68000E-001	  2.05576E-001	  1.52380E-001	  2.16982E-001	  1.80117E-001
  8.19200E-001	  1.92862E-001	  1.43911E-001	  2.04851E-001	  1.72395E-001
  9.21600E-001	  1.65144E-001	  1.22269E-001	  1.83038E-001	  1.52592E-001
  1.02400E+000	  1.47507E-001	  1.00197E-001	  1.66520E-001	  1.31320E-001
  1.12640E+000	  1.24056E-001	  8.24465E-002	  1.44506E-001	  1.10231E-001
  1.22880E+000	  1.06477E-001	  6.91774E-002	  1.29961E-001	  9.55992E-002
  1.33120E+000	  9.40480E-002	  5.69232E-002	  1.16432E-001	  8.53875E-002
  1.43360E+000	  7.74432E-002	  4.57383E-002	  1.07738E-001	  6.52875E-002
  1.53600E+000	  6.96027E-002	  3.72886E-002	  9.75195E-002	  5.60804E-002
  1.63840E+000	  5.87724E-002	  2.91754E-002	  8.09953E-002	  4.35747E-002
  1.84320E+000	  4.31875E-002	  1.41184E-002	  6.62643E-002	  3.15675E-002
  2.04800E+000	  3.57473E-002	  5.29268E-003	  5.05466E-002	  2.50630E-002
  2.25280E+000	  3.32276E-002	  2.61672E-004	  3.81525E-002	  1.92674E-002
  2.45760E+000	  2.04402E-002	  4.96747E-003	  2.96712E-002	  1.73547E-002
  2.66240E+000	  1.09923E-002	  5.99461E-003	  2.03729E-002	  1.96029E-002
  2.86720E+000	  3.39604E-003	  6.42601E-003	  1.47762E-002	  2.08467E-002
  3.07200E+000	 -1.51490E-003	  1.41579E-003	  1.11972E-002	  2.18094E-002
  3.27680E+000	 -2.89027E-003	  3.88434E-003	  3.90013E-003	  1.67679E-002
  3.68640E+000	 -5.12718E-003	 -2.20081E-003	 -6.18982E-003	  1.19471E-002
  4.09600E+000	 -1.16179E-002	 -7.54346E-003	 -1.58991E-002	  1.72968E-004
  4.50560E+000	 -1.47553E-002	 -1.25321E-002	 -1.65880E-002	 -9.39993E-003
  4.91520E+000	 -5.90175E-003	 -7.76394E-003	 -8.29109E-003	 -2.03125E-002
  5.32480E+000	  1.13447E-004	  5.97321E-003	 -1.42462E-003	 -1.38988E-002
  5.73440E+000	  7.07939E-003	  6.44270E-003	  1.37246E-003	 -8.97992E-003
  6.14400E+000	  1.15725E-002	  2.01667E-003	  3.56608E-003	 -1.33938E-002
  6.55360E+000	  2.36658E-002	  9.60545E-003	 -6.74704E-003	 -6.71622E-003
  7.37280E+000	  2.93749E-002	  2.41260E-002	 -1.51196E-002	  1.56045E-002
  8.19200E+000	  3.04575E-002	  3.32013E-002	 -4.45598E-003	  7.45826E-003
  9.01120E+000	  3.27198E-002	  3.82288E-002	 -4.79842E-003	 -6.58077E-003
  9.83040E+000	  2.10500E-002	  3.36792E-002	 -7.23886E-003	 -1.51489E-002
  1.06496E+001	  7.12361E-003	  2.64152E-002	 -1.54970E-002	 -3.77196E-003
  1.14688E+001	  1.58281E-002	  2.98846E-003	 -1.73034E-002	  6.80932E-003
  1.22880E+001	  3.54171E-002	  8.97628E-003	 -1.01390E-002	  5.28818E-003
  1.31072E+001	  2.15147E-002	 -6.98702E-003	 -1.53117E-002	  6.73715E-003
  1.47456E+001	  9.10922E-003	 -8.90322E-003	 -2.93561E-002	 -8.72832E-003
  1.63840E+001	 -1.94879E-003	  7.99658E-003	 -1.61053E-002	 -1.67803E-002
  1.80224E+001	 -2.36058E-002	  2.41055E-003	 -2.27976E-002	 -1.04075E-002
  1.96608E+001	 -1.33630E-005	  7.69230E-003	 -1.66930E-002	  6.85012E-003
  2.12992E+001	  3.00456E-003	 -3.55020E-003	 -1.08153E-002	 -1.14685E-003
  2.29376E+001	 -7.02554E-003	 -1.16320E-002	 -2.08933E-002	 -2.69525E-002
  2.45760E+001	 -1.86201E-002	 -1.16511E-002	  2.41502E-003	  1.33049E-003
  2.62144E+001	 -1.12973E-002	  9.27484E-003	 -2.78183E-003	  1.73604E-002
  2.94912E+001	  5.84822E-003	 -4.24301E-003	 -1.42496E-002	  4.14639E-003
  3.27680E+001	  9.51428E-003	 -2.19528E-003	 -9.12365E-004	  9.27914E-003
  3.60448E+001	  4.82876E-003	  1.90115E-002	  3.48011E-002	 -1.41684E-002
  3.93216E+001	  8.00396E-003	  6.29409E-003	  1.94488E-002	 -1.85720E-003
  4.25984E+001	 -2.96462E-003	  8.72168E-003	  1.18361E-003	 -2.06339E-002
  4.58752E+001	 -5.67017E-003	  5.71485E-003	 -8.09580E-003	 -3.12945E-004
  4.91520E+001	 -1.99697E-002	 -9.90472E-003	 -1.95212E-002	 -3.44555E-003
  5.24288E+001	 -2.79687E-002	  6.00467E-003	 -1.98887E-002	 -1.37403E-002
  5.89824E+001	 -1.94961E-002	  2.17051E-004	 -3.09356E-003	  1.72239E-002
  6.55360E+001	 -5.65232E-003	  1.83140E-003	 -8.73447E-004	  5.61258E-003
  7.20896E+001	  2.79720E-003	 -7.41610E-003	  1.22230E-002	  6.84933E-004
  7.86432E+001	 -3.80858E-003	 -2.87885E-004	  1.12343E-002	 -1.21679E-003
  8.51968E+001	 -1.47258E-002	 -9.67078E-003	  7.78227E-003	  5.74742E-003
  9.17504E+001	 -6.42390E-003	 -1.56461E-002	  3.18398E-003	  1.83384E-003
  9.83040E+001	 -4.95515E-004	 -2.88328E-003	  9.90523E-003	  8.61959E-004
  1.04858E+002	  9.54758E-003	 -6.76752E-003	 -1.06495E-002	 -1.52227E-003
  1.17965E+002	 -7.26872E-003	 -1.23479E-002	  9.67273E-004	 -1.52173E-003
  1.31072E+002	 -2.61722E-004	  1.46436E-003	  2.31390E-003	  1.90752E-002
  1.44179E+002	  7.13818E-004	  4.44649E-003	 -1.05236E-002	 -3.35512E-003
  1.57286E+002	 -6.09865E-003	 -8.60230E-003	 -4.90348E-003	  3.63545E-003
  1.70394E+002	  1.24186E-002	 -2.48388E-003	  1.45297E-002	  5.70142E-003
  1.83501E+002	  1.31113E-002	 -5.02004E-003	  7.57390E-003	 -1.40607E-003
  1.96608E+002	  4.50711E-003	 -1.24510E-002	 -2.07566E-002	 -4.26310E-004
  2.09715E+002	 -5.80730E-003	 -5.87537E-003	 -2.44505E-003	 -1.02379E-002
  2.35930E+002	 -1.45510E-002	 -6.24519E-004	 -4.07292E-003	  7.20248E-003
  2.62144E+002	 -5.27355E-003	 -9.83817E-003	  8.43898E-003	 -6.83580E-003
  2.88358E+002	 -7.84477E-004	  4.37480E-003	 -1.07298E-002	  2.69895E-003
  3.14573E+002	  8.34603E-004	 -1.60479E-002	 -8.43175E-003	  2.68973E-003
  3.40787E+002	 -5.49131E-003	 -3.23817E-003	  8.29595E-003	 -6.03406E-003
  3.67002E+002	 -5.49496E-003	  5.02365E-003	 -6.59717E-004	  5.80044E-003
  3.93216E+002	  1.15883E-002	 -7.81629E-003	 -1.60684E-002	 -4.41927E-003

"Count Rate"
       0.01311	      53.40576	      57.98340	      58.21228	      41.27502
       0.02621	      64.08691	      72.40295	      43.79272	      51.80359
       0.03932	      65.68909	      50.88806	      49.66736	      50.65918
       0.05243	      44.02161	      60.42480	      68.66455	      47.68372
       0.06554	      53.40576	      58.82263	      78.43018	      58.44116
       0.07864	      72.40295	      50.65918	      42.34314	      50.50659
       0.09175	      54.85535	      52.33765	      58.67004	      37.76550
       0.10486	      62.86621	      54.01611	      67.90161	      62.94250
       0.11796	      44.25049	      52.10876	      52.94800	      44.02161
       0.13107	      58.21228	      68.43567	      67.82532	      55.31311
       0.14418	      45.54749	      39.59656	      67.44385	      56.99158
       0.15729	      54.55017	      57.52563	      44.17419	      54.39758
       0.17039	      52.26135	      60.95886	      53.78723	      52.33765
       0.18350	      63.85803	      56.38123	      54.01611	      59.35669
       0.19661	      51.95618	      66.90979	      64.08691	      40.66467
       0.20972	      59.12781	      46.00525	      61.26404	      45.39490
       0.22282	      69.65637	      38.75732	      67.06238	      34.94263
       0.23593	      55.46570	      53.86353	      44.47937	      58.67004
       0.24904	      54.39758	      36.23962	      53.10059	      39.82544
       0.26214	      54.01611	      50.50659	      54.77905	      54.70276
       0.27525	      57.52563	      87.35657	      67.82532	      58.05969
       0.28836	      71.94519	      58.44116	      55.69458	      56.45752
       0.30147	      32.42493	      27.46582	      45.47119	      64.69727
       0.31457	      57.60193	      52.71912	      40.81726	      45.24231
       0.32768	      23.11707	      67.36755	      41.58020	      41.96167
       0.34079	      36.23962	      78.04871	      38.98621	      59.12781
       0.35389	      80.64270	      48.29407	      88.95874	      35.40039
       0.36700	      41.50391	      62.63733	      38.60474	      33.56934
       0.38011	      74.53918	      59.20410	      36.77368	      42.11426
       0.39322	     118.10303	      53.17688	      91.01868	      47.22595
       0.40632	      49.59106	      52.26135	      29.22058	      48.98071
       0.41943	      51.26953	      67.82532	      50.35400	      41.27502
       0.43254	      44.93713	      28.68652	      49.59106	      56.99158
       0.44564	      35.09521	      45.39490	      39.74915	      31.73828
       0.45875	      60.72998	      54.85535	      71.94519	      60.04333
       0.47186	      42.41943	      53.40576	      35.70557	      63.93433
       0.48497	      61.95068	      45.54749	      45.39490	      49.36218
       0.49807	      44.47937	      57.06787	      37.84180	      45.01343
       0.51118	      41.04614	      61.11145	      53.63464	      64.54468
       0.52429	      48.52295	      55.23682	      57.29675	      59.12781
       0.53740	      58.28857	      57.83081	      46.69189	      26.77917
       0.55050	      48.90442	      54.77905	      54.77905	      65.84167
       0.56361	      63.93433	      49.05701	      60.95886	      45.31860
       0.57672	      63.55286	      44.78455	      57.83081	      77.05688
       0.58982	      50.20142	      37.15515	      34.17969	      59.81445
       0.60293	      36.16333	      34.48486	      78.88794	      61.03516
       0.61604	      44.17419	      36.69739	      53.40576	      70.26672
       0.62915	      48.29407	      60.95886	      57.90710	      46.99707
       0.64225	      47.76001	      38.52844	      78.20129	      50.81177
       0.65536	      51.34583	      50.73547	      49.74365	      57.52563
       0.66847	      48.90442	      46.76819	      33.34045	      37.38403
       0.68157	      45.31860	      37.68921	      35.85815	      67.90161
       0.69468	      60.95886	      64.77356	      77.43835	      57.75452
       0.70779	      53.63464	      54.32129	      44.32678	      72.40295
       0.72090	      49.81995	      46.38672	      63.32397	      38.83362
       0.73400	      50.35400	      41.50391	      69.88525	      43.86902
       0.74711	      51.95618	      67.06238	      37.07886	      80.64270
