ALV-7004/USB-FAST
Date :	"11/11/2025"
Time :	"3:57:07 PM"
Samplename : 	""
SampMemo(0) : 	""
SampMemo(1) : 	""
SampMemo(2) : 	""
SampMemo(3) : 	""
SampMemo(4) : 	""
SampMemo(5) : 	""
SampMemo(6) : 	""
SampMemo(7) : 	""
SampMemo(8) : 	""
SampMemo(9) : 	""
Temperature [K] :	     298.16000
Viscosity [cp]  :	       0.89000
Refractive Index:	       1.33200
Wavelength [nm] :	       0.00000
Angle [°]       :	       0.00000
Duration [s]    :	         1
FloatDur [ms]   :	          944
Stop TP [ms]   :	     67750
Runs            :	         1
Mode            :	"A-CH0+1  A-CH2+3 "
MeanCR0 [kHz]   :	      47.94651
MeanCR1 [kHz]   :	      49.80935
MeanCR2 [kHz]   :	      49.11529
MeanCR3 [kHz]   :	      47.93379

"Correlation"
  3.12500E-006	 -1.00000E+000	 -1.00000E+000	 -1.00000E+000	 -1.00000E+000
  6.25000E-006	 -1.00000E+000	 -1.00000E+000	 -1.00000E+000	 -1.00000E+000
  9.37500E-006	 -1.00000E+000	 -1.00000E+000	 -1.00000E+000	 -1.00000E+000
  1.25000E-005	 -1.00000E+000	 -1.00000E+000	 -1.00000E+000	 -1.00000E+000
  1.56250E-005	 -1.00000E+000	 -1.00000E+000	 -1.00000E+000	 -1.00000E+000
  1.87500E-005	 -1.00000E+000	 -1.00000E+000	 -1.00000E+000	 -1.00000E+000
  2.18750E-005	 -8.52499E-001	  1.59681E+000	  1.38959E+000	 -5.57264E-001
  2.50000E-005	  1.09475E+001	  1.60842E+001	  1.15102E+001	  2.49739E+001
  2.81250E-005	  2.39251E+000	  2.28018E+000	  1.81128E+000	  1.09539E+001
  3.12500E-005	  1.36001E+000	  1.05011E+000	  1.24902E+000	  5.19831E+000
  3.43750E-005	  1.80251E+000	  1.59681E+000	  1.10846E+000	  4.90315E+000
  3.75000E-005	  3.25038E-002	  2.00683E+000	  1.38959E+000	  3.13221E+000
  4.06250E-005	  1.50751E+000	  1.46013E+000	  2.65076E-001	  3.72252E+000
  4.37500E-005	  3.27505E-001	  9.13435E-001	  9.67896E-001	  2.68947E+000
  4.68750E-005	  6.22506E-001	  1.46013E+000	  5.46204E-001	  3.27979E+000
  5.00000E-005	  1.13876E+000	  1.11845E+000	  9.67896E-001	  2.54189E+000
  5.62500E-005	  9.91257E-001	  1.18678E+000	  8.97614E-001	  2.09915E+000
  6.25000E-005	  1.65501E+000	  1.05011E+000	  6.86768E-001	  2.54189E+000
  6.87500E-005	  7.70006E-001	  6.40087E-001	  6.16486E-001	  2.09915E+000
  7.50000E-005	  1.13876E+000	  8.45098E-001	  1.24902E+000	  1.28747E+000
  8.12500E-005	  6.22506E-001	  9.13435E-001	  9.67896E-001	  1.36126E+000
  8.75000E-005	  6.96256E-001	  7.76761E-001	  1.94794E-001	  1.13989E+000
  9.37500E-005	  1.06501E+000	  9.13435E-001	  9.67896E-001	  1.28747E+000
  1.00000E-004	  7.33131E-001	  9.47604E-001	  9.67896E-001	  1.21368E+000
  1.12500E-004	  4.38130E-001	  8.45098E-001	  1.03818E+000	  1.06610E+000
  1.25000E-004	  4.38130E-001	  2.64234E-001	  3.70499E-001	  5.49577E-001
  1.37500E-004	  4.75005E-001	  9.47604E-001	  5.11063E-001	  7.34051E-001
  1.50000E-004	  5.85631E-001	  6.74256E-001	  5.11063E-001	  6.23367E-001
  1.62500E-004	  6.22506E-001	  2.50546E-002	  3.00217E-001	  6.97156E-001
  1.75000E-004	  4.38130E-001	  3.32571E-001	  8.93710E-002	  5.49577E-001
  1.87500E-004	  5.85631E-001	  6.40087E-001	  2.65076E-001	  8.07840E-001
  2.00000E-004	  5.30317E-001	  6.74255E-001	  6.34056E-001	  8.26287E-001
  2.25000E-004	  6.22505E-001	  6.74255E-001	  7.39479E-001	  5.31130E-001
  2.50000E-004	  4.75005E-001	  6.40087E-001	  3.35358E-001	  5.12682E-001
  2.75000E-004	  5.11880E-001	  7.08424E-001	  2.12364E-001	  7.34050E-001
  3.00000E-004	  4.38130E-001	  7.93845E-001	  3.52928E-001	  5.68024E-001
  3.25000E-004	  6.40943E-001	  5.88834E-001	  2.47505E-001	  7.34050E-001
  3.50000E-004	  4.75005E-001	  5.88834E-001	  6.16486E-001	  3.28209E-001
  3.75000E-004	  2.90629E-001	  6.74255E-001	  4.40781E-001	  4.20445E-001
  4.00000E-004	  4.19692E-001	  4.35075E-001	  5.72559E-001	  4.75787E-001
  4.50000E-004	  3.55160E-001	  3.92365E-001	  6.16485E-001	  6.14142E-001
  5.00000E-004	  8.62193E-001	  5.46123E-001	  6.07700E-001	  7.15602E-001
  5.50000E-004	  6.68598E-001	  4.94870E-001	  5.46203E-001	  5.12682E-001
  6.00000E-004	  6.22505E-001	  6.74255E-001	  5.54988E-001	  5.12682E-001
  6.50000E-004	  4.84223E-001	  3.06944E-001	  5.11062E-001	  4.48116E-001
  7.00000E-004	  5.94848E-001	  5.03412E-001	  3.70498E-001	  4.11221E-001
  7.50000E-004	  5.21098E-001	  4.00907E-001	  4.75921E-001	  6.60260E-001
  8.00000E-004	  3.64378E-001	  4.94869E-001	  4.93490E-001	  6.00305E-001
  9.00000E-004	  4.38128E-001	  4.52158E-001	  4.18816E-001	  6.27976E-001
  1.00000E-003	  4.33518E-001	  4.73514E-001	  4.31994E-001	  5.54187E-001
  1.10000E-003	  5.62581E-001	  4.56430E-001	  4.27601E-001	  6.00305E-001
  1.20000E-003	  5.21097E-001	  5.41851E-001	  5.59380E-001	  5.86470E-001
  1.30000E-003	  3.32112E-001	  4.69243E-001	  3.66163E-001	  5.35739E-001
  1.40000E-003	  5.48753E-001	  6.57169E-001	  5.15519E-001	  4.11220E-001
  1.50000E-003	  3.59768E-001	  6.74253E-001	  4.18877E-001	  4.06608E-001
  1.60000E-003	  3.87422E-001	  4.05204E-001	  5.28695E-001	  5.51878E-001
  1.80000E-003	  3.68985E-001	  4.24424E-001	  2.89287E-001	  4.25053E-001
  2.00000E-003	  4.75000E-001	  5.65372E-001	  3.59572E-001	  4.66559E-001
  2.20000E-003	  4.65782E-001	  3.68900E-001	  4.62803E-001	  5.14984E-001
  2.40000E-003	  3.11368E-001	  4.58594E-001	  3.46393E-001	  4.98842E-001
  2.60000E-003	  4.21993E-001	  4.45780E-001	  5.48462E-001	  4.48112E-001
  2.80000E-003	  4.63477E-001	  4.77814E-001	  5.17713E-001	  3.81241E-001
  3.00000E-003	  3.66680E-001	  4.82085E-001	  4.51821E-001	  4.41194E-001
  3.20000E-003	  3.09058E-001	  4.27653E-001	  3.69451E-001	  3.99714E-001
  3.60000E-003	  3.74742E-001	  3.97755E-001	  3.25523E-001	  3.46677E-001
  4.00000E-003	  3.82808E-001	  3.73166E-001	  3.62862E-001	  4.56210E-001
  4.40000E-003	  3.71285E-001	  4.12674E-001	  3.99102E-001	  3.78961E-001
  4.80000E-003	  3.50543E-001	  3.97725E-001	  4.71583E-001	  4.51598E-001
  5.20000E-003	  3.95484E-001	  3.66760E-001	  3.21130E-001	  3.80114E-001
  5.60000E-003	  3.30953E-001	  4.08403E-001	  3.77168E-001	  4.55057E-001
  6.00000E-003	  3.89722E-001	  4.32992E-001	  3.54105E-001	  4.22774E-001
  6.40000E-003	  3.46500E-001	  4.07386E-001	  3.65627E-001	  3.47881E-001
  7.20000E-003	  3.76461E-001	  3.80156E-001	  2.83261E-001	  3.29432E-001
  8.00000E-003	  2.90036E-001	  3.54528E-001	  3.18404E-001	  3.43845E-001
  8.80000E-003	  3.17116E-001	  3.91902E-001	  3.55743E-001	  3.86507E-001
  9.60000E-003	  2.90612E-001	  3.67876E-001	  3.44761E-001	  2.60223E-001
  1.04000E-002	  3.02712E-001	  3.05381E-001	  2.98087E-001	  3.64569E-001
  1.12000E-002	  2.41638E-001	  3.13979E-001	  3.15110E-001	  3.09802E-001
  1.20000E-002	  2.53738E-001	  3.84457E-001	  2.99186E-001	  3.46698E-001
  1.28000E-002	  2.69853E-001	  3.59402E-001	  2.85440E-001	  2.60029E-001
  1.44000E-002	  2.50552E-001	  2.97465E-001	  2.39865E-001	  2.72137E-001
  1.60000E-002	  2.45942E-001	  2.88655E-001	  2.55515E-001	  2.53948E-001
  1.76000E-002	  1.86022E-001	  2.23782E-001	  2.35198E-001	  1.99178E-001
  1.92000E-002	  2.16846E-001	  2.16040E-001	  1.93192E-001	  1.64298E-001
  2.08000E-002	  2.18863E-001	  2.23782E-001	  2.43983E-001	  1.64874E-001
  2.24000E-002	  1.89767E-001	  1.92547E-001	  1.78641E-001	  1.56778E-001
  2.40000E-002	  1.78532E-001	  1.78106E-001	  1.43224E-001	  2.05808E-001
  2.56000E-002	  1.67605E-001	  1.84957E-001	  1.61475E-001	  1.87314E-001
  2.88000E-002	  1.19351E-001	  1.55857E-001	  1.19195E-001	  1.62521E-001
  3.20000E-002	  1.21079E-001	  1.66535E-001	  1.28666E-001	  1.44673E-001
  3.52000E-002	  9.88968E-002	  1.29827E-001	  1.06840E-001	  1.09068E-001
  3.84000E-002	  1.02930E-001	  1.17947E-001	  9.75053E-002	  1.02005E-001
  4.16000E-002	  7.97392E-002	  1.30761E-001	  9.43480E-002	  6.58006E-002
  4.48000E-002	  7.95952E-002	  1.02996E-001	  6.95014E-002	  8.42510E-002
  4.80000E-002	  6.53350E-002	  7.87016E-002	  5.71467E-002	  7.62993E-002
  5.12000E-002	  5.50954E-002	  8.32274E-002	  6.09100E-002	  7.18913E-002
  5.76000E-002	  5.16149E-002	  4.61187E-002	  4.01818E-002	  3.96019E-002
  6.40000E-002	  3.97081E-002	  5.81991E-002	  4.52609E-002	  4.79162E-002
  7.04000E-002	  1.83896E-002	  3.87771E-002	  5.19186E-002	  5.14477E-002
  7.68000E-002	  6.14586E-003	  4.65192E-002	  2.82391E-002	  3.31416E-002
  8.32000E-002	  1.59408E-002	  3.04343E-002	  2.43955E-002	  5.02945E-002
  8.96000E-002	  1.05392E-002	  3.02121E-002	  2.94746E-002	  1.60607E-002
  9.60000E-002	  9.02674E-003	  2.66081E-002	  1.92478E-002	  5.01157E-003
  1.02400E-001	  1.15794E-002	  2.86530E-002	  1.61242E-002	  5.36857E-003
  1.15200E-001	  9.39078E-003	  1.44042E-002	  8.79267E-003	  1.21299E-002
  1.28000E-001	  3.87116E-003	  7.76359E-003	  2.37533E-003	  7.55309E-003
  1.40800E-001	  6.17642E-003	  1.15344E-002	  1.33569E-002	  5.57099E-003
  1.53600E-001	  3.72708E-003	  2.34566E-003	 -1.65258E-003	  1.66932E-002
  1.66400E-001	 -9.92025E-005	  8.42862E-003	  1.27953E-002	  3.94380E-003
  1.79200E-001	 -4.01273E-004	  6.38098E-003	  2.03673E-002	  1.88949E-003
  1.92000E-001	  9.43191E-003	  2.64326E-003	  4.25915E-003	  1.08138E-002
  2.04800E-001	  1.04236E-002	  8.02142E-003	 -1.47312E-003	  3.63336E-003
  2.30400E-001	  4.23579E-003	  4.83557E-004	 -9.13575E-003	 -2.28868E-003
  2.56000E-001	  5.02846E-003	  6.36220E-003	  2.99777E-003	  5.59350E-004
  2.81600E-001	 -2.89631E-003	  7.71389E-003	  3.29402E-003	  7.04853E-003
  3.07200E-001	  2.06570E-003	  7.76395E-003	  3.35000E-003	  1.73514E-003
  3.32800E-001	  2.38581E-003	  6.76744E-003	  3.26418E-003	 -1.14483E-002
  3.58400E-001	 -1.05893E-003	  9.19198E-003	  4.54687E-003	 -1.45722E-003
  3.84000E-001	  7.24106E-003	  4.61469E-003	  5.03338E-005	  3.04549E-003
  4.09600E-001	  4.59137E-003	  6.36061E-004	  1.10505E-003	  3.61278E-003
  4.60800E-001	  4.06668E-003	 -4.12420E-003	 -5.25555E-004	  6.43088E-003
  5.12000E-001	 -2.29757E-004	 -5.71867E-003	 -1.01867E-002	  2.05518E-003
  5.63200E-001	  5.81349E-003	 -1.01491E-002	  2.32872E-003	  7.87392E-003
  6.14400E-001	  6.61696E-004	 -1.23191E-002	 -4.41839E-003	  1.07359E-003
  6.65600E-001	  3.42950E-004	  7.21996E-003	  3.20798E-003	  7.98913E-004
  7.16800E-001	  2.08382E-003	  1.60404E-003	  3.21261E-005	  9.54463E-005
  7.68000E-001	 -2.04756E-003	  2.68242E-003	  4.72723E-003	 -6.05142E-003
  8.19200E-001	 -7.45927E-003	 -1.56439E-003	  1.29978E-003	  4.03100E-003
  9.21600E-001	  4.53391E-003	 -5.30547E-003	 -4.89026E-003	  4.84825E-003
  1.02400E+000	  2.70075E-003	 -5.42187E-003	 -8.20651E-003	  4.36112E-003
  1.12640E+000	 -1.24556E-003	 -2.96947E-003	 -4.41738E-003	 -4.95460E-003
  1.22880E+000	  5.38935E-003	 -3.95876E-003	 -1.33572E-003	 -3.65501E-003
  1.33120E+000	 -1.82832E-003	  2.60960E-003	 -5.31730E-004	 -4.38603E-003
  1.43360E+000	  4.81436E-004	  5.14441E-003	 -3.42830E-003	  3.90921E-003
  1.53600E+000	  2.50001E-003	  1.46746E-004	 -1.73908E-003	  3.62595E-003
  1.63840E+000	  3.96434E-003	 -2.54290E-005	 -3.88417E-003	  1.61113E-003
  1.84320E+000	 -2.22833E-003	  1.75744E-003	 -7.57854E-003	 -3.18560E-003
  2.04800E+000	 -3.73267E-004	 -5.11106E-003	  1.59494E-003	 -7.59423E-004
  2.25280E+000	 -7.90450E-004	 -1.18940E-003	  1.87616E-004	  1.82918E-003
  2.45760E+000	  2.15266E-003	  5.41458E-003	 -3.99177E-003	 -1.60593E-005
  2.66240E+000	  2.51662E-003	 -2.10697E-003	 -3.40378E-004	 -1.80193E-003
  2.86720E+000	  7.31379E-005	  2.55410E-003	  4.31209E-003	  3.39188E-003
  3.07200E+000	  2.81461E-003	  7.12800E-004	  2.01707E-003	  4.46344E-003
  3.27680E+000	  7.47411E-004	  3.76897E-003	  1.95899E-003	  1.67319E-003
  3.68640E+000	  8.59131E-004	  3.35000E-003	  3.80676E-004	  7.74936E-004
  4.09600E+000	  2.76652E-003	 -7.98594E-004	 -1.82541E-003	  3.64740E-004
  4.50560E+000	  1.00944E-003	  1.90275E-003	 -1.30550E-003	  1.25162E-003
  4.91520E+000	 -4.64437E-004	  1.22192E-003	  7.64682E-005	  2.40481E-003
  5.32480E+000	 -2.34360E-003	  2.97457E-003	 -5.57632E-004	 -5.98796E-004
  5.73440E+000	 -1.23330E-003	  1.95646E-003	 -4.39853E-003	 -6.33776E-004
  6.14400E+000	  4.65990E-003	  1.89374E-003	  1.37951E-003	  3.40680E-003
  6.55360E+000	  3.13416E-003	 -1.01174E-003	  5.80494E-004	  4.29078E-003
  7.37280E+000	 -5.47416E-004	 -7.54702E-004	 -3.80497E-003	 -3.90359E-003
  8.19200E+000	  4.03220E-004	  1.09228E-003	  2.66228E-003	 -1.37476E-003
  9.01120E+000	  2.03323E-003	 -1.61480E-003	 -2.37706E-003	  3.03662E-005
  9.83040E+000	 -1.38703E-003	  1.69611E-003	  2.59260E-003	 -1.08950E-003
  1.06496E+001	 -8.72723E-004	 -1.46285E-003	  7.03955E-004	 -7.36236E-004
  1.14688E+001	  1.62378E-004	 -2.70526E-005	  2.52712E-003	 -1.55291E-004
  1.22880E+001	 -1.02478E-005	  1.14294E-003	  4.27689E-004	 -4.94527E-004
  1.31072E+001	  8.02485E-004	 -5.83919E-004	  1.12209E-003	 -6.04975E-004
  1.47456E+001	  1.47580E-003	  4.57859E-004	 -1.90574E-004	  2.36817E-004
  1.63840E+001	  9.55012E-004	 -5.50522E-004	  1.26422E-003	 -5.68290E-004
  1.80224E+001	  1.80359E-004	  6.25799E-005	  2.13377E-005	  2.24969E-003
  1.96608E+001	 -1.70256E-003	 -1.60003E-003	  3.77743E-004	  2.46108E-004
  2.12992E+001	 -8.25334E-004	 -1.50437E-003	 -1.78216E-003	 -5.29849E-004
  2.29376E+001	 -5.47145E-005	 -2.17778E-003	  3.69318E-004	  3.00043E-003
  2.45760E+001	  1.08847E-003	  1.68092E-003	 -5.31337E-004	 -1.08214E-003
  2.62144E+001	 -4.32307E-004	  9.47461E-005	  1.32969E-003	 -1.32418E-004
  2.94912E+001	 -2.77224E-004	 -4.35717E-004	 -1.74708E-003	 -1.53039E-004
  3.27680E+001	  8.57005E-004	 -6.82452E-004	 -1.14163E-003	 -7.76471E-004
  3.60448E+001	  1.18021E-003	 -5.52411E-004	  5.35516E-004	 -2.41201E-003
  3.93216E+001	  7.15682E-004	  2.72448E-004	  2.25167E-004	  1.62281E-003
  4.25984E+001	 -2.22460E-004	  2.04998E-003	  2.19483E-004	 -9.15589E-004
  4.58752E+001	  8.31891E-005	 -1.34437E-003	  3.94627E-005	 -2.42116E-005
  4.91520E+001	 -4.49183E-006	 -8.83248E-004	 -1.13765E-003	  3.43867E-004
  5.24288E+001	 -9.39103E-004	  3.20315E-004	  1.80503E-004	  1.73522E-003
  5.89824E+001	 -3.00408E-004	 -2.47197E-004	 -3.81068E-004	 -1.08999E-003
  6.55360E+001	  1.12252E-003	  1.75880E-003	 -1.04686E-003	 -7.77382E-004
  7.20896E+001	  7.96783E-004	 -8.43817E-004	  1.06348E-003	  6.29530E-004
  7.86432E+001	  7.64321E-004	  1.15851E-003	 -4.55141E-006	 -1.31035E-003
  8.51968E+001	 -4.23992E-004	 -1.03013E-003	  2.76332E-005	 -1.94239E-004
  9.17504E+001	 -9.47481E-004	  1.95743E-004	  1.70235E-004	  9.29407E-004
  9.83040E+001	 -5.89184E-004	 -7.55304E-004	  1.38048E-003	  2.34010E-004
  1.04858E+002	 -1.24657E-005	 -1.32176E-003	  4.99209E-005	  3.59389E-004
  1.17965E+002	  1.83951E-004	 -5.73289E-004	  2.34043E-004	 -1.12291E-004
  1.31072E+002	  2.01601E-004	 -3.68447E-004	 -3.59229E-005	 -3.89723E-004
  1.44179E+002	  1.33719E-004	  8.17794E-004	  6.48560E-005	 -3.41055E-004
  1.57286E+002	  1.32270E-004	 -1.06177E-003	  1.05689E-004	 -4.63014E-004
  1.70394E+002	 -5.57850E-004	 -1.27058E-003	 -1.85444E-004	 -7.91261E-004
  1.83501E+002	  5.16807E-005	 -4.24216E-004	 -4.14345E-004	 -3.07493E-004
  1.96608E+002	  6.12410E-004	  2.00615E-003	 -1.11484E-004	 -1.98803E-004
  2.09715E+002	  4.93779E-004	  9.56633E-004	 -7.09180E-005	  1.66588E-004
  2.35930E+002	  6.35787E-004	  3.93916E-005	  1.17941E-004	 -4.82479E-004
  2.62144E+002	 -6.31387E-004	  1.25345E-003	 -2.86736E-004	 -5.24671E-004
  2.88358E+002	  4.37647E-004	 -2.33703E-004	 -7.50479E-005	  1.77701E-004
  3.14573E+002	 -1.05421E-003	 -5.83934E-004	 -1.80161E-004	  7.22462E-004
  3.40787E+002	 -2.41592E-004	  2.70142E-004	 -1.17218E-004	  6.93219E-004
  3.67002E+002	  6.32218E-004	 -1.15458E-003	 -7.15414E-005	  2.58375E-004
  3.93216E+002	 -6.49141E-004	 -1.06976E-006	 -1.46650E-004	  7.29038E-005

"Count Rate"
       0.01311	      46.38672	      50.81177	      47.91260	      46.92078
       0.02621	      42.87720	      46.31042	      47.45483	      50.96436
       0.03932	      42.03796	      53.55835	      45.01343	      52.87170
       0.05243	      45.01343	      52.79541	      46.69189	      44.55566
       0.06554	      42.49573	      50.50659	      47.60742	      48.21777
       0.07864	      47.30225	      50.12512	      52.41394	      44.63196
       0.09175	      46.84448	      50.20142	      51.42212	      49.66736
       0.10486	      48.52295	      51.57471	      52.10876	      48.44666
       0.11796	      48.75183	      51.04065	      48.52295	      46.76819
       0.13107	      51.42212	      47.68372	      47.45483	      47.83630
       0.14418	      42.03796	      47.60742	      48.67554	      47.30225
       0.15729	      49.28589	      51.26953	      47.53113	      47.76001
       0.17039	      51.95618	      50.12512	      51.19324	      48.21777
       0.18350	      50.88806	      45.70007	      48.67554	      47.60742
       0.19661	      48.14148	      49.59106	      44.47937	      40.96985
       0.20972	      41.65649	      47.07336	      49.05701	      45.70007
       0.22282	      45.62378	      45.08972	      49.66736	      48.82813
       0.23593	      45.16602	      49.89624	      52.64282	      47.98889
       0.24904	      47.45483	      46.00525	      45.85266	      44.63196
       0.26214	      51.65100	      51.19324	      48.75183	      45.47119
       0.27525	      42.80090	      46.23413	      46.15784	      52.79541
       0.28836	      42.34314	      46.99707	      46.92078	      45.47119
       0.30147	      49.81995	      47.45483	      46.76819	      45.47119
       0.31457	      49.28589	      49.59106	      49.20959	      44.63196
       0.32768	      47.76001	      54.16870	      49.43848	      49.36218
       0.34079	      43.79272	      52.26135	      49.28589	      48.82813
       0.35389	      48.52295	      50.04883	      47.45483	      43.79272
       0.36700	      40.05432	      46.31042	      46.99707	      47.45483
       0.38011	      48.90442	      45.77637	      51.72729	      47.37854
       0.39322	      49.51477	      56.68640	      49.05701	      48.14148
       0.40632	      42.64832	      46.38672	      46.38672	      50.73547
       0.41943	      46.99707	      45.01343	      48.29407	      51.42212
       0.43254	      48.44666	      47.14966	      46.23413	      49.20959
       0.44564	      41.73279	      46.46301	      44.09790	      49.20959
       0.45875	      47.68372	      45.70007	      50.35400	      46.76819
       0.47186	      44.63196	      50.12512	      49.20959	      47.14966
       0.48497	      45.62378	      44.86084	      49.51477	      47.45483
       0.49807	      48.67554	      47.60742	      47.76001	      43.64014
       0.51118	      44.70825	      49.36218	      51.57471	      42.72461
       0.52429	      47.37854	      47.53113	      42.19055	      42.87720
       0.53740	      53.02429	      55.00793	      45.31860	      44.09790
       0.55050	      50.81177	      48.06519	      48.52295	      48.59924
       0.56361	      45.54749	      47.53113	      46.31042	      51.87988
       0.57672	      44.70825	      49.89624	      50.04883	      41.73279
       0.58982	      47.60742	      56.22864	      48.59924	      44.40308
       0.60293	      50.50659	      52.26135	      47.30225	      43.79272
       0.61604	      50.81177	      43.94531	      48.90442	      42.87720
       0.62915	      46.31042	      47.30225	      46.53931	      47.30225
       0.64225	      48.67554	      51.72729	      44.47937	      49.05701
       0.65536	      48.90442	      47.22595	      47.37854	      49.20959
       0.66847	      43.94531	      45.54749	      48.52295	      45.77637
       0.68157	      45.54749	      49.66736	      50.96436	      48.67554
       0.69468	      47.45483	      42.41943	      48.59924	      44.17419
       0.70779	      43.64014	      51.65100	      46.61560	      47.22595
       0.72090	      55.23682	      49.20959	      44.17419	      48.21777
       0.73400	      47.53113	      54.62646	      51.95618	      49.20959
       0.74711	      49.66736	      44.63196	      49.43848	      48.21777
