ALV-7004/USB-FAST
Date :	"11/11/2025"
Time :	"3:56:26 PM"
Samplename : 	""
SampMemo(0) : 	""
SampMemo(1) : 	""
SampMemo(2) : 	""
SampMemo(3) : 	""
SampMemo(4) : 	""
SampMemo(5) : 	""
SampMemo(6) : 	""
SampMemo(7) : 	""
SampMemo(8) : 	""
SampMemo(9) : 	""
Temperature [K] :	     298.16000
Viscosity [cp]  :	       0.89000
Refractive Index:	       1.33200
Wavelength [nm] :	       0.00000
Angle [°]       :	       0.00000
Duration [s]    :	         1
FloatDur [ms]   :	          944
Stop TP [ms]   :	     67050
Runs            :	         1
Mode            :	"A-CH0+1  A-CH2+3 "
MeanCR0 [kHz]   :	      51.68491
MeanCR1 [kHz]   :	      53.49689
MeanCR2 [kHz]   :	      53.94830
MeanCR3 [kHz]   :	      54.20685

"Correlation"
  3.12500E-006	 -1.00000E+000	 -1.00000E+000	 -1.00000E+000	 -1.00000E+000
  6.25000E-006	 -1.00000E+000	 -1.00000E+000	 -1.00000E+000	 -1.00000E+000
  9.37500E-006	 -1.00000E+000	 -1.00000E+000	 -1.00000E+000	 -1.00000E+000
  1.25000E-005	 -1.00000E+000	 -1.00000E+000	 -1.00000E+000	 -1.00000E+000
  1.56250E-005	 -1.00000E+000	 -1.00000E+000	 -1.00000E+000	 -1.00000E+000
  1.87500E-005	 -1.00000E+000	 -1.00000E+000	 -1.00000E+000	 -1.00000E+000
  2.18750E-005	 -1.00000E+000	  1.01419E+000	  1.56315E+000	 -8.84602E-001
  2.50000E-005	  1.42322E+001	  1.44026E+001	  1.34469E+001	  2.47338E+001
  2.81250E-005	  3.69658E+000	  2.19900E+000	  2.14569E+000	  8.57805E+000
  3.12500E-005	  2.42723E+000	  6.58741E-001	  1.56315E+000	  6.15469E+000
  3.43750E-005	  2.55417E+000	  6.58741E-001	  9.80619E-001	  4.19292E+000
  3.75000E-005	  9.04019E-001	  1.84356E+000	  3.98084E-001	  2.80814E+000
  4.06250E-005	  2.68110E+000	  8.95704E-001	  7.47605E-001	  3.84673E+000
  4.37500E-005	  1.15789E+000	  1.60659E+000	  6.31098E-001	  2.46195E+000
  4.68750E-005	  1.41176E+000	  8.95704E-001	  1.21363E+000	  3.15434E+000
  5.00000E-005	  1.03095E+000	  8.36463E-001	  1.03887E+000	  2.40425E+000
  5.62500E-005	  1.54767E-002	  7.17981E-001	  5.14591E-001	  2.34655E+000
  6.25000E-005	  9.67486E-001	  6.58741E-001	  1.15538E+000	  1.94266E+000
  6.87500E-005	  5.86682E-001	  5.40259E-001	  1.09713E+000	  2.05805E+000
  7.50000E-005	  9.04019E-001	  4.21778E-001	  4.56338E-001	  1.42336E+000
  8.12500E-005	  1.03095E+000	  6.58741E-001	  3.98084E-001	  1.25027E+000
  8.75000E-005	  5.23215E-001	  6.58741E-001	  5.14591E-001	  1.42336E+000
  9.37500E-005	  7.13617E-001	  8.95703E-001	  8.64112E-001	  1.42336E+000
  1.00000E-004	  5.86682E-001	  8.36463E-001	  8.64112E-001	  1.19257E+000
  1.12500E-004	  8.08818E-001	  2.14435E-001	  3.68957E-001	  7.30973E-001
  1.25000E-004	  5.23215E-001	  3.03296E-001	  4.56337E-001	  8.75221E-001
  1.37500E-004	  4.91481E-001	  6.58740E-001	  5.43718E-001	  6.15575E-001
  1.50000E-004	  3.32813E-001	  7.77222E-001	  6.89351E-001	  4.71327E-001
  1.62500E-004	  7.45350E-001	  6.29120E-001	  8.05858E-001	  2.69381E-001
  1.75000E-004	  5.86682E-001	  5.99500E-001	  5.72844E-001	  5.00177E-001
  1.87500E-004	  1.74145E-001	  5.40259E-001	  7.76732E-001	  2.40531E-001
  2.00000E-004	  3.13432E-002	  5.99499E-001	  4.70900E-001	  3.99203E-001
  2.25000E-004	  2.21745E-001	  6.14309E-001	  5.00027E-001	  4.13628E-001
  2.50000E-004	  4.28014E-001	  5.69879E-001	  4.85464E-001	  3.84778E-001
  2.75000E-004	  4.43881E-001	  6.14309E-001	  3.83520E-001	  7.02124E-001
  3.00000E-004	  8.72285E-001	  1.84814E-001	  4.27210E-001	  3.70354E-001
  3.25000E-004	  5.07348E-001	  6.88360E-001	  6.60224E-001	  3.84778E-001
  3.50000E-004	  3.64546E-001	  4.21777E-001	  3.25267E-001	  5.00177E-001
  3.75000E-004	  5.86682E-001	  7.32791E-001	  3.98084E-001	  4.28053E-001
  4.00000E-004	  3.80413E-001	  6.06904E-001	  3.25266E-001	  4.49689E-001
  4.50000E-004	  5.47014E-001	  4.51397E-001	  3.98083E-001	  4.28052E-001
  5.00000E-004	  3.96279E-001	  7.17980E-001	  4.85463E-001	  4.28052E-001
  5.50000E-004	  5.47014E-001	  5.92094E-001	  3.90801E-001	  5.21813E-001
  6.00000E-004	  7.21549E-001	  6.14309E-001	  3.39830E-001	  5.93937E-001
  6.50000E-004	  3.80413E-001	  4.95827E-001	  4.49055E-001	  5.50663E-001
  7.00000E-004	  2.77278E-001	  3.32916E-001	  6.96632E-001	  3.55928E-001
  7.50000E-004	  4.12146E-001	  4.36587E-001	  5.36435E-001	  4.71327E-001
  8.00000E-004	  4.47845E-001	  5.80985E-001	  4.78180E-001	  5.10993E-001
  9.00000E-004	  4.79579E-001	  4.58801E-001	  5.98328E-001	  4.02808E-001
  1.00000E-003	  4.47845E-001	  5.99497E-001	  5.14589E-001	  3.95595E-001
  1.10000E-003	  3.16944E-001	  3.92155E-001	  4.70899E-001	  4.89356E-001
  1.20000E-003	  4.99412E-001	  4.58801E-001	  5.29152E-001	  5.07387E-001
  1.30000E-003	  4.63712E-001	  5.32852E-001	  4.81821E-001	  3.70352E-001
  1.40000E-003	  4.67679E-001	  5.40257E-001	  4.41772E-001	  3.48715E-001
  1.50000E-003	  5.11313E-001	  3.88453E-001	  4.81821E-001	  4.24445E-001
  1.60000E-003	  5.21227E-001	  4.53273E-001	  4.39949E-001	  4.10018E-001
  1.80000E-003	  5.60894E-001	  4.60678E-001	  4.70896E-001	  4.31655E-001
  2.00000E-003	  5.29160E-001	  5.06961E-001	  5.00023E-001	  4.11821E-001
  2.20000E-003	  4.69660E-001	  4.73638E-001	  4.12643E-001	  3.82971E-001
  2.40000E-003	  5.21227E-001	  5.12515E-001	  5.32790E-001	  4.76732E-001
  2.60000E-003	  4.16109E-001	  5.14366E-001	  5.23688E-001	  4.56898E-001
  2.80000E-003	  5.25193E-001	  4.53273E-001	  3.63492E-001	  4.01002E-001
  3.00000E-003	  4.69660E-001	  5.25474E-001	  4.23565E-001	  4.22639E-001
  3.20000E-003	  4.42880E-001	  4.69959E-001	  3.98075E-001	  4.28044E-001
  3.60000E-003	  4.25030E-001	  4.89369E-001	  4.15369E-001	  4.79432E-001
  4.00000E-003	  4.86513E-001	  5.53238E-001	  4.79993E-001	  4.74924E-001
  4.40000E-003	  4.57755E-001	  4.76410E-001	  4.55418E-001	  4.89349E-001
  4.80000E-003	  4.92463E-001	  5.73603E-001	  4.07204E-001	  4.74924E-001
  5.20000E-003	  4.52796E-001	  5.14361E-001	  4.03564E-001	  4.31650E-001
  5.60000E-003	  4.54780E-001	  4.36607E-001	  4.18127E-001	  4.44272E-001
  6.00000E-003	  4.88496E-001	  5.16212E-001	  4.17217E-001	  4.80333E-001
  6.40000E-003	  4.69179E-001	  4.80161E-001	  4.51795E-001	  4.59137E-001
  7.20000E-003	  4.90996E-001	  4.97286E-001	  4.70455E-001	  4.82577E-001
  8.00000E-003	  5.08846E-001	  4.69515E-001	  5.11415E-001	  4.41557E-001
  8.80000E-003	  3.96290E-001	  4.70904E-001	  4.64994E-001	  4.20822E-001
  9.60000E-003	  4.76121E-001	  4.81549E-001	  4.39052E-001	  4.26682E-001
  1.04000E-002	  5.39093E-001	  5.17621E-001	  4.33136E-001	  4.13159E-001
  1.12000E-002	  4.67196E-001	  4.32923E-001	  4.51795E-001	  4.61391E-001
  1.20000E-002	  4.99425E-001	  4.42179E-001	  4.80922E-001	  5.11877E-001
  1.28000E-002	  4.40678E-001	  4.72302E-001	  4.89322E-001	  4.69149E-001
  1.44000E-002	  4.32745E-001	  5.01924E-001	  4.47225E-001	  4.15053E-001
  1.60000E-002	  4.23819E-001	  4.66053E-001	  4.66567E-001	  4.51342E-001
  1.76000E-002	  4.14646E-001	  4.79215E-001	  4.36302E-001	  4.29479E-001
  1.92000E-002	  4.39409E-001	  4.70421E-001	  4.53596E-001	  4.74784E-001
  2.08000E-002	  4.98909E-001	  4.74587E-001	  4.42446E-001	  4.28577E-001
  2.24000E-002	  4.71886E-001	  4.81529E-001	  4.39516E-001	  4.38945E-001
  2.40000E-002	  4.49326E-001	  4.85897E-001	  4.24725E-001	  4.56527E-001
  2.56000E-002	  4.50615E-001	  4.68936E-001	  4.48067E-001	  4.68886E-001
  2.88000E-002	  4.61772E-001	  4.94163E-001	  4.37827E-001	  4.68519E-001
  3.20000E-002	  4.46400E-001	  4.83285E-001	  4.22581E-001	  4.51698E-001
  3.52000E-002	  4.44417E-001	  4.77731E-001	  4.37600E-001	  4.50768E-001
  3.84000E-002	  4.76771E-001	  4.80971E-001	  4.39989E-001	  4.47838E-001
  4.16000E-002	  4.47764E-001	  4.92427E-001	  4.11913E-001	  4.59897E-001
  4.48000E-002	  4.44263E-001	  4.84760E-001	  4.28326E-001	  4.39611E-001
  4.80000E-002	  4.58643E-001	  4.62427E-001	  4.48437E-001	  4.52346E-001
  5.12000E-002	  4.46718E-001	  4.74703E-001	  4.39255E-001	  4.48859E-001
  5.76000E-002	  4.57318E-001	  4.68916E-001	  4.48871E-001	  4.32404E-001
  6.40000E-002	  4.34631E-001	  4.77305E-001	  4.24404E-001	  4.49422E-001
  7.04000E-002	  4.37577E-001	  4.66659E-001	  4.49895E-001	  4.26825E-001
  7.68000E-002	  4.56080E-001	  4.46869E-001	  4.26253E-001	  4.42716E-001
  8.32000E-002	  4.37795E-001	  4.54970E-001	  4.41388E-001	  4.36659E-001
  8.96000E-002	  4.45047E-001	  4.78347E-001	  4.12425E-001	  4.47957E-001
  9.60000E-002	  4.34233E-001	  4.53842E-001	  4.18655E-001	  4.31334E-001
  1.02400E-001	  4.30060E-001	  4.55273E-001	  4.13032E-001	  4.42250E-001
  1.15200E-001	  4.25289E-001	  4.57009E-001	  4.17158E-001	  4.20806E-001
  1.28000E-001	  4.19648E-001	  4.54926E-001	  4.01307E-001	  4.21397E-001
  1.40800E-001	  4.33936E-001	  4.54405E-001	  4.11865E-001	  4.32500E-001
  1.53600E-001	  4.25910E-001	  4.51251E-001	  4.05093E-001	  4.13592E-001
  1.66400E-001	  4.05393E-001	  4.38318E-001	  4.07513E-001	  4.17171E-001
  1.79200E-001	  4.12029E-001	  4.47549E-001	  4.14342E-001	  4.05871E-001
  1.92000E-001	  4.17019E-001	  4.38348E-001	  4.08907E-001	  4.06605E-001
  2.04800E-001	  4.08241E-001	  4.43893E-001	  4.00546E-001	  4.08485E-001
  2.30400E-001	  3.94460E-001	  4.28490E-001	  3.90614E-001	  4.04708E-001
  2.56000E-001	  3.95721E-001	  4.08397E-001	  3.83045E-001	  3.92405E-001
  2.81600E-001	  3.84050E-001	  4.15205E-001	  3.80143E-001	  3.88673E-001
  3.07200E-001	  3.76087E-001	  4.02934E-001	  3.71251E-001	  3.81708E-001
  3.32800E-001	  3.69176E-001	  3.98539E-001	  3.65629E-001	  3.63637E-001
  3.58400E-001	  3.68701E-001	  3.92127E-001	  3.50506E-001	  3.69951E-001
  3.84000E-001	  3.62724E-001	  3.76138E-001	  3.47430E-001	  3.67270E-001
  4.09600E-001	  3.46811E-001	  3.71795E-001	  3.39909E-001	  3.60329E-001
  4.60800E-001	  3.35058E-001	  3.53561E-001	  3.22370E-001	  3.43995E-001
  5.12000E-001	  3.20891E-001	  3.37188E-001	  3.08144E-001	  3.34473E-001
  5.63200E-001	  3.10993E-001	  3.22032E-001	  2.95491E-001	  3.08625E-001
  6.14400E-001	  2.92953E-001	  3.13046E-001	  2.86176E-001	  2.98385E-001
  6.65600E-001	  2.76416E-001	  2.99796E-001	  2.71245E-001	  2.83301E-001
  7.16800E-001	  2.61797E-001	  2.82982E-001	  2.54263E-001	  2.64800E-001
  7.68000E-001	  2.55050E-001	  2.68868E-001	  2.44205E-001	  2.56018E-001
  8.19200E-001	  2.37331E-001	  2.50786E-001	  2.31246E-001	  2.44690E-001
  9.21600E-001	  2.11800E-001	  2.22986E-001	  2.06564E-001	  2.20301E-001
  1.02400E+000	  1.88310E-001	  2.05125E-001	  1.88598E-001	  1.93897E-001
  1.12640E+000	  1.61657E-001	  1.80533E-001	  1.67504E-001	  1.71661E-001
  1.22880E+000	  1.42500E-001	  1.55520E-001	  1.52576E-001	  1.50941E-001
  1.33120E+000	  1.21324E-001	  1.38916E-001	  1.39042E-001	  1.35612E-001
  1.43360E+000	  1.06594E-001	  1.19056E-001	  1.24294E-001	  1.16824E-001
  1.53600E+000	  8.89992E-002	  1.00806E-001	  1.10640E-001	  9.91707E-002
  1.63840E+000	  7.81595E-002	  9.35335E-002	  9.52065E-002	  8.60959E-002
  1.84320E+000	  5.65202E-002	  7.81893E-002	  7.33841E-002	  6.16848E-002
  2.04800E+000	  4.44525E-002	  6.48183E-002	  5.73374E-002	  4.21533E-002
  2.25280E+000	  3.42236E-002	  4.91491E-002	  4.34437E-002	  2.80521E-002
  2.45760E+000	  2.52357E-002	  3.80110E-002	  2.92559E-002	  1.82388E-002
  2.66240E+000	  1.67607E-002	  2.65504E-002	  1.72682E-002	  1.29659E-002
  2.86720E+000	  1.16362E-002	  1.81399E-002	  7.49325E-003	  3.20802E-003
  3.07200E+000	  3.23877E-003	  1.11624E-002	  5.18652E-003	  1.60606E-003
  3.27680E+000	 -3.54401E-003	  1.00957E-002	  4.15708E-003	 -1.45151E-003
  3.68640E+000	 -9.31347E-003	  8.93704E-003	 -4.49669E-003	 -6.52283E-003
  4.09600E+000	 -9.58109E-003	  1.27725E-002	 -1.41105E-002	 -6.66486E-003
  4.50560E+000	  2.48202E-003	  1.23977E-002	 -8.47794E-003	 -1.08450E-002
  4.91520E+000	  1.19326E-002	  9.79358E-003	 -3.87388E-003	 -1.69245E-002
  5.32480E+000	  1.26888E-002	  2.49393E-003	 -8.39056E-004	 -2.67314E-002
  5.73440E+000	  1.08615E-002	  1.18391E-003	 -7.29672E-004	 -2.60007E-002
  6.14400E+000	  8.29135E-003	  4.57805E-003	 -6.88384E-003	 -2.22955E-002
  6.55360E+000	 -4.01253E-003	  3.97308E-004	 -1.61962E-002	 -1.51255E-002
  7.37280E+000	 -3.78413E-003	  1.93697E-003	 -1.59267E-002	 -1.16366E-002
  8.19200E+000	  1.89134E-003	  7.69556E-003	 -1.22542E-002	 -1.30732E-002
  9.01120E+000	 -2.77564E-003	  1.39039E-003	  3.11073E-003	 -1.26039E-002
  9.83040E+000	 -1.09527E-002	 -3.54081E-003	  1.84173E-002	 -9.95487E-003
  1.06496E+001	 -1.37642E-002	 -2.44548E-003	  2.13713E-002	 -2.97528E-003
  1.14688E+001	 -1.51015E-002	  9.75508E-005	  7.64644E-003	 -7.15246E-003
  1.22880E+001	 -2.04184E-002	 -1.21050E-002	  9.10717E-004	 -1.83775E-002
  1.31072E+001	 -2.12695E-002	 -2.27399E-002	  4.53568E-003	 -2.94783E-002
  1.47456E+001	 -1.03005E-002	 -1.28799E-002	  7.40044E-003	 -5.19551E-003
  1.63840E+001	  1.15612E-003	 -2.54346E-002	  1.87270E-002	 -4.98827E-003
  1.80224E+001	  8.89214E-003	 -3.00035E-002	  2.71851E-002	  1.23304E-002
  1.96608E+001	  3.19988E-003	 -1.37130E-002	  1.61366E-002	  1.82490E-002
  2.12992E+001	  1.93330E-002	 -1.95665E-002	 -1.34612E-002	  1.63855E-002
  2.29376E+001	  3.02368E-002	 -1.63265E-002	 -2.28429E-002	  2.13764E-003
  2.45760E+001	  1.74601E-002	 -7.51391E-003	 -2.70943E-002	  1.91602E-002
  2.62144E+001	  9.68041E-004	  1.06653E-003	 -2.02600E-002	  2.62519E-002
  2.94912E+001	  1.35721E-002	 -1.92928E-002	 -1.88053E-003	 -2.09405E-003
  3.27680E+001	 -2.45306E-004	 -5.53825E-003	 -2.42654E-003	 -1.38209E-004
  3.60448E+001	 -5.22217E-003	 -1.45303E-002	  8.80659E-005	  1.26029E-002
  3.93216E+001	  7.92893E-003	 -1.32524E-002	  2.85296E-003	  2.53526E-002
  4.25984E+001	 -4.43385E-003	 -3.59764E-004	  8.18565E-003	  6.43846E-003
  4.58752E+001	 -9.03965E-004	 -9.19124E-005	  1.87357E-002	  8.29632E-003
  4.91520E+001	 -3.78368E-003	  3.23472E-002	  7.58959E-003	 -2.50259E-002
  5.24288E+001	  7.65042E-003	  2.35049E-002	  2.31476E-003	 -1.78027E-002
  5.89824E+001	 -6.83395E-003	  7.92826E-003	 -1.10353E-002	  8.72608E-003
  6.55360E+001	 -7.82976E-003	 -6.64739E-003	  2.83106E-003	  9.98562E-003
  7.20896E+001	 -2.52667E-003	 -1.00266E-002	  8.16217E-003	 -3.66461E-003
  7.86432E+001	  5.18836E-003	  5.42962E-003	 -3.63460E-003	 -6.33848E-003
  8.51968E+001	 -1.68055E-002	 -1.50594E-002	 -4.66279E-005	  1.85143E-002
  9.17504E+001	 -1.46938E-002	 -2.27350E-002	  1.06767E-002	 -6.33190E-003
  9.83040E+001	  8.42405E-003	  2.65278E-003	 -7.62476E-003	  1.11682E-002
  1.04858E+002	  9.65884E-003	  1.71186E-002	 -2.14159E-003	  3.77078E-004
  1.17965E+002	 -3.07383E-003	  1.34424E-002	  1.14041E-002	  2.82236E-003
  1.31072E+002	  1.79814E-003	 -2.58989E-002	  4.72061E-004	 -2.38343E-002
  1.44179E+002	 -8.50363E-004	 -1.14536E-002	 -3.46431E-003	  6.59026E-003
  1.57286E+002	  7.36800E-003	  7.51883E-003	 -1.99917E-002	 -8.71221E-003
  1.70394E+002	  1.62417E-003	  1.16811E-002	 -2.85908E-003	 -1.20170E-002
  1.83501E+002	 -2.69451E-003	  1.49531E-002	  7.51759E-003	  5.71491E-003
  1.96608E+002	  4.74467E-003	 -1.22843E-002	 -1.31153E-002	 -6.82606E-003
  2.09715E+002	  2.23555E-003	  1.38627E-003	 -3.38966E-003	  8.90532E-004
  2.35930E+002	 -2.59828E-004	 -7.39464E-003	 -1.15384E-002	  1.24196E-003
  2.62144E+002	 -1.66544E-003	 -2.00340E-003	 -1.48621E-003	  8.39151E-003
  2.88358E+002	 -4.23650E-003	  7.92221E-003	 -7.64778E-003	  1.56572E-003
  3.14573E+002	 -1.37812E-002	 -1.04982E-002	 -2.93854E-003	  6.67851E-003
  3.40787E+002	 -1.07377E-002	 -4.12353E-003	 -1.91739E-003	  8.25417E-003
  3.67002E+002	  4.95205E-003	  8.27785E-003	  5.78433E-003	  8.52679E-003
  3.93216E+002	  1.07676E-002	  1.73041E-003	 -3.89045E-003	 -8.67424E-003

"Count Rate"
       0.01311	      79.49829	      66.37573	      46.92078	      55.69458
       0.02621	      44.55566	      39.06250	      57.75452	      54.39758
       0.03932	      53.40576	      57.90710	      47.83630	      38.52844
       0.05243	      45.47119	      62.78992	      53.10059	      48.98071
       0.06554	      57.67822	      45.54749	      55.23682	      58.28857
       0.07864	      58.67004	      38.29956	      61.87439	      57.98340
       0.09175	      58.97522	      60.27222	      39.67285	      43.64014
       0.10486	      52.18506	      58.28857	      55.38940	      57.98340
       0.11796	      65.15503	      69.73267	      84.30481	      32.73010
       0.13107	      81.93970	      39.06250	      53.93982	      48.98071
       0.14418	      43.79272	      45.70007	      63.70544	      34.71375
       0.15729	      45.39490	      57.75452	      57.37305	      51.72729
       0.17039	      36.16333	      58.51746	      37.23145	      37.91809
       0.18350	      25.86365	      54.85535	      37.38403	      72.63184
       0.19661	      45.85266	      40.89355	      54.32129	      32.34863
       0.20972	      39.97803	      49.05701	      38.14697	      32.50122
       0.22282	      51.80359	      70.95337	      67.29126	      85.52551
       0.23593	      58.97522	      51.65100	      59.12781	      38.60474
       0.24904	      51.19324	      24.49036	      56.07605	      61.26404
       0.26214	      40.20691	      49.59106	      37.68921	      57.67822
       0.27525	      46.00525	      92.69714	      42.57202	      66.90979
       0.28836	      63.40027	      57.75452	      47.83630	      58.36487
       0.30147	      31.81458	      51.42212	      52.64282	      51.42212
       0.31457	      49.43848	      34.94263	      48.98071	      55.69458
       0.32768	      44.09790	      41.73279	      42.11426	      54.01611
       0.34079	      33.11157	      42.26685	      49.20959	      48.37036
       0.35389	      42.64832	      37.91809	      50.88806	      44.02161
       0.36700	      43.64014	      36.01074	      44.63196	      91.47644
       0.38011	      33.41675	      67.06238	      37.91809	      60.88257
       0.39322	      66.60461	      57.98340	      45.47119	      74.00513
       0.40632	      33.72192	      37.46033	      39.90173	      56.45752
       0.41943	      49.51477	      50.12512	      66.68091	      43.18237
       0.43254	      55.38940	      43.10608	      36.54480	      51.42212
       0.44564	      44.02161	      48.14148	      57.75452	      55.77087
       0.45875	      36.69739	      67.29126	      55.08423	      36.46851
       0.47186	      56.45752	      37.07886	      42.95349	      50.04883
       0.48497	      52.41394	      52.18506	      47.98889	      65.53650
       0.49807	      65.23132	      54.55017	      57.83081	      44.09790
       0.51118	      63.24768	      40.20691	      65.68909	      50.50659
       0.52429	      59.58557	      46.38672	      39.90173	      49.81995
       0.53740	      41.04614	      37.84180	      50.65918	      38.75732
       0.55050	      61.34033	      47.83630	      68.96973	      74.84436
       0.56361	      38.90991	      68.05420	      88.57727	      65.99426
       0.57672	      42.95349	      49.51477	      50.96436	      51.19324
       0.58982	      59.35669	      39.29138	      85.98328	      90.17944
       0.60293	      48.37036	      78.12500	      78.04871	      59.28040
       0.61604	      56.07605	      44.78455	      40.20691	      55.77087
       0.62915	      52.49023	      41.80908	      73.62366	      65.84167
       0.64225	      59.81445	      43.48755	      44.32678	      49.89624
       0.65536	      75.75989	      66.75720	      32.65381	      85.22034
       0.66847	      50.58289	      75.14954	      56.30493	      54.39758
       0.68157	      59.28040	      64.77356	      75.37842	      38.52844
       0.69468	      65.84167	      29.22058	      49.74365	      63.32397
       0.70779	      33.79822	      41.58020	      36.54480	      40.96985
       0.72090	      80.79529	      51.42212	      52.79541	      53.86353
       0.73400	      44.86084	      47.76001	      52.64282	      58.44116
       0.74711	      32.42493	      58.67004	      67.67273	      67.13867
