ALV-7004/USB-FAST
Date :	"11/11/2025"
Time :	"3:59:39 PM"
Samplename : 	""
SampMemo(0) : 	""
SampMemo(1) : 	""
SampMemo(2) : 	""
SampMemo(3) : 	""
SampMemo(4) : 	""
SampMemo(5) : 	""
SampMemo(6) : 	""
SampMemo(7) : 	""
SampMemo(8) : 	""
SampMemo(9) : 	""
Temperature [K] :	     298.16000
Viscosity [cp]  :	       0.89000
Refractive Index:	       1.33200
Wavelength [nm] :	       0.00000
Angle [°]       :	       0.00000
Duration [s]    :	         1
FloatDur [ms]   :	          944
Stop TP [ms]   :	     68384
Runs            :	         1
Mode            :	"A-CH0+1  A-CH2+3 "
MeanCR0 [kHz]   :	      56.44904
MeanCR1 [kHz]   :	      58.65839
MeanCR2 [kHz]   :	      57.71637
MeanCR3 [kHz]   :	      56.25619

"Correlation"
  3.12500E-006	 -1.00000E+000	 -1.00000E+000	 -1.00000E+000	 -1.00000E+000
  6.25000E-006	 -1.00000E+000	 -1.00000E+000	 -1.00000E+000	 -1.00000E+000
  9.37500E-006	 -1.00000E+000	 -1.00000E+000	 -1.00000E+000	 -1.00000E+000
  1.25000E-005	 -1.00000E+000	 -1.00000E+000	 -1.00000E+000	 -1.00000E+000
  1.56250E-005	 -1.00000E+000	 -1.00000E+000	 -1.00000E+000	 -1.00000E+000
  1.87500E-005	 -1.00000E+000	 -1.00000E+000	 -1.00000E+000	 -1.00000E+000
  2.18750E-005	 -8.93587E-001	  1.82575E-001	  1.03582E+000	 -6.78569E-001
  2.50000E-005	  1.05990E+001	  1.25996E+001	  1.05024E+001	  2.57859E+001
  2.81250E-005	  4.74630E+000	  8.72410E-001	  1.85015E+000	  7.57150E+000
  3.12500E-005	  1.23467E+000	  5.76766E-001	  1.54478E+000	  4.46433E+000
  3.43750E-005	  2.76955E-001	  7.73862E-001	  9.34030E-001	  4.25004E+000
  3.75000E-005	  1.66032E+000	  1.26660E+000	  9.34030E-001	  3.17861E+000
  4.06250E-005	  1.23467E+000	  1.46370E+000	  8.32239E-001	  2.64289E+000
  4.37500E-005	  8.09020E-001	  1.75934E+000	  1.03582E+000	  3.17861E+000
  4.68750E-005	  1.23467E+000	  4.78218E-001	  1.13761E+000	  2.21431E+000
  5.00000E-005	  8.62226E-001	  7.73862E-001	  1.08672E+000	  2.10717E+000
  5.62500E-005	  8.09020E-001	  7.73862E-001	  6.79552E-001	  1.57145E+000
  6.25000E-005	  5.42987E-001	  7.24588E-001	  8.32238E-001	  1.67859E+000
  6.87500E-005	  6.49400E-001	  1.06951E+000	  9.84925E-001	  1.67859E+000
  7.50000E-005	  1.70542E-001	  5.27492E-001	  1.70597E-001	  1.30359E+000
  8.12500E-005	  7.02607E-001	 -6.37952E-002	  1.34119E+000	  1.78574E+000
  8.75000E-005	  3.83368E-001	  4.78218E-001	  6.79552E-001	  1.08930E+000
  9.37500E-005	  7.55813E-001	  4.28944E-001	  7.30447E-001	  1.51788E+000
  1.00000E-004	  9.68639E-001	  6.99951E-001	  8.83134E-001	  1.22323E+000
  1.12500E-004	  2.76955E-001	  1.08663E-001	  8.57686E-001	  1.06252E+000
  1.25000E-004	  4.63177E-001	  6.75314E-001	  4.50522E-001	  6.60728E-001
  1.37500E-004	  8.88829E-001	  4.78218E-001	  6.03208E-001	  5.00013E-001
  1.50000E-004	  8.88829E-001	  4.28944E-001	  3.74179E-001	  3.12511E-001
  1.62500E-004	  5.16384E-001	  3.55033E-001	  8.57686E-001	  5.00013E-001
  1.75000E-004	  7.55813E-001	  2.07211E-001	  3.23283E-001	  2.05367E-001
  1.87500E-004	  5.96194E-001	  7.24588E-001	  6.03208E-001	  6.07156E-001
  2.00000E-004	  5.82892E-001	  6.50676E-001	  7.94066E-001	  5.26798E-001
  2.25000E-004	  7.82416E-001	  4.53581E-001	  3.86902E-001	  6.07156E-001
  2.50000E-004	  5.29685E-001	  5.02855E-001	  5.65037E-001	  5.00012E-001
  2.75000E-004	  4.76479E-001	  5.64447E-001	  7.04999E-001	  4.46440E-001
  3.00000E-004	  4.89780E-001	  4.28944E-001	  4.50522E-001	  4.06261E-001
  3.25000E-004	  5.03082E-001	  5.15173E-001	  4.88693E-001	  4.19654E-001
  3.50000E-004	  5.69590E-001	  5.39810E-001	  4.37798E-001	  1.91974E-001
  3.75000E-004	  5.82892E-001	  5.02855E-001	  5.65037E-001	  4.59833E-001
  4.00000E-004	  5.89542E-001	  4.72058E-001	  6.73189E-001	  5.40190E-001
  4.50000E-004	  4.23272E-001	  4.96695E-001	  6.73189E-001	  3.59386E-001
  5.00000E-004	  4.89780E-001	  4.72058E-001	  4.37797E-001	  4.06261E-001
  5.50000E-004	  5.56288E-001	  3.36555E-001	  6.15931E-001	  4.66529E-001
  6.00000E-004	  6.02843E-001	  4.47421E-001	  4.88693E-001	  5.06708E-001
  6.50000E-004	  5.09732E-001	  5.45969E-001	  5.39588E-001	  4.19654E-001
  7.00000E-004	  2.90256E-001	  4.22784E-001	  5.71398E-001	  5.00012E-001
  7.50000E-004	  4.03319E-001	  4.72058E-001	  5.71398E-001	  6.20548E-001
  8.00000E-004	  4.53199E-001	  4.22783E-001	  4.37796E-001	  5.06707E-001
  9.00000E-004	  5.13056E-001	  3.76588E-001	  5.23682E-001	  4.29697E-001
  1.00000E-003	  5.79564E-001	  4.19703E-001	  5.01415E-001	  3.69429E-001
  1.10000E-003	  4.43223E-001	  4.99773E-001	  4.79149E-001	  4.16304E-001
  1.20000E-003	  4.19945E-001	  4.22783E-001	  5.14139E-001	  4.79921E-001
  1.30000E-003	  4.13294E-001	  4.32022E-001	  5.01415E-001	  6.23895E-001
  1.40000E-003	  5.03080E-001	  4.78216E-001	  4.21891E-001	  4.79921E-001
  1.50000E-003	  4.43223E-001	  5.52127E-001	  4.37796E-001	  4.96662E-001
  1.60000E-003	  4.81462E-001	  4.72054E-001	  4.37794E-001	  4.81593E-001
  1.80000E-003	  4.21605E-001	  4.76673E-001	  4.71194E-001	  3.44315E-001
  2.00000E-003	  5.18042E-001	  4.30479E-001	  3.82127E-001	  4.38065E-001
  2.20000E-003	  4.43220E-001	  4.88992E-001	  5.28451E-001	  4.04583E-001
  2.40000E-003	  4.48209E-001	  4.28939E-001	  4.01213E-001	  3.77797E-001
  2.60000E-003	  4.38232E-001	  4.21240E-001	  4.71194E-001	  4.96660E-001
  2.80000E-003	  3.51772E-001	  4.48957E-001	  3.66222E-001	  4.54807E-001
  3.00000E-003	  3.55098E-001	  4.41258E-001	  4.37794E-001	  4.54807E-001
  3.20000E-003	  3.90009E-001	  4.22031E-001	  4.01208E-001	  4.65683E-001
  3.60000E-003	  4.26589E-001	  4.27421E-001	  4.71189E-001	  4.76565E-001
  4.00000E-003	  3.42623E-001	  4.32810E-001	  4.08365E-001	  4.31364E-001
  4.40000E-003	  3.57587E-001	  3.79686E-001	  4.64031E-001	  4.48105E-001
  4.80000E-003	  4.14118E-001	  4.37430E-001	  5.10950E-001	  4.57313E-001
  5.20000E-003	  3.56756E-001	  4.19721E-001	  4.15522E-001	  4.56476E-001
  5.60000E-003	  4.31577E-001	  4.12022E-001	  4.67212E-001	  4.21320E-001
  6.00000E-003	  4.19107E-001	  4.11252E-001	  4.11546E-001	  3.92023E-001
  6.40000E-003	  3.84622E-001	  3.88941E-001	  4.50927E-001	  4.17962E-001
  7.20000E-003	  3.75062E-001	  3.73542E-001	  4.31841E-001	  3.60205E-001
  8.00000E-003	  3.92520E-001	  4.38216E-001	  4.03610E-001	  4.16706E-001
  8.80000E-003	  3.86701E-001	  4.23972E-001	  3.75378E-001	  3.73180E-001
  9.60000E-003	  3.18945E-001	  3.75442E-001	  4.39396E-001	  4.00802E-001
  1.04000E-002	  3.87116E-001	  3.80447E-001	  4.04405E-001	  3.55602E-001
  1.12000E-002	  3.62201E-001	  3.62354E-001	  3.65438E-001	  3.71924E-001
  1.20000E-002	  3.58876E-001	  3.70053E-001	  3.63847E-001	  3.69413E-001
  1.28000E-002	  3.60648E-001	  3.77230E-001	  3.64252E-001	  3.69185E-001
  1.44000E-002	  3.63142E-001	  3.51630E-001	  3.87686E-001	  3.69604E-001
  1.60000E-002	  3.38382E-001	  3.59714E-001	  3.85326E-001	  3.65444E-001
  1.76000E-002	  3.88475E-001	  3.50667E-001	  3.71806E-001	  3.30079E-001
  1.92000E-002	  3.52516E-001	  3.19485E-001	  3.62661E-001	  3.08734E-001
  2.08000E-002	  3.14063E-001	  3.43545E-001	  3.35026E-001	  3.46820E-001
  2.24000E-002	  3.08243E-001	  3.09837E-001	  3.63257E-001	  3.36775E-001
  2.40000E-002	  3.35056E-001	  2.94438E-001	  3.43973E-001	  2.99108E-001
  2.56000E-002	  3.15600E-001	  3.03640E-001	  3.30689E-001	  3.14632E-001
  2.88000E-002	  3.05805E-001	  3.17884E-001	  3.05042E-001	  3.26979E-001
  3.20000E-002	  3.09914E-001	  2.96976E-001	  3.23656E-001	  2.86799E-001
  3.52000E-002	  2.63326E-001	  2.78859E-001	  3.10335E-001	  2.69116E-001
  3.84000E-002	  2.79124E-001	  2.82709E-001	  2.82201E-001	  2.59908E-001
  4.16000E-002	  2.40437E-001	  2.59129E-001	  2.93113E-001	  2.62000E-001
  4.48000E-002	  2.59481E-001	  2.58071E-001	  2.64483E-001	  2.61477E-001
  4.80000E-002	  2.43787E-001	  2.27155E-001	  2.56033E-001	  2.29250E-001
  5.12000E-002	  2.31993E-001	  2.32848E-001	  2.33310E-001	  2.30008E-001
  5.76000E-002	  2.07772E-001	  2.04910E-001	  2.39899E-001	  2.20329E-001
  6.40000E-002	  1.89714E-001	  1.94226E-001	  2.23071E-001	  2.06517E-001
  7.04000E-002	  1.71886E-001	  1.74275E-001	  2.13300E-001	  1.74454E-001
  7.68000E-002	  1.66697E-001	  1.60463E-001	  1.86082E-001	  1.63834E-001
  8.32000E-002	  1.57818E-001	  1.62367E-001	  1.72163E-001	  1.54334E-001
  8.96000E-002	  1.37601E-001	  1.43481E-001	  1.63314E-001	  1.53758E-001
  9.60000E-002	  1.28589E-001	  1.28467E-001	  1.52655E-001	  1.33982E-001
  1.02400E-001	  1.21412E-001	  1.24022E-001	  1.43290E-001	  1.28651E-001
  1.15200E-001	  1.10015E-001	  1.05197E-001	  1.18206E-001	  1.18083E-001
  1.28000E-001	  8.29982E-002	  8.79214E-002	  9.91341E-002	  9.32841E-002
  1.40800E-001	  7.87086E-002	  7.88092E-002	  9.07312E-002	  8.08063E-002
  1.53600E-001	  7.67847E-002	  6.16550E-002	  8.38051E-002	  6.54249E-002
  1.66400E-001	  4.82972E-002	  6.18524E-002	  6.25589E-002	  5.65895E-002
  1.79200E-001	  4.72250E-002	  4.84721E-002	  6.01917E-002	  5.60265E-002
  1.92000E-001	  5.28530E-002	  4.21053E-002	  5.55207E-002	  5.00365E-002
  2.04800E-001	  3.07336E-002	  3.74063E-002	  4.02376E-002	  3.52863E-002
  2.30400E-001	  1.84815E-002	  1.97730E-002	  3.14500E-002	  3.00876E-002
  2.56000E-001	  2.28709E-002	  1.55182E-002	  1.62280E-002	  1.87997E-002
  2.81600E-001	  1.90599E-002	  8.62822E-003	  2.34231E-002	  2.44232E-002
  3.07200E-001	  1.58246E-002	  1.49640E-002	  1.39085E-002	  1.70401E-002
  3.32800E-001	  2.47911E-002	  7.55645E-003	  1.60416E-002	  1.48035E-002
  3.58400E-001	  1.71060E-002	  2.72438E-003	  1.17500E-002	  1.07869E-002
  3.84000E-001	  6.49676E-003	  6.83381E-003	  7.32159E-003	  6.24361E-003
  4.09600E-001	  2.97610E-003	  9.16666E-003	  8.62521E-003	  5.05709E-003
  4.60800E-001	 -8.16617E-004	  1.28261E-002	  4.50001E-003	  1.27455E-002
  5.12000E-001	 -8.59248E-003	  1.35704E-002	  1.22969E-002	  1.55757E-002
  5.63200E-001	 -4.99723E-003	  4.34394E-003	  8.38341E-003	  1.15955E-002
  6.14400E-001	 -2.36112E-003	 -6.51959E-003	  1.01568E-002	  7.94715E-003
  6.65600E-001	 -2.21075E-003	 -3.69668E-003	  5.95222E-003	  1.08598E-002
  7.16800E-001	 -3.22896E-004	 -9.07074E-003	 -3.76983E-003	  7.47406E-003
  7.68000E-001	  4.26790E-003	 -8.97402E-003	 -4.72778E-003	 -9.29665E-004
  8.19200E-001	  9.68120E-004	 -9.13060E-003	 -6.93560E-003	 -3.02555E-003
  9.21600E-001	  7.11951E-003	 -9.62359E-003	 -6.18765E-003	 -3.85987E-003
  1.02400E+000	  2.71865E-003	 -6.50225E-003	 -4.30617E-003	 -5.94176E-003
  1.12640E+000	 -6.85426E-004	 -1.29258E-002	 -1.12842E-002	 -1.32512E-003
  1.22880E+000	  3.24271E-003	 -9.49103E-003	 -7.87221E-003	 -3.64582E-003
  1.33120E+000	  2.96337E-003	 -5.52230E-003	 -4.67366E-004	  4.23120E-004
  1.43360E+000	  6.68451E-003	 -5.50167E-003	 -6.27424E-003	 -4.17387E-003
  1.53600E+000	  9.50058E-003	 -4.57426E-003	 -6.23215E-003	 -6.49760E-004
  1.63840E+000	  1.05424E-002	 -8.52224E-003	 -4.86400E-003	 -1.90292E-003
  1.84320E+000	  7.81170E-003	 -2.30106E-003	 -9.36503E-003	 -3.58633E-003
  2.04800E+000	  3.30114E-003	 -1.61733E-003	  3.43892E-003	 -2.51879E-003
  2.25280E+000	  2.11249E-003	 -2.27785E-003	  2.47417E-003	 -4.82087E-003
  2.45760E+000	  1.67286E-003	 -6.02650E-003	  1.21315E-003	 -7.46073E-003
  2.66240E+000	  3.36367E-003	 -4.48025E-003	  1.33820E-003	 -6.76635E-003
  2.86720E+000	  4.82381E-003	 -5.55574E-003	  8.63590E-003	 -9.72483E-003
  3.07200E+000	 -4.34030E-003	 -1.42693E-003	 -4.75376E-003	  3.34566E-003
  3.27680E+000	 -6.41990E-003	  3.47254E-004	  2.55346E-003	 -3.16523E-004
  3.68640E+000	 -1.02249E-003	  2.60433E-003	 -2.65138E-003	  2.10557E-003
  4.09600E+000	 -4.02027E-003	  3.22309E-003	 -4.71216E-003	 -3.71591E-003
  4.50560E+000	  4.55891E-004	 -2.85916E-003	  6.05909E-005	  4.25246E-003
  4.91520E+000	  3.58623E-003	  2.06024E-003	  2.09273E-003	 -1.40385E-003
  5.32480E+000	  3.19213E-003	 -3.78100E-004	 -3.42994E-003	  6.14120E-003
  5.73440E+000	  3.10304E-003	 -5.87583E-003	 -1.02980E-002	  5.58563E-003
  6.14400E+000	  3.66238E-003	 -6.44768E-003	  5.78658E-003	  9.55365E-004
  6.55360E+000	 -2.32439E-004	 -7.87338E-003	  6.49955E-003	 -9.95405E-004
  7.37280E+000	  1.02183E-003	  1.83461E-003	  1.25004E-003	  8.87353E-004
  8.19200E+000	  1.85759E-003	 -1.03321E-003	  5.27845E-003	  2.87139E-004
  9.01120E+000	  2.83147E-005	 -3.60558E-003	  2.75268E-003	  1.70379E-004
  9.83040E+000	  4.56763E-003	  9.16971E-004	  3.25629E-003	 -3.52722E-003
  1.06496E+001	 -1.93527E-003	 -1.03502E-003	  4.50427E-003	  4.91706E-003
  1.14688E+001	  1.49510E-003	 -2.53201E-003	  2.30578E-003	  7.01727E-004
  1.22880E+001	 -4.59602E-004	 -7.76438E-004	  1.66681E-003	 -4.61186E-003
  1.31072E+001	  2.23166E-004	 -1.03011E-004	  2.63393E-003	 -5.13624E-003
  1.47456E+001	  2.60434E-003	 -2.64813E-003	 -9.38511E-004	  4.42326E-003
  1.63840E+001	  1.20201E-003	  7.65318E-004	 -1.77118E-003	  2.00075E-003
  1.80224E+001	 -1.21763E-003	  1.59295E-003	 -1.74529E-003	 -1.05319E-004
  1.96608E+001	 -1.47456E-003	 -2.11738E-003	  2.34388E-003	 -3.43450E-004
  2.12992E+001	 -1.87220E-003	  1.83105E-003	  1.38361E-005	  1.93341E-003
  2.29376E+001	  1.21599E-003	 -4.91028E-004	 -3.26094E-003	 -3.31832E-004
  2.45760E+001	 -4.68959E-004	  1.52544E-003	  1.26047E-003	  3.49619E-004
  2.62144E+001	 -3.21644E-003	  1.79760E-004	 -1.40097E-003	 -2.92582E-003
  2.94912E+001	  1.87234E-003	 -1.83009E-003	 -3.20550E-003	  7.93414E-005
  3.27680E+001	 -1.45854E-003	  1.27366E-003	 -2.44731E-003	 -2.00440E-004
  3.60448E+001	 -2.06266E-003	 -2.01589E-003	  5.66109E-004	 -2.84657E-004
  3.93216E+001	 -3.65331E-003	 -2.49690E-004	 -1.47444E-003	 -1.21820E-003
  4.25984E+001	  2.07520E-003	  1.86584E-003	 -2.11637E-003	  9.90570E-004
  4.58752E+001	  9.39161E-004	 -5.56247E-004	 -3.07593E-004	 -5.91850E-004
  4.91520E+001	  1.41905E-003	  4.37530E-004	 -4.47880E-004	  2.08787E-003
  5.24288E+001	  1.79944E-003	 -9.57599E-005	 -2.83021E-004	  1.25980E-003
  5.89824E+001	  9.01207E-004	  7.52720E-004	 -9.10874E-004	 -2.42922E-004
  6.55360E+001	  9.80065E-004	 -1.04483E-003	  4.77439E-004	  3.84450E-004
  7.20896E+001	 -2.05108E-003	 -1.48196E-004	  6.87952E-004	 -1.55602E-003
  7.86432E+001	 -8.63625E-004	 -3.35361E-004	 -1.56991E-004	 -5.97333E-004
  8.51968E+001	 -3.34948E-004	 -5.82504E-004	 -1.41837E-004	 -6.78324E-004
  9.17504E+001	  4.07500E-004	  1.19925E-003	 -1.04854E-003	 -7.35235E-004
  9.83040E+001	 -1.27496E-003	  6.42374E-004	  6.16493E-004	  6.58925E-004
  1.04858E+002	 -9.19211E-004	 -4.93176E-005	 -4.31589E-005	 -7.59861E-004
  1.17965E+002	  1.20472E-003	 -8.94046E-005	 -9.86671E-005	 -1.02670E-004
  1.31072E+002	 -6.92266E-004	 -5.02526E-004	 -9.65254E-004	 -1.70635E-003
  1.44179E+002	 -2.93062E-003	  8.94121E-004	 -1.13082E-003	  1.46898E-003
  1.57286E+002	 -2.72897E-003	 -2.04229E-005	 -1.03544E-003	 -8.81942E-004
  1.70394E+002	  4.26849E-003	 -5.69710E-004	  1.42003E-004	 -3.67674E-004
  1.83501E+002	  1.88202E-003	  9.23306E-004	  1.75875E-003	 -7.92719E-004
  1.96608E+002	 -9.43215E-004	 -2.89418E-004	  9.76498E-004	 -4.20023E-004
  2.09715E+002	  1.48146E-003	 -3.04594E-004	  7.53497E-004	  5.34867E-004
  2.35930E+002	 -5.48110E-004	 -1.91930E-004	 -1.17435E-003	  2.15849E-004
  2.62144E+002	  9.03842E-004	 -2.70939E-004	  1.84554E-004	  1.38311E-004
  2.88358E+002	  4.16777E-004	  2.59288E-005	  1.62709E-003	 -9.25487E-004
  3.14573E+002	 -1.68016E-003	 -1.09298E-004	 -7.41281E-004	  1.24120E-003
  3.40787E+002	  2.56764E-005	  1.12045E-004	 -1.54812E-003	  4.74579E-004
  3.67002E+002	 -1.22731E-003	  1.58866E-004	  1.66455E-003	  1.63202E-003
  3.93216E+002	  1.05637E-003	 -4.84577E-006	  2.70618E-004	  3.29720E-005

"Count Rate"
       0.01311	      60.72998	      60.27222	      59.73816	      50.20142
       0.02621	      57.29675	      58.59375	      61.11145	      58.97522
       0.03932	      54.16870	      53.17688	      55.16052	      60.19592
       0.05243	      50.27771	      58.28857	      54.24500	      53.48206
       0.06554	      51.65100	      60.04333	      58.28857	      52.94800
       0.07864	      51.42212	      58.74634	      72.25037	      60.27222
       0.09175	      53.40576	      55.00793	      53.48206	      54.32129
       0.10486	      56.45752	      50.12512	      62.63733	      63.85803
       0.11796	      52.94800	      58.28857	      54.77905	      56.91528
       0.13107	      53.55835	      60.50110	      58.74634	      52.79541
       0.14418	      50.81177	      50.20142	      50.35400	      58.59375
       0.15729	      59.81445	      62.17957	      55.92346	      52.49023
       0.17039	      56.76270	      54.62646	      51.65100	      52.94800
       0.18350	      70.80078	      62.78992	      54.32129	      50.65918
       0.19661	      54.24500	      55.69458	      62.94250	      57.44934
       0.20972	      54.62646	      57.90710	      60.27222	      63.24768
       0.22282	      63.55286	      52.03247	      48.14148	      66.83350
       0.23593	      64.01062	      62.63733	      59.73816	      50.58289
       0.24904	      63.17139	      59.73816	      60.88257	      53.86353
       0.26214	      49.66736	      55.69458	      53.10059	      65.07874
       0.27525	      57.44934	      56.30493	      58.74634	      57.67822
       0.28836	      52.87170	      55.16052	      60.27222	      54.32129
       0.30147	      52.94800	      58.36487	      51.42212	      43.56384
       0.31457	      50.35400	      56.99158	      55.77087	      60.27222
       0.32768	      49.28589	      52.49023	      56.99158	      47.07336
       0.34079	      55.16052	      59.58557	      50.04883	      51.65100
       0.35389	      74.99695	      53.55835	      55.08423	      61.87439
       0.36700	      61.34033	      50.27771	      55.69458	      54.24500
       0.38011	      46.61560	      61.72180	      60.72998	      50.35400
       0.39322	      50.81177	      60.42480	      65.38391	      51.49841
       0.40632	      58.21228	      54.16870	      47.68372	      52.56653
       0.41943	      62.17957	      58.74634	      49.20959	      52.71912
       0.43254	      50.04883	      52.26135	      56.22864	      57.14417
       0.44564	      67.59644	      65.61279	      53.86353	      50.12512
       0.45875	      54.47388	      62.33215	      61.11145	      61.18774
       0.47186	      51.42212	      57.14417	      59.43298	      53.63464
       0.48497	      49.81995	      59.66187	      54.93164	      54.16870
       0.49807	      50.96436	      57.98340	      58.51746	      53.02429
       0.51118	      52.56653	      53.02429	      56.91528	      54.39758
       0.52429	      56.91528	      57.98340	      50.04883	      55.77087
       0.53740	      61.64551	      62.02698	      58.51746	      55.00793
       0.55050	      50.04883	      53.78723	      56.68640	      54.77905
       0.56361	      49.97253	      58.05969	      58.97522	      56.83899
       0.57672	      57.29675	      64.54468	      61.34033	      57.75452
       0.58982	      57.60193	      53.55835	      54.77905	      58.36487
       0.60293	      49.51477	      65.99426	      55.77087	      60.88257
       0.61604	      55.46570	      54.62646	      55.00793	      58.28857
       0.62915	      60.72998	      62.25586	      54.39758	      55.61829
       0.64225	      56.76270	      57.98340	      54.55017	      49.05701
       0.65536	      56.99158	      56.07605	      51.11694	      55.92346
       0.66847	      52.56653	      57.83081	      53.10059	      55.08423
       0.68157	      54.62646	      57.52563	      59.66187	      56.61011
       0.69468	      55.38940	      55.31311	      57.14417	      48.06519
       0.70779	      54.16870	      55.77087	      55.54199	      51.04065
       0.72090	      48.44666	      56.53381	      48.59924	      56.68640
       0.73400	      51.49841	      57.44934	      62.48474	      49.66736
       0.74711	      54.01611	      58.21228	      66.37573	      54.47388
