ALV-7004/USB-FAST
Date :	"11/11/2025"
Time :	"3:58:20 PM"
Samplename : 	""
SampMemo(0) : 	""
SampMemo(1) : 	""
SampMemo(2) : 	""
SampMemo(3) : 	""
SampMemo(4) : 	""
SampMemo(5) : 	""
SampMemo(6) : 	""
SampMemo(7) : 	""
SampMemo(8) : 	""
SampMemo(9) : 	""
Temperature [K] :	     298.16000
Viscosity [cp]  :	       0.89000
Refractive Index:	       1.33200
Wavelength [nm] :	       0.00000
Angle [°]       :	       0.00000
Duration [s]    :	         1
FloatDur [ms]   :	          944
Stop TP [ms]   :	     68032
Runs            :	         1
Mode            :	"A-CH0+1  A-CH2+3 "
MeanCR0 [kHz]   :	      51.91485
MeanCR1 [kHz]   :	      54.59680
MeanCR2 [kHz]   :	      55.18807
MeanCR3 [kHz]   :	      52.48600

"Correlation"
  3.12500E-006	 -1.00000E+000	 -1.00000E+000	 -1.00000E+000	 -1.00000E+000
  6.25000E-006	 -1.00000E+000	 -1.00000E+000	 -1.00000E+000	 -1.00000E+000
  9.37500E-006	 -1.00000E+000	 -1.00000E+000	 -1.00000E+000	 -1.00000E+000
  1.25000E-005	 -1.00000E+000	 -1.00000E+000	 -1.00000E+000	 -1.00000E+000
  1.56250E-005	 -1.00000E+000	 -1.00000E+000	 -1.00000E+000	 -1.00000E+000
  1.87500E-005	 -1.00000E+000	 -1.00000E+000	 -1.00000E+000	 -1.00000E+000
  2.18750E-005	 -6.22562E-001	  8.20091E-001	  1.11529E+000	 -7.53821E-001
  2.50000E-005	  1.20845E+001	  1.20819E+001	  1.03558E+001	  2.37410E+001
  2.81250E-005	  3.65507E+000	  2.52643E+000	  2.78526E+000	  7.98553E+000
  3.12500E-005	  2.14532E+000	  5.92580E-001	  1.44929E+000	  6.26227E+000
  3.43750E-005	  1.13882E+000	  1.61638E+000	  1.89461E+000	  3.80049E+000
  3.75000E-005	  1.26463E+000	  1.16136E+000	  1.22662E+000	  2.93886E+000
  4.06250E-005	  3.83939E-001	  3.65069E-001	  1.11529E+000	  2.69268E+000
  4.37500E-005	  8.87190E-001	  7.06336E-001	  8.92631E-001	  2.32341E+000
  4.68750E-005	  1.01300E+000	  4.78824E-001	  5.58637E-001	  3.30813E+000
  5.00000E-005	  8.87190E-001	  6.49458E-001	  4.47306E-001	  2.20032E+000
  5.62500E-005	  3.83939E-001	  7.06336E-001	  6.69969E-001	  1.76951E+000
  6.25000E-005	  1.26463E+000	  9.33847E-001	  8.92631E-001	  1.21561E+000
  6.87500E-005	  6.98471E-001	  7.63214E-001	  1.11529E+000	  1.58488E+000
  7.50000E-005	  7.61377E-001	  1.27511E+000	  3.35975E-001	  1.58488E+000
  8.12500E-005	  3.21033E-001	  7.06336E-001	  7.25634E-001	  1.15406E+000
  8.75000E-005	  3.21033E-001	  3.65069E-001	  5.02972E-001	  6.61707E-001
  9.37500E-005	  4.46845E-001	  5.35702E-001	  3.35975E-001	  9.07886E-001
  1.00000E-004	  7.92830E-001	  2.51313E-001	  6.14303E-001	  1.06175E+000
  1.12500E-004	  6.04111E-001	  5.64141E-001	  3.91640E-001	  4.15528E-001
  1.25000E-004	  2.26673E-001	  7.91652E-001	  5.02972E-001	  7.23251E-001
  1.37500E-004	  6.35564E-001	  7.63213E-001	  4.75139E-001	  6.30934E-001
  1.50000E-004	  6.04111E-001	  7.34774E-001	  4.75139E-001	  4.46300E-001
  1.62500E-004	  7.61377E-001	  5.64141E-001	  6.69968E-001	  7.23251E-001
  1.75000E-004	  4.15392E-001	  5.07263E-001	  5.86470E-001	  6.61707E-001
  1.87500E-004	  3.52486E-001	  6.21019E-001	  7.25634E-001	  8.77113E-001
  2.00000E-004	  4.94025E-001	  6.77896E-001	  6.56052E-001	  7.84796E-001
  2.25000E-004	  3.36759E-001	  4.36165E-001	  6.97801E-001	  6.92479E-001
  2.50000E-004	  5.41204E-001	  4.21946E-001	  6.28219E-001	  6.77092E-001
  2.75000E-004	  6.82744E-001	  7.20555E-001	  4.61222E-001	  4.30914E-001
  3.00000E-004	  5.72658E-001	  3.65068E-001	  8.64798E-001	  6.30934E-001
  3.25000E-004	  8.08556E-001	  4.64604E-001	  5.86470E-001	  7.69409E-001
  3.50000E-004	  4.31118E-001	  6.77896E-001	  4.05556E-001	  6.30934E-001
  3.75000E-004	  6.82744E-001	  7.20555E-001	  3.49891E-001	  5.84775E-001
  4.00000E-004	  6.59153E-001	  6.28127E-001	  5.86469E-001	  5.30923E-001
  4.50000E-004	  6.43426E-001	  4.07726E-001	  4.61221E-001	  5.23230E-001
  5.00000E-004	  4.86161E-001	  4.71713E-001	  4.75138E-001	  6.38626E-001
  5.50000E-004	  4.86161E-001	  4.71713E-001	  6.42135E-001	  3.92448E-001
  6.00000E-004	  4.86161E-001	  5.92579E-001	  4.54263E-001	  4.92458E-001
  6.50000E-004	  3.99665E-001	  3.57958E-001	  4.33389E-001	  5.15537E-001
  7.00000E-004	  6.98469E-001	  4.36165E-001	  5.23845E-001	  4.15527E-001
  7.50000E-004	  4.46844E-001	  5.14372E-001	  3.01183E-001	  5.54002E-001
  8.00000E-004	  4.97954E-001	  4.46828E-001	  4.29908E-001	  5.61694E-001
  9.00000E-004	  3.24962E-001	  4.64602E-001	  5.34281E-001	  4.69377E-001
  1.00000E-003	  3.99663E-001	  4.71712E-001	  5.37760E-001	  5.38615E-001
  1.10000E-003	  4.46843E-001	  4.53938E-001	  5.79509E-001	  6.19392E-001
  1.20000E-003	  4.03595E-001	  4.36164E-001	  5.72551E-001	  5.84773E-001
  1.30000E-003	  3.83937E-001	  4.18389E-001	  5.65593E-001	  4.65531E-001
  1.40000E-003	  5.96245E-001	  4.75267E-001	  4.61220E-001	  5.30922E-001
  1.50000E-003	  4.46843E-001	  5.17925E-001	  4.19471E-001	  3.34748E-001
  1.60000E-003	  5.35302E-001	  5.49917E-001	  4.87311E-001	  4.53989E-001
  1.80000E-003	  4.66499E-001	  5.30365E-001	  4.96009E-001	  4.57835E-001
  2.00000E-003	  4.76328E-001	  5.53471E-001	  5.55153E-001	  4.17447E-001
  2.20000E-003	  4.03593E-001	  3.89948E-001	  4.50780E-001	  3.86674E-001
  2.40000E-003	  4.50772E-001	  4.55713E-001	  5.01227E-001	  4.23216E-001
  2.60000E-003	  3.36755E-001	  4.91261E-001	  5.29060E-001	  4.46296E-001
  2.80000E-003	  4.31114E-001	  4.32606E-001	  4.92530E-001	  4.17447E-001
  3.00000E-003	  4.99918E-001	  4.64600E-001	  4.21208E-001	  3.50132E-001
  3.20000E-003	  4.64528E-001	  5.40165E-001	  4.69910E-001	  3.57848E-001
  3.60000E-003	  4.71408E-001	  4.52181E-001	  4.33380E-001	  5.79027E-001
  4.00000E-003	  3.92776E-001	  4.13077E-001	  3.82934E-001	  4.46320E-001
  4.40000E-003	  4.43887E-001	  4.45960E-001	  4.08157E-001	  4.27087E-001
  4.80000E-003	  3.96708E-001	  4.80621E-001	  4.19464E-001	  4.64591E-001
  5.20000E-003	  3.75084E-001	  4.56625E-001	  4.65562E-001	  3.98237E-001
  5.60000E-003	  3.78032E-001	  3.53532E-001	  4.12506E-001	  3.96314E-001
  6.00000E-003	  3.85896E-001	  4.52181E-001	  3.68147E-001	  4.28049E-001
  6.40000E-003	  3.68686E-001	  4.42423E-001	  4.19916E-001	  4.28039E-001
  7.20000E-003	  4.21762E-001	  3.75768E-001	  4.10784E-001	  4.37655E-001
  8.00000E-003	  3.74091E-001	  4.12206E-001	  4.12958E-001	  4.16018E-001
  8.80000E-003	  3.23964E-001	  3.47328E-001	  4.34268E-001	  3.84284E-001
  9.60000E-003	  3.76549E-001	  3.44192E-001	  3.59902E-001	  3.65532E-001
  1.04000E-002	  3.31827E-001	  3.65965E-001	  4.15567E-001	  3.87169E-001
  1.12000E-002	  3.55908E-001	  4.01514E-001	  3.38592E-001	  3.61205E-001
  1.20000E-002	  3.85395E-001	  3.90850E-001	  3.57292E-001	  3.50146E-001
  1.28000E-002	  3.39180E-001	  3.98883E-001	  3.67981E-001	  3.66475E-001
  1.44000E-002	  3.41638E-001	  3.67777E-001	  3.75374E-001	  3.53040E-001
  1.60000E-002	  3.27386E-001	  3.51336E-001	  3.42322E-001	  3.56406E-001
  1.76000E-002	  3.10185E-001	  3.56028E-001	  3.26883E-001	  3.22027E-001
  1.92000E-002	  2.85859E-001	  3.51584E-001	  2.95353E-001	  3.28999E-001
  2.08000E-002	  2.58584E-001	  2.87593E-001	  3.06660E-001	  3.09766E-001
  2.24000E-002	  2.78759E-001	  2.61350E-001	  2.85567E-001	  3.03755E-001
  2.40000E-002	  2.50501E-001	  3.24229E-001	  3.20385E-001	  2.93658E-001
  2.56000E-002	  2.50026E-001	  2.87855E-001	  2.99657E-001	  2.90978E-001
  2.88000E-002	  2.26682E-001	  2.78523E-001	  2.64102E-001	  2.58163E-001
  3.20000E-002	  2.25085E-001	  2.38948E-001	  2.50233E-001	  2.35324E-001
  3.52000E-002	  1.97833E-001	  2.21950E-001	  2.34008E-001	  2.34844E-001
  3.84000E-002	  1.89748E-001	  2.15840E-001	  2.32462E-001	  1.83036E-001
  4.16000E-002	  1.85202E-001	  1.77289E-001	  1.89296E-001	  1.91811E-001
  4.48000E-002	  1.83973E-001	  1.79289E-001	  1.78772E-001	  1.70535E-001
  4.80000E-002	  1.30794E-001	  1.65824E-001	  1.79338E-001	  1.49500E-001
  5.12000E-002	  1.27031E-001	  1.56553E-001	  1.60761E-001	  1.50505E-001
  5.76000E-002	  1.22523E-001	  1.39310E-001	  1.34065E-001	  1.47681E-001
  6.40000E-002	  9.98318E-002	  1.01479E-001	  1.16340E-001	  1.19794E-001
  7.04000E-002	  7.61801E-002	  9.25009E-002	  1.17046E-001	  9.62346E-002
  7.68000E-002	  7.96818E-002	  8.43136E-002	  8.22156E-002	  8.33731E-002
  8.32000E-002	  6.86853E-002	  7.47031E-002	  9.38512E-002	  7.57403E-002
  8.96000E-002	  6.16820E-002	  6.59815E-002	  6.82011E-002	  7.08721E-002
  9.60000E-002	  5.83646E-002	  4.48163E-002	  7.08652E-002	  5.90323E-002
  1.02400E-001	  5.70154E-002	  4.24410E-002	  6.13847E-002	  5.19149E-002
  1.15200E-001	  4.36234E-002	  2.63656E-002	  4.30936E-002	  3.80703E-002
  1.28000E-001	  2.45183E-002	  1.87664E-002	  4.43429E-002	  3.51554E-002
  1.40800E-001	  2.20611E-002	  6.09957E-003	  3.92854E-002	  2.86737E-002
  1.53600E-001	  1.02663E-002	  1.22745E-002	  3.82250E-002	  2.56894E-002
  1.66400E-001	  1.44022E-002	  6.61606E-003	  2.28275E-002	  1.82068E-002
  1.79200E-001	  1.08700E-002	 -2.13375E-003	  2.81570E-002	  2.14523E-002
  1.92000E-001	  8.10574E-003	  3.46777E-004	  1.88380E-002	  1.64338E-002
  2.04800E-001	  4.86280E-003	  6.25139E-003	  1.17588E-002	  1.34898E-002
  2.30400E-001	  9.28605E-003	  2.26539E-003	  1.65732E-002	  3.14670E-003
  2.56000E-001	  9.09651E-003	  5.80696E-003	  6.16919E-003	  2.36996E-003
  2.81600E-001	  3.98528E-004	  2.38481E-003	 -9.16408E-004	 -5.83375E-003
  3.07200E-001	 -2.90362E-003	 -1.24002E-003	 -1.95313E-003	 -6.21936E-003
  3.32800E-001	  1.19177E-002	  7.66235E-003	  1.59626E-003	  9.92834E-004
  3.58400E-001	  1.03462E-002	  1.77073E-002	 -1.60513E-003	 -8.63845E-003
  3.84000E-001	 -9.46749E-003	  8.58855E-003	 -3.21226E-004	 -5.67832E-003
  4.09600E-001	  1.72360E-003	  2.74347E-003	 -2.45545E-003	 -8.59385E-003
  4.60800E-001	 -6.97025E-003	 -9.35668E-003	 -1.53832E-003	  7.34633E-003
  5.12000E-001	  6.09787E-004	 -6.28536E-003	 -8.53242E-004	  7.99380E-003
  5.63200E-001	 -6.99821E-003	 -5.15205E-003	  1.54792E-003	  4.24447E-003
  6.14400E-001	  4.37675E-004	  1.16225E-003	  1.99800E-003	 -5.35095E-003
  6.65600E-001	 -7.91577E-003	  5.08568E-003	  1.87902E-003	 -7.13033E-003
  7.16800E-001	  3.86006E-004	  1.71261E-003	  3.06701E-003	 -7.81462E-003
  7.68000E-001	  1.37735E-003	  1.14266E-004	 -1.02846E-003	 -1.01181E-002
  8.19200E-001	  4.97879E-003	  1.08287E-002	 -1.15214E-003	 -8.18892E-003
  9.21600E-001	  3.77241E-003	  1.73186E-003	  2.69569E-003	 -5.66966E-003
  1.02400E+000	 -3.36722E-003	  5.21488E-003	  7.37915E-003	 -6.50691E-003
  1.12640E+000	  5.67773E-003	  3.30092E-003	 -6.04729E-003	 -4.10526E-003
  1.22880E+000	  9.40320E-003	 -5.10014E-003	 -6.20833E-003	 -5.66371E-003
  1.33120E+000	 -1.75335E-003	  1.25043E-003	 -2.00894E-003	 -4.44390E-003
  1.43360E+000	 -3.29995E-003	 -5.64599E-003	 -1.94123E-003	 -5.35365E-003
  1.53600E+000	 -3.13123E-004	 -2.88868E-003	  2.03859E-003	 -2.81645E-004
  1.63840E+000	  5.32519E-004	  3.64001E-003	  2.21463E-003	  4.58976E-003
  1.84320E+000	  4.49812E-003	  1.47084E-003	 -4.01041E-004	 -2.88220E-003
  2.04800E+000	  2.35768E-003	 -5.63583E-004	 -2.19343E-004	  2.72711E-003
  2.25280E+000	 -2.82244E-003	  1.69476E-003	  6.49577E-004	  2.82870E-003
  2.45760E+000	  2.24802E-003	  2.56452E-003	 -4.03575E-003	  6.96961E-004
  2.66240E+000	 -4.60129E-004	 -5.23845E-004	  1.61426E-005	  6.18158E-003
  2.86720E+000	  8.89589E-005	  4.51387E-003	  1.63831E-003	 -4.79371E-003
  3.07200E+000	 -1.03270E-003	  3.62862E-003	 -7.72600E-003	  1.49467E-003
  3.27680E+000	 -6.17967E-003	 -2.98589E-003	 -1.54466E-003	  2.77568E-003
  3.68640E+000	  2.57523E-003	  2.12771E-003	  3.45599E-003	 -4.77774E-003
  4.09600E+000	 -1.48834E-003	  3.57720E-003	  6.94192E-004	 -2.62788E-003
  4.50560E+000	 -5.55585E-003	  9.29391E-004	  1.25815E-003	 -5.93022E-004
  4.91520E+000	  7.46838E-004	  7.73267E-004	  4.08727E-003	  9.73264E-004
  5.32480E+000	 -2.40565E-003	 -6.80226E-004	  6.61846E-004	  2.73706E-003
  5.73440E+000	 -4.96421E-004	 -2.15266E-003	  1.67000E-003	 -5.69303E-003
  6.14400E+000	  7.38580E-004	  1.77056E-004	  3.51272E-003	  2.20503E-004
  6.55360E+000	 -2.02662E-004	  2.41274E-003	 -8.87034E-004	 -2.46727E-003
  7.37280E+000	 -5.58159E-004	 -1.73324E-004	 -1.44805E-003	  7.82385E-004
  8.19200E+000	 -1.58990E-003	  6.05664E-004	  6.26294E-003	 -7.55107E-004
  9.01120E+000	  2.51943E-004	 -8.78878E-004	 -4.48351E-003	  5.22743E-004
  9.83040E+000	 -1.26501E-003	 -5.07045E-003	  1.89704E-003	 -5.09643E-003
  1.06496E+001	 -9.91109E-004	  1.50167E-003	 -1.21285E-003	  1.39399E-003
  1.14688E+001	  2.63630E-003	 -6.32502E-004	 -1.19667E-003	 -2.03540E-003
  1.22880E+001	  3.45070E-004	  4.42802E-004	 -1.30392E-003	  1.81120E-003
  1.31072E+001	 -8.37253E-004	 -6.03976E-004	 -1.14564E-003	  1.34511E-003
  1.47456E+001	 -5.74335E-004	  7.53098E-004	  1.17358E-003	 -1.28827E-003
  1.63840E+001	 -6.34136E-004	  2.53934E-003	  1.05573E-003	 -9.21963E-004
  1.80224E+001	  1.24172E-003	  9.50046E-004	 -7.74052E-004	 -1.47806E-003
  1.96608E+001	  4.10340E-004	 -2.09838E-003	  1.74637E-003	 -1.03835E-003
  2.12992E+001	 -1.44314E-004	  5.21453E-004	  1.71080E-003	  6.29599E-004
  2.29376E+001	 -9.78603E-005	 -1.73108E-003	  8.15717E-004	 -1.63768E-003
  2.45760E+001	  6.04112E-004	 -6.47491E-004	 -2.25335E-003	 -5.88036E-004
  2.62144E+001	  8.18431E-004	 -4.74646E-004	 -5.98934E-004	  1.39697E-003
  2.94912E+001	 -5.75729E-004	  4.52357E-004	  2.11079E-003	  3.20655E-004
  3.27680E+001	 -9.85496E-004	  1.85476E-004	  6.38172E-004	 -2.63160E-004
  3.60448E+001	 -9.26712E-004	  1.37641E-003	  1.07903E-003	 -2.60334E-003
  3.93216E+001	  2.15578E-004	 -5.07604E-004	 -1.66058E-004	  8.57154E-004
  4.25984E+001	  9.01361E-004	  8.11436E-004	  5.40592E-004	  7.08254E-004
  4.58752E+001	  5.45462E-004	 -7.41436E-004	 -1.80756E-003	 -9.20688E-004
  4.91520E+001	  7.34204E-004	  8.87598E-004	  1.44004E-003	 -1.33019E-003
  5.24288E+001	 -4.47261E-004	 -1.66881E-008	  7.38941E-004	  7.21903E-004
  5.89824E+001	 -4.33462E-004	 -1.02439E-003	 -8.41140E-004	 -9.00454E-005
  6.55360E+001	  1.12626E-003	 -1.91638E-003	  1.16196E-003	 -9.16387E-004
  7.20896E+001	 -3.74260E-004	 -2.04706E-004	  2.36225E-004	 -6.31243E-004
  7.86432E+001	  3.69446E-004	  7.32274E-004	 -3.14110E-004	 -5.09604E-004
  8.51968E+001	  2.33763E-004	  1.00202E-003	 -9.73353E-004	  5.05433E-004
  9.17504E+001	 -1.35005E-005	  1.14240E-003	  1.08280E-003	  9.05859E-004
  9.83040E+001	 -6.33975E-006	 -8.41558E-004	 -1.50170E-003	  6.49666E-004
  1.04858E+002	 -5.01947E-004	 -4.79692E-004	 -1.29668E-003	  2.37012E-004
  1.17965E+002	  2.40042E-004	  1.02637E-003	 -1.03000E-003	  7.48534E-004
  1.31072E+002	 -2.16154E-004	  8.33446E-004	  1.30097E-003	 -1.00644E-003
  1.44179E+002	  1.62667E-004	 -5.83559E-004	  4.61106E-004	  7.62141E-004
  1.57286E+002	 -4.65767E-004	 -3.82940E-004	 -1.12734E-003	 -6.43646E-004
  1.70394E+002	 -3.71533E-004	  7.18141E-004	 -1.05692E-003	  3.41279E-004
  1.83501E+002	 -6.41596E-004	 -1.10845E-003	 -1.22387E-003	  4.97353E-005
  1.96608E+002	 -6.84631E-004	 -6.17400E-004	  6.25450E-004	 -1.75155E-004
  2.09715E+002	  8.02609E-004	  1.29436E-004	  7.79029E-004	  2.06109E-004
  2.35930E+002	  5.54457E-004	  5.13589E-004	 -3.97278E-004	 -9.57706E-005
  2.62144E+002	 -6.75283E-004	 -9.85040E-004	  3.99000E-004	 -2.99228E-004
  2.88358E+002	 -4.00759E-005	  1.60807E-005	  1.69981E-005	  7.74978E-004
  3.14573E+002	  5.41320E-004	  2.14724E-004	 -3.07893E-004	 -4.82647E-004
  3.40787E+002	 -4.21462E-004	  2.54717E-004	  4.24567E-005	  6.15551E-004
  3.67002E+002	 -4.71157E-004	 -3.78410E-004	 -7.99088E-004	 -2.02368E-004
  3.93216E+002	 -1.17037E-004	 -1.85030E-003	 -1.54198E-004	  4.08961E-004

"Count Rate"
       0.01311	      62.48474	      52.49023	      66.14685	      61.49292
       0.02621	      52.79541	      50.04883	      55.46570	      53.93982
       0.03932	      50.96436	      52.94800	      58.89893	      49.74365
       0.05243	      44.63196	      62.25586	      55.77087	      56.61011
       0.06554	      52.03247	      45.77637	      57.14417	      51.34583
       0.07864	      48.82813	      61.11145	      54.39758	      47.91260
       0.09175	      48.29407	      52.33765	      54.16870	      49.51477
       0.10486	      51.80359	      51.34583	      51.04065	      48.98071
       0.11796	      50.12512	      57.14417	      47.91260	      52.71912
       0.13107	      49.74365	      57.83081	      55.38940	      48.52295
       0.14418	      54.55017	      45.08972	      48.67554	      56.07605
       0.15729	      45.54749	      48.90442	      47.98889	      48.90442
       0.17039	      51.72729	      59.96704	      58.13599	      45.85266
       0.18350	      51.04065	      51.49841	      58.36487	      53.02429
       0.19661	      51.26953	      51.95618	      54.85535	      49.81995
       0.20972	      49.36218	      60.42480	      52.94800	      54.62646
       0.22282	      50.20142	      60.27222	      47.91260	      48.29407
       0.23593	      52.56653	      52.56653	      54.16870	      55.08423
       0.24904	      50.43030	      56.76270	      51.65100	      45.70007
       0.26214	      52.41394	      52.26135	      54.39758	      56.38123
       0.27525	      49.36218	      45.16602	      55.99976	      54.39758
       0.28836	      58.05969	      49.81995	      53.86353	      49.81995
       0.30147	      46.99707	      52.10876	      56.91528	      50.65918
       0.31457	      50.73547	      50.20142	      58.82263	      51.72729
       0.32768	      43.71643	      58.13599	      58.74634	      48.14148
       0.34079	      55.54199	      49.97253	      57.22046	      42.80090
       0.35389	      52.71912	      51.42212	      52.10876	      51.26953
       0.36700	      51.42212	      52.94800	      55.69458	      52.71912
       0.38011	      55.69458	      55.84717	      56.99158	      54.39758
       0.39322	      48.37036	      52.71912	      55.99976	      54.39758
       0.40632	      54.39758	      52.94800	      60.27222	      58.89893
       0.41943	      55.00793	      53.48206	      55.46570	      51.42212
       0.43254	      50.27771	      52.10876	      50.81177	      47.30225
       0.44564	      55.23682	      50.96436	      61.79810	      49.28589
       0.45875	      49.74365	      53.71094	      63.09509	      49.28589
       0.47186	      49.20959	      56.38123	      50.58289	      51.80359
       0.48497	      52.41394	      51.04065	      52.64282	      52.94800
       0.49807	      58.59375	      54.47388	      54.39758	      56.61011
       0.51118	      50.88806	      53.78723	      57.44934	      47.37854
       0.52429	      47.14966	      49.36218	      48.52295	      51.19324
       0.53740	      43.25867	      57.44934	      53.63464	      49.13330
       0.55050	      47.68372	      56.91528	      47.37854	      54.39758
       0.56361	      50.04883	      53.71094	      43.41125	      48.75183
       0.57672	      51.11694	      55.31311	      53.40576	      50.58289
       0.58982	      49.28589	      54.01611	      59.12781	      52.18506
       0.60293	      49.66736	      45.08972	      55.69458	      58.21228
       0.61604	      48.44666	      51.42212	      56.22864	      46.38672
       0.62915	      54.85535	      60.11963	      51.87988	      51.87988
       0.64225	      48.44666	      56.61011	      55.38940	      56.38123
       0.65536	      45.39490	      52.64282	      59.81445	      51.87988
       0.66847	      54.16870	      64.84985	      56.15234	      50.20142
       0.68157	      50.65918	      57.60193	      53.32947	      49.74365
       0.69468	      50.20142	      55.31311	      50.35400	      56.45752
       0.70779	      50.27771	      56.76270	      53.10059	      55.00793
       0.72090	      56.61011	      51.19324	      56.61011	      50.58289
       0.73400	      51.42212	      57.83081	      52.26135	      48.37036
       0.74711	      46.23413	      55.23682	      53.86353	      54.01611
