ALV-7004/USB-FAST
Date :	"11/11/2025"
Time :	"3:57:56 PM"
Samplename : 	""
SampMemo(0) : 	""
SampMemo(1) : 	""
SampMemo(2) : 	""
SampMemo(3) : 	""
SampMemo(4) : 	""
SampMemo(5) : 	""
SampMemo(6) : 	""
SampMemo(7) : 	""
SampMemo(8) : 	""
SampMemo(9) : 	""
Temperature [K] :	     298.16000
Viscosity [cp]  :	       0.89000
Refractive Index:	       1.33200
Wavelength [nm] :	       0.00000
Angle [°]       :	       0.00000
Duration [s]    :	         1
FloatDur [ms]   :	          944
Stop TP [ms]   :	     67923
Runs            :	         1
Mode            :	"A-CH0+1  A-CH2+3 "
MeanCR0 [kHz]   :	      51.59272
MeanCR1 [kHz]   :	      54.81614
MeanCR2 [kHz]   :	      54.03201
MeanCR3 [kHz]   :	      53.29874

"Correlation"
  3.12500E-006	 -1.00000E+000	 -1.00000E+000	 -1.00000E+000	 -1.00000E+000
  6.25000E-006	 -1.00000E+000	 -1.00000E+000	 -1.00000E+000	 -1.00000E+000
  9.37500E-006	 -1.00000E+000	 -1.00000E+000	 -1.00000E+000	 -1.00000E+000
  1.25000E-005	 -1.00000E+000	 -1.00000E+000	 -1.00000E+000	 -1.00000E+000
  1.56250E-005	 -1.00000E+000	 -1.00000E+000	 -1.00000E+000	 -1.00000E+000
  1.87500E-005	 -1.00000E+000	 -1.00000E+000	 -1.00000E+000	 -1.00000E+000
  2.18750E-005	 -1.00000E+000	  2.41319E-001	  7.42194E-001	 -8.80636E-001
  2.50000E-005	  1.31401E+001	  1.40087E+001	  8.98858E+000	  2.45439E+001
  2.81250E-005	  3.07644E+000	  2.15972E+000	  2.94897E+000	  8.90722E+000
  3.12500E-005	  1.29300E+000	  6.92707E-001	  7.42194E-001	  5.56502E+000
  3.43750E-005	  9.10829E-001	  1.48264E+000	  1.09063E+000	  4.37138E+000
  3.75000E-005	  1.03822E+000	  1.14410E+000	  8.58341E-001	  4.25202E+000
  4.06250E-005	  1.29300E+000	  9.18402E-001	  7.42194E-001	  3.17774E+000
  4.37500E-005	  1.46498E-001	  1.03125E+000	  4.53166E-002	  2.81965E+000
  4.68750E-005	  1.16561E+000	  1.03125E+000	  1.32293E+000	  2.70029E+000
  5.00000E-005	  7.83441E-001	  1.08767E+000	  4.51828E-001	  2.70029E+000
  5.62500E-005	  9.10829E-001	  5.23437E-001	  8.00267E-001	  1.86474E+000
  6.25000E-005	  6.56052E-001	  1.03125E+000	  1.03390E-001	  1.62601E+000
  6.87500E-005	  2.73886E-001	  1.03125E+000	  2.19536E-001	  1.50665E+000
  7.50000E-005	  2.73886E-001	  7.20480E-002	  2.19536E-001	  1.26792E+000
  8.12500E-005	  6.56052E-001	  9.18402E-001	  1.03256E+000	  1.14855E+000
  8.75000E-005	  5.28663E-001	  8.61978E-001	  1.61463E-001	  6.71097E-001
  9.37500E-005	  4.64969E-001	  5.79860E-001	  1.03390E-001	  1.68569E+000
  1.00000E-004	  4.96816E-001	  8.05554E-001	  6.26048E-001	  9.99348E-001
  1.12500E-004	  7.83441E-001	  2.97742E-001	  4.80865E-001	  6.41256E-001
  1.25000E-004	  7.19746E-001	  5.79860E-001	  6.26048E-001	  1.05903E+000
  1.37500E-004	  7.19746E-001	  4.67013E-001	  3.06645E-001	  6.11415E-001
  1.50000E-004	  4.01275E-001	  6.36284E-001	  3.64719E-001	  5.21892E-001
  1.62500E-004	  4.01275E-001	  5.51648E-001	  6.55084E-001	  7.60620E-001
  1.75000E-004	  2.73886E-001	  4.95225E-001	  5.09901E-001	  4.62210E-001
  1.87500E-004	  6.87899E-001	  5.23436E-001	  5.38938E-001	  3.42846E-001
  2.00000E-004	  5.60510E-001	  4.24695E-001	  4.22791E-001	  5.96494E-001
  2.25000E-004	  5.92357E-001	  2.97742E-001	  5.82493E-001	  7.30779E-001
  2.50000E-004	  4.17198E-001	  5.23436E-001	  5.53456E-001	  5.21892E-001
  2.75000E-004	  6.87899E-001	  4.38801E-001	  5.82493E-001	  3.42845E-001
  3.00000E-004	  5.44587E-001	  6.92707E-001	  5.09901E-001	  5.51733E-001
  3.25000E-004	  6.71975E-001	  1.84895E-001	  8.14785E-001	  6.71097E-001
  3.50000E-004	  4.80892E-001	  4.10589E-001	  1.75981E-001	  4.77130E-001
  3.75000E-004	  7.51593E-001	  5.65754E-001	  5.24419E-001	  7.90461E-001
  4.00000E-004	  3.77388E-001	  7.13865E-001	  6.98638E-001	  6.78556E-001
  4.50000E-004	  6.08280E-001	  5.37541E-001	  5.67943E-001	  5.06970E-001
  5.00000E-004	  4.09236E-001	  6.01018E-001	  5.82461E-001	  6.33795E-001
  5.50000E-004	  4.17197E-001	  3.75324E-001	  5.31648E-001	  5.14431E-001
  6.00000E-004	  3.53503E-001	  6.43335E-001	  6.40533E-001	  4.92050E-001
  6.50000E-004	  5.68471E-001	  4.95224E-001	  5.89720E-001	  4.32368E-001
  7.00000E-004	  5.12739E-001	  4.88171E-001	  3.86468E-001	  5.74113E-001
  7.50000E-004	  4.72930E-001	  3.82377E-001	  5.67943E-001	  3.27924E-001
  8.00000E-004	  5.16718E-001	  5.26961E-001	  5.31677E-001	  3.50304E-001
  9.00000E-004	  4.68978E-001	  3.47111E-001	  5.38936E-001	  5.10699E-001
  1.00000E-003	  2.61967E-001	  4.10587E-001	  4.69974E-001	  4.65938E-001
  1.10000E-003	  5.36654E-001	  4.07061E-001	  3.68346E-001	  5.40540E-001
  1.20000E-003	  6.24269E-001	  4.91696E-001	  5.78861E-001	  5.89032E-001
  1.30000E-003	  3.21709E-001	  5.26961E-001	  5.13499E-001	  4.58478E-001
  1.40000E-003	  3.61520E-001	  4.74064E-001	  5.53424E-001	  4.06256E-001
  1.50000E-003	  4.37160E-001	  5.55172E-001	  3.61060E-001	  4.58478E-001
  1.60000E-003	  4.65025E-001	  4.65245E-001	  3.23000E-001	  4.60340E-001
  1.80000E-003	  4.05309E-001	  3.55925E-001	  4.62741E-001	  4.73396E-001
  2.00000E-003	  4.33176E-001	  4.24691E-001	  4.39148E-001	  4.52880E-001
  2.20000E-003	  4.07299E-001	  3.82373E-001	  4.19185E-001	  4.09984E-001
  2.40000E-003	  4.82939E-001	  4.29980E-001	  3.70185E-001	  5.23752E-001
  2.60000E-003	  4.47110E-001	  3.92952E-001	  4.08297E-001	  3.50302E-001
  2.80000E-003	  3.05783E-001	  4.81114E-001	  4.40963E-001	  4.19309E-001
  3.00000E-003	  3.77442E-001	  4.37033E-001	  3.81047E-001	  3.89468E-001
  3.20000E-003	  4.10280E-001	  4.01764E-001	  3.82031E-001	  4.23995E-001
  3.60000E-003	  4.32176E-001	  3.78842E-001	  4.30126E-001	  4.30523E-001
  4.00000E-003	  4.06299E-001	  3.84132E-001	  4.33727E-001	  3.88558E-001
  4.40000E-003	  4.91892E-001	  4.06172E-001	  4.01088E-001	  4.33320E-001
  4.80000E-003	  4.23219E-001	  4.16751E-001	  4.11069E-001	  3.13981E-001
  5.20000E-003	  3.94356E-001	  3.85013E-001	  3.62975E-001	  4.36147E-001
  5.60000E-003	  3.79427E-001	  3.72671E-001	  3.65697E-001	  4.45472E-001
  6.00000E-003	  3.42603E-001	  4.03527E-001	  3.74772E-001	  3.69935E-001
  6.40000E-003	  4.16740E-001	  3.57233E-001	  4.01188E-001	  3.75575E-001
  7.20000E-003	  3.72949E-001	  3.91175E-001	  3.88456E-001	  4.11918E-001
  8.00000E-003	  3.74939E-001	  3.70017E-001	  3.73936E-001	  3.87672E-001
  8.80000E-003	  3.89868E-001	  3.66049E-001	  3.56240E-001	  3.28453E-001
  9.60000E-003	  3.25674E-001	  3.77510E-001	  3.96623E-001	  3.62958E-001
  1.04000E-002	  3.62499E-001	  3.70017E-001	  3.82984E-001	  3.58295E-001
  1.12000E-002	  3.88873E-001	  3.21528E-001	  3.53491E-001	  3.84407E-001
  1.20000E-002	  3.36622E-001	  3.51944E-001	  3.56667E-001	  3.72284E-001
  1.28000E-002	  3.36908E-001	  3.38481E-001	  3.39111E-001	  3.58098E-001
  1.44000E-002	  3.48105E-001	  3.28589E-001	  3.12993E-001	  3.34083E-001
  1.60000E-002	  3.22752E-001	  3.39829E-001	  3.13900E-001	  3.14033E-001
  1.76000E-002	  3.08320E-001	  3.12279E-001	  3.23403E-001	  3.02582E-001
  1.92000E-002	  2.89659E-001	  2.77676E-001	  3.28622E-001	  2.95355E-001
  2.08000E-002	  2.67264E-001	  2.81888E-001	  3.25672E-001	  2.86003E-001
  2.24000E-002	  2.44124E-001	  3.04395E-001	  2.92346E-001	  2.98153E-001
  2.40000E-002	  2.76969E-001	  2.88991E-001	  2.58742E-001	  2.73672E-001
  2.56000E-002	  2.61435E-001	  2.69670E-001	  2.55817E-001	  2.70424E-001
  2.88000E-002	  2.63923E-001	  2.36058E-001	  2.42795E-001	  2.54337E-001
  3.20000E-002	  2.26350E-001	  2.18425E-001	  2.45720E-001	  2.32188E-001
  3.52000E-002	  2.11744E-001	  2.30658E-001	  2.11230E-001	  2.22979E-001
  3.84000E-002	  2.10375E-001	  2.13796E-001	  2.00202E-001	  2.01529E-001
  4.16000E-002	  1.83627E-001	  2.08176E-001	  1.94279E-001	  2.10505E-001
  4.48000E-002	  1.59616E-001	  1.76878E-001	  2.04125E-001	  2.01155E-001
  4.80000E-002	  1.76436E-001	  1.81616E-001	  1.62354E-001	  1.96352E-001
  5.12000E-002	  1.58820E-001	  1.69012E-001	  1.54066E-001	  1.75318E-001
  5.76000E-002	  1.34556E-001	  1.39699E-001	  1.46293E-001	  1.71063E-001
  6.40000E-002	  1.47248E-001	  1.22584E-001	  1.23145E-001	  1.30905E-001
  7.04000E-002	  1.11723E-001	  1.19024E-001	  1.17777E-001	  1.25834E-001
  7.68000E-002	  9.68536E-002	  1.01302E-001	  1.06975E-001	  1.19014E-001
  8.32000E-002	  8.33529E-002	  7.63956E-002	  1.09790E-001	  1.08232E-001
  8.96000E-002	  8.09043E-002	  7.72222E-002	  7.78271E-002	  1.01900E-001
  9.60000E-002	  7.49317E-002	  7.15465E-002	  7.43242E-002	  7.82149E-002
  1.02400E-001	  6.05045E-002	  6.77592E-002	  6.91518E-002	  8.18680E-002
  1.15200E-001	  5.63945E-002	  5.86743E-002	  5.98256E-002	  5.72403E-002
  1.28000E-001	  5.17493E-002	  5.51202E-002	  4.99595E-002	  6.23407E-002
  1.40800E-001	  5.51378E-002	  3.12335E-002	  4.31059E-002	  5.21817E-002
  1.53600E-001	  4.69962E-002	  2.28029E-002	  2.77519E-002	  4.11851E-002
  1.66400E-001	  3.88159E-002	  3.36580E-002	  2.96245E-002	  3.80907E-002
  1.79200E-001	  3.54983E-002	  2.15751E-002	  1.83324E-002	  3.28472E-002
  1.92000E-001	  2.24508E-002	  2.63383E-002	  1.52114E-002	  2.10905E-002
  2.04800E-001	  1.18613E-002	  2.07485E-002	  4.41147E-003	  2.15754E-002
  2.30400E-001	  9.11757E-003	  1.52863E-002	  2.65815E-003	  1.78053E-002
  2.56000E-001	  9.90596E-003	  6.41874E-003	  4.48320E-003	  1.60682E-002
  2.81600E-001	 -9.86735E-005	 -1.95005E-004	  9.37026E-003	  1.23947E-002
  3.07200E-001	  9.48066E-003	  4.83419E-003	  3.83422E-005	  1.02262E-002
  3.32800E-001	  1.48837E-003	  4.44591E-003	 -2.74157E-003	  8.34211E-003
  3.58400E-001	  2.80886E-004	 -8.34206E-004	  8.80017E-004	  3.73340E-003
  3.84000E-001	 -5.73113E-003	 -1.55785E-002	  3.60470E-004	  1.06202E-002
  4.09600E-001	 -5.45440E-003	 -7.22828E-003	  3.79379E-003	  6.24044E-003
  4.60800E-001	  4.91988E-003	 -7.37006E-003	  6.12310E-003	 -2.70841E-003
  5.12000E-001	  1.31375E-003	 -2.43316E-003	 -4.45076E-005	 -7.00955E-003
  5.63200E-001	  1.52891E-003	 -6.26891E-003	 -5.49133E-003	 -1.01255E-002
  6.14400E-001	  5.73836E-004	 -8.12275E-004	 -6.73891E-003	  5.86328E-004
  6.65600E-001	 -3.62353E-004	 -1.09451E-002	 -2.38432E-003	 -6.68043E-003
  7.16800E-001	 -1.82769E-003	  1.02383E-003	 -5.51431E-004	  7.89739E-003
  7.68000E-001	 -1.51289E-003	 -2.42488E-003	  1.95120E-003	 -2.67884E-003
  8.19200E-001	 -3.90215E-003	  2.72933E-003	 -2.67757E-003	  2.40876E-003
  9.21600E-001	 -5.79234E-003	 -1.89618E-003	 -1.92615E-003	 -2.62371E-003
  1.02400E+000	 -1.25583E-003	  2.24866E-003	 -5.81216E-003	 -1.45504E-003
  1.12640E+000	 -8.53821E-003	  5.52828E-003	  2.33576E-004	 -4.41627E-003
  1.22880E+000	  4.92475E-003	 -3.00052E-003	 -3.67014E-004	 -7.05063E-003
  1.33120E+000	  6.38076E-003	 -4.74818E-005	  3.38301E-003	  7.68159E-004
  1.43360E+000	  1.48940E-002	 -1.42707E-003	  1.54778E-003	  2.65816E-004
  1.53600E+000	  1.03786E-003	 -9.00445E-003	  7.70806E-003	  3.62089E-003
  1.63840E+000	 -2.63146E-003	 -2.17502E-003	  2.77695E-003	  2.78595E-003
  1.84320E+000	  3.43334E-003	 -1.36538E-003	 -8.62715E-003	  2.76213E-003
  2.04800E+000	  3.49967E-003	 -1.77910E-003	  1.85637E-003	  5.68635E-003
  2.25280E+000	  1.88633E-003	 -3.19354E-003	  1.20606E-003	  6.42427E-003
  2.45760E+000	  7.19053E-003	 -2.55953E-003	  1.27287E-003	  1.17524E-003
  2.66240E+000	  7.69139E-004	 -7.81382E-003	  8.93115E-004	  6.31105E-004
  2.86720E+000	  1.54284E-003	  8.61057E-004	 -4.57365E-003	 -4.24661E-003
  3.07200E+000	 -2.60242E-003	 -1.52099E-003	  4.05423E-003	 -4.68400E-003
  3.27680E+000	  2.18719E-003	 -7.62692E-004	 -5.12554E-004	 -3.88007E-003
  3.68640E+000	  9.35966E-004	  1.75551E-003	 -3.48508E-003	 -2.46333E-003
  4.09600E+000	 -5.71729E-003	  1.68885E-004	  2.35861E-003	 -1.17673E-003
  4.50560E+000	 -1.49074E-003	 -8.48840E-003	  1.56757E-003	 -2.33018E-003
  4.91520E+000	  1.96469E-003	 -1.38330E-003	  1.76629E-003	 -5.73136E-003
  5.32480E+000	 -6.09973E-003	  1.61191E-003	 -1.42544E-003	  3.77415E-004
  5.73440E+000	 -1.95954E-003	 -1.51726E-003	  5.08560E-005	 -1.84598E-004
  6.14400E+000	  1.83355E-003	 -3.36802E-003	  9.75908E-004	 -9.12304E-004
  6.55360E+000	  2.87591E-003	 -1.78786E-003	  2.45340E-003	  6.03292E-004
  7.37280E+000	 -3.84039E-003	 -1.15813E-003	 -5.15901E-004	  3.82236E-003
  8.19200E+000	  2.76264E-003	 -2.37932E-003	  3.75931E-003	  2.69819E-003
  9.01120E+000	  9.42974E-004	  2.65845E-003	  5.65429E-005	  3.08623E-003
  9.83040E+000	  1.58517E-004	 -2.61409E-003	  1.87505E-003	 -7.73893E-004
  1.06496E+001	 -2.88079E-003	 -5.74854E-004	 -2.09929E-003	 -2.31967E-003
  1.14688E+001	  5.57016E-004	  3.66103E-003	  3.61533E-003	 -1.70815E-003
  1.22880E+001	 -2.62423E-003	 -1.93117E-003	  2.74096E-003	 -5.50648E-004
  1.31072E+001	  5.82309E-004	 -1.09452E-003	  1.34803E-003	 -2.78698E-003
  1.47456E+001	 -1.32174E-003	 -1.42345E-005	 -9.15146E-004	 -2.97833E-003
  1.63840E+001	 -2.61396E-003	 -1.13100E-003	  5.18387E-004	  2.04471E-003
  1.80224E+001	 -8.59240E-004	 -1.67725E-003	  1.16393E-003	 -1.36981E-003
  1.96608E+001	  1.38577E-003	 -2.02063E-004	  1.12068E-003	  3.40696E-003
  2.12992E+001	  2.20845E-003	 -1.75288E-003	 -2.38063E-004	  1.85877E-004
  2.29376E+001	 -1.17083E-003	  1.62954E-004	  1.75284E-003	 -4.39753E-005
  2.45760E+001	 -1.82842E-003	  3.54868E-003	 -8.41910E-004	  1.43768E-003
  2.62144E+001	 -1.44135E-004	 -1.22163E-004	 -2.55642E-004	  1.10268E-003
  2.94912E+001	  1.14236E-004	  9.34920E-004	 -8.05716E-004	 -2.21928E-003
  3.27680E+001	  6.05558E-004	  9.20121E-004	  1.91009E-004	  2.94956E-004
  3.60448E+001	  1.47826E-004	  1.18801E-003	 -1.54780E-003	  2.91840E-003
  3.93216E+001	 -8.97283E-004	 -1.53903E-004	  1.43930E-004	 -4.15123E-003
  4.25984E+001	 -7.75355E-004	 -3.65391E-003	 -2.47306E-003	 -2.44134E-004
  4.58752E+001	  1.49069E-004	  4.31446E-004	  2.27608E-004	 -3.13896E-003
  4.91520E+001	  1.65393E-003	  7.10979E-004	 -9.52869E-004	 -1.23431E-003
  5.24288E+001	  1.24294E-004	 -8.47744E-004	 -1.06685E-003	 -1.63342E-004
  5.89824E+001	 -3.37306E-005	  2.97685E-005	 -1.73937E-003	 -3.37725E-004
  6.55360E+001	 -1.13185E-003	 -5.08886E-004	 -9.02987E-004	  1.71154E-004
  7.20896E+001	 -4.49479E-004	  9.85299E-004	  6.69679E-004	 -9.66217E-005
  7.86432E+001	  3.32869E-004	 -6.94833E-004	  9.85112E-004	  1.01153E-003
  8.51968E+001	 -3.79505E-004	  8.60726E-004	  4.92154E-004	 -7.64693E-004
  9.17504E+001	 -2.76478E-004	  4.55084E-004	  1.17975E-003	  5.25747E-004
  9.83040E+001	 -1.83380E-004	 -1.09864E-003	  8.09354E-004	  1.00711E-003
  1.04858E+002	 -6.83744E-004	 -1.17783E-003	 -1.06962E-003	 -1.59106E-004
  1.17965E+002	  9.99331E-004	 -3.33270E-004	 -1.57205E-003	 -2.75533E-004
  1.31072E+002	 -7.83540E-004	 -6.32605E-005	 -1.25673E-003	  6.61413E-005
  1.44179E+002	  8.86164E-004	 -4.88425E-004	  2.09229E-004	 -1.14332E-004
  1.57286E+002	 -9.87450E-004	  1.20033E-003	  6.94147E-004	  4.01409E-004
  1.70394E+002	  6.09336E-004	 -5.39502E-004	  3.17005E-004	  7.61301E-004
  1.83501E+002	  7.28315E-004	 -2.72662E-004	  4.53756E-004	 -2.77117E-004
  1.96608E+002	  6.44370E-004	  8.49062E-004	 -4.32814E-004	 -8.74255E-004
  2.09715E+002	 -1.40999E-004	 -2.09482E-004	 -2.35054E-004	 -3.33113E-004
  2.35930E+002	 -1.95706E-004	  6.08984E-004	  5.57760E-004	 -1.01854E-005
  2.62144E+002	  3.25096E-004	  6.44818E-005	 -5.04341E-004	 -2.09545E-004
  2.88358E+002	  4.03118E-004	 -7.26388E-004	 -2.17408E-004	  5.57877E-005
  3.14573E+002	  1.78512E-004	  5.42283E-004	  3.66150E-004	  2.03001E-004
  3.40787E+002	  2.21091E-004	 -1.19756E-004	 -6.13268E-004	 -4.77373E-004
  3.67002E+002	  2.79109E-004	 -1.66563E-005	 -5.83500E-004	 -2.02507E-004
  3.93216E+002	 -7.04214E-004	  6.43476E-005	  2.00740E-003	  7.53216E-004

"Count Rate"
       0.01311	      38.45215	      58.13599	      50.27771	      47.98889
       0.02621	      52.18506	      58.28857	      53.86353	      49.89624
       0.03932	      46.61560	      56.15234	      53.48206	      51.72729
       0.05243	      48.06519	      53.93982	      56.76270	      44.93713
       0.06554	      49.89624	      47.07336	      60.95886	      51.87988
       0.07864	      52.41394	      58.67004	      53.10059	      64.16321
       0.09175	      53.48206	      51.57471	      55.23682	      56.91528
       0.10486	      52.03247	      54.39758	      55.00793	      65.30762
       0.11796	      51.26953	      52.94800	      48.75183	      48.29407
       0.13107	      51.11694	      53.40576	      43.94531	      50.12512
       0.14418	      51.87988	      53.48206	      53.93982	      46.61560
       0.15729	      47.14966	      53.40576	      50.81177	      46.31042
       0.17039	      55.46570	      51.34583	      57.29675	      56.99158
       0.18350	      50.35400	      54.01611	      59.20410	      50.20142
       0.19661	      49.74365	      56.45752	      47.98889	      55.54199
       0.20972	      50.20142	      51.87988	      51.72729	      51.42212
       0.22282	      50.20142	      50.27771	      53.32947	      49.66736
       0.23593	      54.77905	      55.16052	      57.44934	      54.62646
       0.24904	      47.68372	      52.49023	      55.54199	      56.83899
       0.26214	      54.47388	      54.62646	      60.72998	      53.40576
       0.27525	      55.99976	      56.30493	      50.58289	      49.36218
       0.28836	      59.50928	      49.81995	      57.37305	      52.87170
       0.30147	      49.89624	      54.55017	      59.66187	      54.01611
       0.31457	      50.96436	      53.17688	      55.77087	      51.49841
       0.32768	      46.61560	      57.14417	      56.45752	      53.55835
       0.34079	      47.76001	      52.26135	      48.82813	      47.68372
       0.35389	      52.49023	      55.69458	      49.59106	      54.62646
       0.36700	      48.98071	      50.43030	      46.61560	      50.35400
       0.38011	      46.23413	      53.55835	      50.12512	      50.12512
       0.39322	      57.14417	      58.13599	      57.22046	      50.27771
       0.40632	      52.33765	      45.77637	      57.44934	      52.49023
       0.41943	      42.80090	      54.77905	      54.01611	      50.27771
       0.43254	      54.55017	      51.65100	      49.51477	      55.38940
       0.44564	      51.42212	      50.04883	      52.71912	      44.93713
       0.45875	      51.26953	      57.22046	      49.51477	      50.35400
       0.47186	      54.47388	      61.34033	      62.56104	      55.38940
       0.48497	      53.32947	      54.32129	      55.16052	      54.24500
       0.49807	      49.89624	      51.26953	      53.40576	      53.10059
       0.51118	      48.44666	      54.62646	      47.76001	      48.67554
       0.52429	      51.80359	      57.75452	      50.50659	      54.85535
       0.53740	      51.49841	      51.95618	      46.38672	      51.57471
       0.55050	      52.64282	      56.38123	      54.93164	      52.26135
       0.56361	      43.56384	      50.96436	      60.27222	      55.00793
       0.57672	      56.07605	      48.82813	      52.18506	      57.29675
       0.58982	      46.00525	      53.78723	      50.73547	      53.25317
       0.60293	      55.00793	      48.82813	      54.24500	      53.48206
       0.61604	      51.72729	      56.91528	      49.28589	      51.57471
       0.62915	      48.75183	      54.85535	      52.10876	      51.34583
       0.64225	      46.08154	      51.42212	      54.16870	      51.80359
       0.65536	      51.72729	      54.01611	      62.33215	      59.58557
       0.66847	      51.57471	      51.26953	      54.09241	      52.71912
       0.68157	      46.61560	      55.46570	      51.49841	      54.39758
       0.69468	      46.61560	      57.44934	      56.61011	      53.40576
       0.70779	      42.34314	      60.57739	      52.87170	      52.87170
       0.72090	      52.94800	      58.82263	      49.81995	      54.39758
       0.73400	      51.26953	      53.02429	      49.89624	      56.83899
       0.74711	      50.50659	      56.38123	      52.71912	      50.20142
