ALV-7004/USB-FAST
Date :	"11/11/2025"
Time :	"3:53:15 PM"
Samplename : 	""
SampMemo(0) : 	""
SampMemo(1) : 	""
SampMemo(2) : 	""
SampMemo(3) : 	""
SampMemo(4) : 	""
SampMemo(5) : 	""
SampMemo(6) : 	""
SampMemo(7) : 	""
SampMemo(8) : 	""
SampMemo(9) : 	""
Temperature [K] :	     298.16000
Viscosity [cp]  :	       0.89000
Refractive Index:	       1.33200
Wavelength [nm] :	       0.00000
Angle [°]       :	       0.00000
Duration [s]    :	         1
FloatDur [ms]   :	          944
Stop TP [ms]   :	     58117
Runs            :	         1
Mode            :	"A-CH0+1  A-CH2+3 "
MeanCR0 [kHz]   :	      56.66839
MeanCR1 [kHz]   :	      58.26738
MeanCR2 [kHz]   :	      60.56468
MeanCR3 [kHz]   :	      55.03548

"Correlation"
  3.12500E-006	 -1.00000E+000	 -1.00000E+000	 -1.00000E+000	 -1.00000E+000
  6.25000E-006	 -1.00000E+000	 -1.00000E+000	 -1.00000E+000	 -1.00000E+000
  9.37500E-006	 -1.00000E+000	 -1.00000E+000	 -1.00000E+000	 -1.00000E+000
  1.25000E-005	 -1.00000E+000	 -1.00000E+000	 -1.00000E+000	 -1.00000E+000
  1.56250E-005	 -1.00000E+000	 -1.00000E+000	 -1.00000E+000	 -1.00000E+000
  1.87500E-005	 -1.00000E+000	 -1.00000E+000	 -1.00000E+000	 -1.00000E+000
  2.18750E-005	 -1.00000E+000	  9.86243E-002	  8.48837E-001	 -8.88051E-001
  2.50000E-005	  1.26212E+001	  1.38814E+001	  1.14797E+001	  2.59798E+001
  2.81250E-005	  3.01245E+000	  2.39575E+000	  2.23547E+000	  8.96350E+000
  3.12500E-005	  1.42859E+000	  1.39700E+000	  1.03372E+000	  7.95596E+000
  3.43750E-005	  1.95654E+000	  4.98124E-001	  9.41279E-001	  4.03772E+000
  3.75000E-005	  1.61498E-001	  1.09737E+000	  1.31105E+000	  5.04527E+000
  4.06250E-005	  9.00633E-001	  6.97874E-001	  1.03372E+000	  3.47798E+000
  4.37500E-005	  5.83861E-001	  5.97999E-001	  5.71512E-001	  2.58238E+000
  4.68750E-005	  3.72680E-001	  7.97749E-001	  6.63954E-001	  2.24653E+000
  5.00000E-005	  6.36656E-001	  1.24719E+000	  9.87500E-001	  2.02263E+000
  5.62500E-005	  7.42247E-001	  7.97749E-001	  1.40349E+000	  2.13458E+000
  6.25000E-005	  1.16461E+000	  4.48187E-001	  9.87500E-001	  1.79874E+000
  6.87500E-005	  8.47838E-001	  6.47936E-001	  6.63954E-001	  1.96666E+000
  7.50000E-005	  5.83861E-001	  8.47686E-001	  5.25291E-001	  1.29496E+000
  8.12500E-005	  6.36656E-001	  8.97624E-001	  5.25291E-001	  1.57484E+000
  8.75000E-005	  4.78270E-001	  7.47811E-001	  3.86628E-001	  1.18301E+000
  9.37500E-005	  6.36656E-001	  7.47811E-001	  8.48837E-001	  9.59115E-001
  1.00000E-004	  5.83861E-001	  8.22717E-001	  6.87064E-001	  1.15503E+000
  1.12500E-004	  2.93486E-001	  9.72530E-001	  3.63517E-001	  3.71380E-001
  1.25000E-004	  7.95042E-001	  7.72780E-001	  6.87064E-001	  6.79241E-001
  1.37500E-004	  4.25475E-001	  3.98249E-001	  2.47965E-001	  8.19178E-001
  1.50000E-004	  4.51872E-001	  4.23218E-001	  3.86628E-001	  9.03140E-001
  1.62500E-004	  4.78270E-001	  6.72905E-001	  8.48837E-001	  9.87102E-001
  1.75000E-004	  5.83861E-001	  6.22968E-001	  4.32849E-001	  7.07229E-001
  1.87500E-004	  6.10258E-001	  1.73530E-001	  7.56395E-001	  7.91191E-001
  2.00000E-004	  6.23457E-001	  5.60545E-001	  2.82630E-001	  9.31127E-001
  2.25000E-004	  5.44264E-001	  4.98124E-001	  4.44404E-001	  5.81285E-001
  2.50000E-004	  5.17866E-001	  4.98124E-001	  4.55959E-001	  5.11317E-001
  2.75000E-004	  3.33083E-001	  5.23092E-001	  2.47965E-001	  6.93235E-001
  3.00000E-004	  3.59480E-001	  3.10858E-001	  5.94622E-001	  6.09273E-001
  3.25000E-004	  5.04667E-001	  8.22717E-001	  4.90625E-001	  5.95279E-001
  3.50000E-004	  5.04667E-001	  4.98124E-001	  3.86628E-001	  6.37260E-001
  3.75000E-004	  3.46281E-001	  6.60420E-001	  4.32848E-001	  5.95279E-001
  4.00000E-004	  4.25474E-001	  5.66787E-001	  4.21293E-001	  6.23266E-001
  4.50000E-004	  5.90459E-001	  5.85513E-001	  5.31067E-001	  3.50389E-001
  5.00000E-004	  4.71670E-001	  4.91881E-001	  4.96402E-001	  4.41348E-001
  5.50000E-004	  5.44263E-001	  4.29459E-001	  6.29287E-001	  3.99367E-001
  6.00000E-004	  3.99076E-001	  5.29334E-001	  5.36845E-001	  3.99367E-001
  6.50000E-004	  4.98067E-001	  6.97873E-001	  5.19512E-001	  4.48345E-001
  7.00000E-004	  3.99076E-001	  5.91756E-001	  4.38625E-001	  4.48345E-001
  7.50000E-004	  6.30056E-001	  5.79271E-001	  4.09737E-001	  4.55342E-001
  8.00000E-004	  4.51870E-001	  4.98122E-001	  3.40405E-001	  4.20356E-001
  9.00000E-004	  5.14565E-001	  4.63790E-001	  4.50179E-001	  4.79829E-001
  1.00000E-003	  4.38671E-001	  4.91879E-001	  4.27069E-001	  5.25309E-001
  1.10000E-003	  5.07965E-001	  5.44938E-001	  3.54849E-001	  4.41347E-001
  1.20000E-003	  4.88167E-001	  4.35700E-001	  4.96400E-001	  5.60293E-001
  1.30000E-003	  4.88167E-001	  4.60669E-001	  4.73290E-001	  5.46299E-001
  1.40000E-003	  4.12274E-001	  4.20094E-001	  4.79068E-001	  4.27353E-001
  1.50000E-003	  6.39953E-001	  4.70032E-001	  5.25288E-001	  4.02864E-001
  1.60000E-003	  5.04663E-001	  5.24648E-001	  5.19508E-001	  4.67582E-001
  1.80000E-003	  4.78265E-001	  4.79393E-001	  5.10842E-001	  4.64084E-001
  2.00000E-003	  4.15571E-001	  5.35572E-001	  5.16619E-001	  4.99068E-001
  2.20000E-003	  5.54158E-001	  4.23213E-001	  4.25622E-001	  4.32598E-001
  2.40000E-003	  3.89174E-001	  3.62352E-001	  3.59180E-001	  4.06360E-001
  2.60000E-003	  4.73316E-001	  4.21653E-001	  4.66065E-001	  4.86824E-001
  2.80000E-003	  4.25470E-001	  4.76272E-001	  4.67510E-001	  3.92367E-001
  3.00000E-003	  4.81565E-001	  4.49742E-001	  5.52729E-001	  3.95865E-001
  3.20000E-003	  4.81560E-001	  4.17746E-001	  4.72560E-001	  3.59127E-001
  3.60000E-003	  4.38664E-001	  4.40374E-001	  4.87726E-001	  3.53005E-001
  4.00000E-003	  4.37014E-001	  4.67684E-001	  4.26340E-001	  4.57985E-001
  4.40000E-003	  4.04017E-001	  3.86536E-001	  4.45117E-001	  4.56236E-001
  4.80000E-003	  3.83394E-001	  4.38814E-001	  4.08285E-001	  3.89765E-001
  5.20000E-003	  3.64421E-001	  4.13845E-001	  4.36450E-001	  3.69649E-001
  5.60000E-003	  4.18866E-001	  4.62222E-001	  4.02507E-001	  4.96468E-001
  6.00000E-003	  3.63596E-001	  4.46616E-001	  4.42950E-001	  3.30291E-001
  6.40000E-003	  3.84622E-001	  4.23979E-001	  4.45468E-001	  3.94128E-001
  7.20000E-003	  4.21744E-001	  4.20103E-001	  4.05386E-001	  3.71826E-001
  8.00000E-003	  4.02770E-001	  3.85381E-001	  3.98164E-001	  3.85382E-001
  8.80000E-003	  3.62350E-001	  4.11911E-001	  4.58829E-001	  3.77948E-001
  9.60000E-003	  3.68124E-001	  4.07619E-001	  4.03220E-001	  3.81473E-001
  1.04000E-002	  3.94109E-001	  3.95135E-001	  4.15883E-001	  4.28266E-001
  1.12000E-002	  3.94521E-001	  3.90063E-001	  3.67134E-001	  4.06837E-001
  1.20000E-002	  3.43789E-001	  4.12691E-001	  3.73995E-001	  3.27684E-001
  1.28000E-002	  3.47070E-001	  3.99992E-001	  3.93681E-001	  3.82548E-001
  1.44000E-002	  3.61712E-001	  3.88093E-001	  4.09750E-001	  3.77327E-001
  1.60000E-002	  3.63568E-001	  3.74829E-001	  3.79441E-001	  3.51962E-001
  1.76000E-002	  3.65837E-001	  3.57297E-001	  3.63552E-001	  3.47615E-001
  1.92000E-002	  3.61919E-001	  3.60809E-001	  3.44594E-001	  3.39087E-001
  2.08000E-002	  3.51607E-001	  3.38766E-001	  3.49108E-001	  3.38431E-001
  2.24000E-002	  2.89739E-001	  3.53201E-001	  3.48566E-001	  3.30559E-001
  2.40000E-002	  3.51607E-001	  3.62564E-001	  3.66080E-001	  3.36901E-001
  2.56000E-002	  3.28680E-001	  3.43557E-001	  3.48553E-001	  3.40363E-001
  2.88000E-002	  3.11564E-001	  3.46874E-001	  3.34086E-001	  3.23552E-001
  3.20000E-002	  3.10739E-001	  3.13126E-001	  2.99330E-001	  3.14259E-001
  3.52000E-002	  2.94963E-001	  3.15662E-001	  3.01496E-001	  2.97531E-001
  3.84000E-002	  2.95582E-001	  3.21319E-001	  3.16482E-001	  2.97312E-001
  4.16000E-002	  2.72073E-001	  2.91571E-001	  2.87233E-001	  2.90012E-001
  4.48000E-002	  2.82796E-001	  2.77818E-001	  2.89129E-001	  2.49778E-001
  4.80000E-002	  2.61968E-001	  2.74502E-001	  2.79582E-001	  2.42149E-001
  5.12000E-002	  2.59027E-001	  2.73062E-001	  2.59988E-001	  2.49806E-001
  5.76000E-002	  2.12832E-001	  2.46093E-001	  2.60079E-001	  2.39748E-001
  6.40000E-002	  2.07160E-001	  2.29223E-001	  2.43693E-001	  1.99622E-001
  7.04000E-002	  1.99994E-001	  2.08985E-001	  2.30828E-001	  1.98364E-001
  7.68000E-002	  1.72669E-001	  2.00304E-001	  2.13088E-001	  1.84533E-001
  8.32000E-002	  1.82207E-001	  1.74750E-001	  1.85352E-001	  1.82401E-001
  8.96000E-002	  1.54314E-001	  1.73726E-001	  1.81966E-001	  1.78028E-001
  9.60000E-002	  1.46499E-001	  1.67874E-001	  1.62511E-001	  1.54248E-001
  1.02400E-001	  1.40341E-001	  1.55345E-001	  1.57339E-001	  1.46756E-001
  1.15200E-001	  1.23480E-001	  1.36521E-001	  1.46982E-001	  1.18130E-001
  1.28000E-001	  1.05731E-001	  1.15755E-001	  1.23671E-001	  1.17174E-001
  1.40800E-001	  9.51094E-002	  1.03702E-001	  1.13312E-001	  9.74436E-002
  1.53600E-001	  8.29005E-002	  9.20178E-002	  9.64531E-002	  8.26892E-002
  1.66400E-001	  6.54477E-002	  7.82994E-002	  8.89116E-002	  7.50082E-002
  1.79200E-001	  7.69655E-002	  7.54466E-002	  7.54153E-002	  6.45118E-002
  1.92000E-001	  5.80567E-002	  7.59830E-002	  7.12213E-002	  5.96120E-002
  2.04800E-001	  5.47736E-002	  6.13740E-002	  6.83810E-002	  5.09747E-002
  2.30400E-001	  4.27709E-002	  6.14177E-002	  5.11491E-002	  4.83504E-002
  2.56000E-001	  2.75516E-002	  5.30715E-002	  4.10222E-002	  4.00821E-002
  2.81600E-001	  2.54370E-002	  4.09499E-002	  4.47393E-002	  3.11174E-002
  3.07200E-001	  1.95647E-002	  2.89447E-002	  3.13397E-002	  1.66653E-002
  3.32800E-001	  1.01739E-002	  2.67919E-002	  2.82409E-002	  1.87563E-002
  3.58400E-001	  1.10953E-002	  1.56098E-002	  3.57340E-002	  2.37676E-002
  3.84000E-001	  2.11430E-003	  2.41098E-002	  2.78526E-002	  1.85745E-002
  4.09600E-001	  2.64363E-003	  1.45809E-002	  1.93619E-002	  1.27614E-002
  4.60800E-001	  7.66887E-004	  1.11029E-002	  1.60721E-002	 -5.77373E-004
  5.12000E-001	 -8.40557E-003	  1.14444E-002	  6.32881E-003	  8.78399E-003
  5.63200E-001	 -1.58464E-003	  9.51620E-003	  1.29531E-002	  7.19740E-003
  6.14400E-001	 -4.78175E-003	  1.94046E-003	  1.40215E-002	  3.75748E-003
  6.65600E-001	 -2.88158E-004	  2.94035E-003	  7.97958E-003	  5.57746E-004
  7.16800E-001	  1.19439E-003	  6.96653E-003	  3.66224E-003	  2.94629E-003
  7.68000E-001	 -5.34370E-003	  9.28479E-003	 -2.38974E-003	 -2.07867E-003
  8.19200E-001	  1.83215E-003	  2.44886E-003	 -4.08877E-004	  1.56302E-003
  9.21600E-001	 -4.48765E-003	 -4.87615E-003	  7.14847E-003	 -9.11731E-003
  1.02400E+000	 -9.25342E-004	 -2.05347E-003	  3.22477E-003	 -1.16960E-002
  1.12640E+000	 -9.44400E-003	  3.24253E-003	 -1.76850E-003	 -9.32214E-003
  1.22880E+000	 -1.40427E-002	  5.26747E-004	 -8.99526E-004	 -1.20185E-002
  1.33120E+000	 -9.57964E-003	 -4.64810E-003	  2.24073E-004	 -1.25637E-002
  1.43360E+000	 -3.91411E-003	 -3.54056E-004	 -6.23409E-004	 -1.77783E-003
  1.53600E+000	 -8.59501E-003	  4.70459E-003	  3.12693E-003	  4.11340E-003
  1.63840E+000	 -8.82492E-003	  1.23438E-002	  7.31593E-003	  6.44651E-003
  1.84320E+000	 -5.79505E-004	  6.72779E-003	  2.80060E-003	 -4.99020E-004
  2.04800E+000	  5.02848E-003	  8.54796E-003	  7.32517E-003	  1.20832E-002
  2.25280E+000	  4.48133E-003	  7.54755E-003	 -1.34818E-004	 -3.80102E-003
  2.45760E+000	  4.66135E-003	 -4.97345E-003	  4.91352E-003	 -3.69111E-005
  2.66240E+000	  4.05028E-005	 -1.17910E-002	  2.61553E-003	 -2.83195E-003
  2.86720E+000	  5.68013E-003	  7.75383E-003	 -2.61093E-003	 -1.90249E-003
  3.07200E+000	  1.02527E-002	  1.44503E-002	 -3.67751E-004	  3.84447E-003
  3.27680E+000	  8.38913E-003	  2.95941E-004	 -1.14164E-003	 -1.47822E-004
  3.68640E+000	  6.04281E-003	  5.28923E-003	 -3.44933E-003	 -1.75948E-003
  4.09600E+000	  7.68136E-003	 -6.59304E-004	 -2.57524E-003	  1.31900E-003
  4.50560E+000	  1.13964E-003	 -2.96120E-003	  2.52442E-003	 -5.37945E-003
  4.91520E+000	  4.63450E-003	 -1.98647E-003	 -4.13481E-003	  4.35010E-003
  5.32480E+000	  1.53717E-004	  4.60081E-003	  2.67555E-004	  5.80242E-003
  5.73440E+000	 -3.30498E-003	 -2.63818E-003	  1.60595E-003	  2.41487E-003
  6.14400E+000	 -1.66516E-003	  9.51069E-003	 -4.22842E-003	  4.12239E-003
  6.55360E+000	 -1.65175E-003	  5.15970E-003	  1.58713E-003	 -1.58380E-003
  7.37280E+000	 -1.03081E-003	 -6.07684E-004	  8.03765E-004	  2.69075E-003
  8.19200E+000	  7.49063E-004	 -2.08936E-004	 -4.28148E-004	  2.29450E-003
  9.01120E+000	 -1.77562E-004	 -3.75904E-005	  5.31785E-003	 -2.71753E-003
  9.83040E+000	 -3.15495E-004	 -1.47692E-003	 -1.49629E-003	 -2.01921E-003
  1.06496E+001	  7.93093E-004	  7.61785E-004	 -4.10129E-004	 -6.76376E-003
  1.14688E+001	  3.54614E-004	  1.25678E-003	  2.45890E-003	 -1.46551E-004
  1.22880E+001	  3.00776E-003	  9.32468E-004	 -2.31220E-003	  1.37749E-003
  1.31072E+001	  1.86062E-003	 -1.69632E-003	 -8.94455E-004	 -6.30605E-004
  1.47456E+001	  1.91469E-003	 -4.49006E-003	 -2.51076E-003	 -4.14946E-004
  1.63840E+001	  1.64026E-003	 -1.18032E-003	 -9.97121E-004	  5.62891E-004
  1.80224E+001	 -7.01238E-005	  2.95057E-003	 -2.82053E-003	  4.26487E-003
  1.96608E+001	  3.27725E-005	  2.23380E-003	  8.19740E-004	 -3.21266E-003
  2.12992E+001	  2.36270E-004	  4.50283E-004	  8.73568E-004	  1.31852E-003
  2.29376E+001	  2.18420E-003	 -2.54524E-005	 -2.34508E-003	  1.33898E-003
  2.45760E+001	 -3.97572E-004	 -4.19750E-004	 -1.24618E-003	 -3.46641E-004
  2.62144E+001	 -6.85678E-004	  5.34163E-004	 -7.88884E-004	  6.30414E-005
  2.94912E+001	  6.04665E-004	  5.32492E-004	  6.58275E-004	  5.03773E-004
  3.27680E+001	 -3.01075E-003	 -1.03017E-003	 -1.30337E-003	 -1.52538E-003
  3.60448E+001	  6.44890E-004	 -2.16394E-004	 -8.74616E-004	 -3.87847E-003
  3.93216E+001	  7.48830E-004	 -1.65037E-003	  2.74861E-003	 -2.51002E-003
  4.25984E+001	  8.73560E-004	  8.27452E-004	 -3.48459E-003	 -1.86141E-003
  4.58752E+001	 -3.15955E-004	  8.94961E-004	 -1.97774E-003	  8.07460E-004
  4.91520E+001	  1.32050E-003	  1.08081E-003	 -2.14812E-003	 -4.76631E-004
  5.24288E+001	 -9.88347E-004	  1.78993E-003	  3.18988E-004	 -2.33380E-004
  5.89824E+001	  1.32392E-003	 -4.01120E-004	  8.48641E-004	  1.10246E-003
  6.55360E+001	 -4.19521E-004	 -1.12129E-003	  1.64182E-003	 -6.21224E-004
  7.20896E+001	  1.10645E-003	  5.10504E-004	 -1.38327E-003	 -4.41284E-004
  7.86432E+001	  1.29749E-003	 -2.26483E-003	 -1.03414E-003	  1.72776E-004
  8.51968E+001	 -1.78720E-003	 -2.15447E-003	 -2.03192E-003	  8.90543E-004
  9.17504E+001	  1.27736E-003	  2.22148E-003	 -3.49498E-004	 -7.69075E-004
  9.83040E+001	  1.65498E-003	  1.13506E-003	 -1.66419E-003	 -4.38303E-004
  1.04858E+002	 -8.09183E-004	  1.06408E-004	 -1.57235E-003	 -6.90537E-004
  1.17965E+002	 -5.17900E-004	 -8.10704E-005	  3.01001E-004	 -1.44517E-004
  1.31072E+002	  3.35339E-004	 -1.69831E-003	  1.46069E-003	 -6.19978E-004
  1.44179E+002	 -9.41362E-005	 -4.03448E-004	  3.83162E-005	  2.04240E-003
  1.57286E+002	  6.70856E-004	 -4.48714E-004	  8.22139E-004	  5.40999E-004
  1.70394E+002	  4.69093E-004	  3.07397E-005	  2.56167E-003	 -1.97309E-004
  1.83501E+002	 -7.80238E-004	  5.54719E-004	 -2.03040E-004	 -1.00515E-004
  1.96608E+002	 -2.72977E-004	  1.46575E-004	 -1.99182E-003	  1.25511E-003
  2.09715E+002	  1.18351E-003	  8.73700E-004	 -2.24715E-003	  5.57792E-004
  2.35930E+002	 -5.87130E-004	  9.93744E-004	  5.14874E-004	  5.88902E-004
  2.62144E+002	 -5.43289E-004	  4.28956E-004	  9.44362E-004	 -1.84335E-003
  2.88358E+002	 -5.35110E-004	  3.54158E-004	 -2.39029E-004	  3.93175E-004
  3.14573E+002	 -1.39585E-003	  9.08847E-004	  7.35816E-004	  1.11527E-003
  3.40787E+002	  8.50918E-004	 -3.06125E-005	  8.01042E-004	 -3.09221E-005
  3.67002E+002	 -1.43467E-003	  5.53961E-004	 -1.03304E-003	  9.03701E-004
  3.93216E+002	 -1.59604E-003	 -7.02865E-004	 -1.31087E-003	 -1.40470E-003

"Count Rate"
       0.01311	      51.42212	      59.81445	      58.21228	      52.87170
       0.02621	      58.28857	      77.28577	      54.47388	      53.86353
       0.03932	      55.99976	      60.04333	      68.58826	      49.89624
       0.05243	      56.68640	      56.30493	      66.90979	      51.57471
       0.06554	      55.77087	      56.76270	      55.38940	      66.07056
       0.07864	      51.26953	      58.51746	      56.38123	      58.67004
       0.09175	      53.02429	      45.24231	      67.21497	      52.41394
       0.10486	      62.40845	      64.69727	      47.98889	      59.12781
       0.11796	      67.59644	      61.87439	      53.02429	      55.84717
       0.13107	      60.57739	      56.38123	      52.18506	      56.83899
       0.14418	      60.80627	      62.17957	      57.52563	      59.96704
       0.15729	      56.45752	      71.02966	      55.46570	      50.27771
       0.17039	      51.80359	      56.83899	      58.13599	      50.20142
       0.18350	      56.83899	      60.50110	      70.95337	      59.96704
       0.19661	      57.06787	      53.78723	      54.47388	      58.28857
       0.20972	      66.83350	      66.75720	      68.05420	      57.29675
       0.22282	      59.96704	      56.15234	      56.61011	      58.05969
       0.23593	      54.24500	      53.17688	      53.71094	      52.03247
       0.24904	      55.00793	      53.78723	      53.93982	      56.76270
       0.26214	      52.87170	      61.11145	      66.37573	      50.96436
       0.27525	      62.78992	      53.17688	      53.17688	      56.61011
       0.28836	      50.20142	      57.06787	      57.37305	      54.24500
       0.30147	      52.87170	      58.51746	      56.91528	      52.71912
       0.31457	      55.77087	      54.09241	      55.54199	      49.13330
       0.32768	      57.90710	      55.99976	      60.27222	      54.55017
       0.34079	      54.70276	      54.85535	      73.39478	      55.16052
       0.35389	      50.43030	      57.06787	      65.61279	      56.15234
       0.36700	      52.87170	      56.68640	      61.64551	      57.29675
       0.38011	      57.60193	      51.65100	      56.61011	      56.22864
       0.39322	      49.43848	      62.56104	      58.97522	      51.34583
       0.40632	      55.54199	      53.17688	      55.92346	      52.64282
       0.41943	      55.00793	      51.42212	      69.88525	      56.68640
       0.43254	      51.26953	      57.83081	      57.67822	      67.90161
       0.44564	      55.00793	      62.78992	      56.68640	      58.67004
       0.45875	      66.37573	      63.70544	      54.09241	      43.18237
       0.47186	      55.99976	      58.89893	      71.64001	      49.43848
       0.48497	      50.20142	      62.17957	      62.94250	      49.51477
       0.49807	      54.24500	      58.05969	      56.30493	      54.39758
       0.51118	      53.71094	      65.15503	      61.72180	      48.44666
       0.52429	      47.53113	      50.12512	      65.38391	      61.11145
       0.53740	      53.02429	      52.41394	      62.10327	      48.21777
       0.55050	      63.55286	      48.44666	      44.25049	      55.23682
       0.56361	      52.64282	      58.67004	      60.65369	      57.60193
       0.57672	      51.26953	      59.12781	      49.59106	      53.25317
       0.58982	      47.14966	      56.91528	      61.72180	      60.88257
       0.60293	      57.75452	      51.87988	      66.14685	      47.91260
       0.61604	      67.74902	      49.97253	      57.75452	      61.11145
       0.62915	      60.27222	      57.52563	      59.89075	      56.07605
       0.64225	      52.10876	      48.82813	      58.13599	      55.31311
       0.65536	      53.48206	      51.11694	      64.92615	      48.44666
       0.66847	      61.41663	      61.64551	      60.88257	      49.20959
       0.68157	      54.47388	      65.68909	      62.40845	      52.18506
       0.69468	      59.28040	      55.23682	      61.49292	      51.95618
       0.70779	      55.92346	      59.20410	      61.56921	      47.30225
       0.72090	      53.93982	      55.08423	      57.37305	      56.15234
       0.73400	      52.03247	      62.48474	      61.11145	      61.26404
       0.74711	      61.11145	      52.18506	      57.67822	      53.48206
