ALV-7004/USB-FAST
Date :	"11/11/2025"
Time :	"3:56:55 PM"
Samplename : 	""
SampMemo(0) : 	""
SampMemo(1) : 	""
SampMemo(2) : 	""
SampMemo(3) : 	""
SampMemo(4) : 	""
SampMemo(5) : 	""
SampMemo(6) : 	""
SampMemo(7) : 	""
SampMemo(8) : 	""
SampMemo(9) : 	""
Temperature [K] :	     298.16000
Viscosity [cp]  :	       0.89000
Refractive Index:	       1.33200
Wavelength [nm] :	       0.00000
Angle [°]       :	       0.00000
Duration [s]    :	         1
FloatDur [ms]   :	          944
Stop TP [ms]   :	     67711
Runs            :	         1
Mode            :	"A-CH0+1  A-CH2+3 "
MeanCR0 [kHz]   :	      46.50752
MeanCR1 [kHz]   :	      48.08108
MeanCR2 [kHz]   :	      47.06383
MeanCR3 [kHz]   :	      46.90276

"Correlation"
  3.12500E-006	 -1.00000E+000	 -1.00000E+000	 -1.00000E+000	 -1.00000E+000
  6.25000E-006	 -1.00000E+000	 -1.00000E+000	 -1.00000E+000	 -1.00000E+000
  9.37500E-006	 -1.00000E+000	 -1.00000E+000	 -1.00000E+000	 -1.00000E+000
  1.25000E-005	 -1.00000E+000	 -1.00000E+000	 -1.00000E+000	 -1.00000E+000
  1.56250E-005	 -1.00000E+000	 -1.00000E+000	 -1.00000E+000	 -1.00000E+000
  1.87500E-005	 -1.00000E+000	 -1.00000E+000	 -1.00000E+000	 -1.00000E+000
  2.18750E-005	 -1.00000E+000	  1.73408E-001	  8.37063E-001	 -2.29308E-001
  2.50000E-005	  1.49905E+001	  1.71878E+001	  1.20125E+001	  2.76697E+001
  2.81250E-005	  4.33016E+000	  3.54696E+000	  1.75559E+000	  9.78968E+000
  3.12500E-005	  1.66508E+000	  1.20014E+000	  1.14324E+000	  4.85726E+000
  3.43750E-005	  1.35154E+000	  1.20014E+000	  6.83975E-001	  4.54898E+000
  3.75000E-005	  1.82185E+000	  4.66760E-001	  1.14324E+000	  4.70312E+000
  4.06250E-005	  1.35154E+000	  1.20014E+000	  3.77797E-001	  3.47001E+000
  4.37500E-005	  5.67694E-001	  1.93352E+000	  9.90152E-001	  3.16174E+000
  4.68750E-005	  5.67694E-001	  1.20014E+000	  3.77797E-001	  3.47001E+000
  5.00000E-005	  5.67694E-001	  9.80126E-001	  1.06670E+000	  3.23880E+000
  5.62500E-005	  8.81232E-001	  1.27348E+000	  8.37063E-001	  2.77639E+000
  6.25000E-005	  9.73855E-002	  3.20084E-001	  8.37063E-001	  1.62035E+000
  6.87500E-005	  2.54155E-001	  1.20014E+000	  6.07430E-001	  2.08277E+000
  7.50000E-005	  5.67694E-001	  7.60112E-001	  1.21978E+000	  1.00380E+000
  8.12500E-005	  8.02848E-001	  6.13436E-001	  3.01253E-001	  1.31208E+000
  8.75000E-005	  3.32540E-001	  8.33450E-001	  8.37063E-001	  1.46621E+000
  9.37500E-005	  9.73855E-002	  5.40098E-001	  1.14324E+000	  1.00380E+000
  1.00000E-004	  2.93347E-001	  5.40098E-001	  8.75335E-001	  7.72591E-001
  1.12500E-004	  7.63655E-001	  1.01679E+000	  1.21978E+000	  8.11125E-001
  1.25000E-004	  8.81232E-001	  3.20084E-001	  6.07430E-001	  1.19647E+000
  1.37500E-004	  4.89309E-001	  4.30091E-001	  1.10497E+000	  7.34056E-001
  1.50000E-004	  6.85270E-001	  3.93422E-001	  6.45702E-001	  9.26729E-001
  1.62500E-004	  6.06886E-001	  6.13436E-001	  8.37063E-001	  6.18452E-001
  1.75000E-004	  9.73854E-002	  5.03429E-001	  1.18151E+000	  8.88194E-001
  1.87500E-004	  8.81232E-001	  2.10077E-001	  8.37063E-001	  6.95522E-001
  2.00000E-004	  5.67693E-001	  5.21763E-001	  7.79654E-001	  2.71641E-001
  2.25000E-004	  6.26482E-001	  3.20084E-001	  6.45702E-001	  5.02848E-001
  2.50000E-004	  4.10924E-001	  5.76767E-001	  5.11749E-001	  9.07461E-001
  2.75000E-004	  3.91328E-001	  7.60112E-001	  6.07430E-001	  7.72590E-001
  3.00000E-004	  4.10924E-001	  5.95101E-001	  5.50021E-001	  3.48710E-001
  3.25000E-004	  4.50116E-001	  6.13436E-001	  3.96933E-001	  5.02848E-001
  3.50000E-004	  7.24462E-001	  5.21763E-001	  2.62980E-001	  4.64314E-001
  3.75000E-004	  5.48097E-001	  6.13436E-001	  2.24708E-001	  2.71641E-001
  4.00000E-004	  5.48096E-001	  5.67599E-001	  4.06500E-001	  2.90908E-001
  4.50000E-004	  4.69712E-001	  6.86773E-001	  6.07429E-001	  9.17094E-001
  5.00000E-004	  5.67692E-001	  5.03428E-001	  5.59589E-001	  5.79917E-001
  5.50000E-004	  5.28500E-001	  6.95940E-001	  4.35204E-001	  5.51016E-001
  6.00000E-004	  3.12942E-001	  4.75926E-001	  4.44772E-001	  7.14788E-001
  6.50000E-004	  4.20721E-001	  3.84254E-001	  3.39524E-001	  3.67977E-001
  7.00000E-004	  4.20721E-001	  7.41776E-001	  2.43844E-001	  3.19809E-001
  7.50000E-004	  5.77491E-001	  5.03428E-001	  5.02181E-001	  6.47352E-001
  8.00000E-004	  3.81528E-001	  4.80509E-001	  4.35203E-001	  5.36564E-001
  9.00000E-004	  3.12941E-001	  6.50102E-001	  5.69155E-001	  4.64312E-001
  1.00000E-003	  5.04004E-001	  4.53007E-001	  5.45235E-001	  5.26930E-001
  1.10000E-003	  2.10089E-001	  4.39256E-001	  4.16067E-001	  5.02846E-001
  1.20000E-003	  5.04038E-001	  4.43840E-001	  5.11747E-001	  4.30594E-001
  1.30000E-003	  4.20752E-001	  2.78829E-001	  5.54803E-001	  4.73945E-001
  1.40000E-003	  3.66862E-001	  3.84253E-001	  3.63443E-001	  4.30594E-001
  1.50000E-003	  5.08937E-001	  4.89676E-001	  4.73475E-001	  4.35411E-001
  1.60000E-003	  5.18733E-001	  5.46968E-001	  4.06497E-001	  5.65462E-001
  1.80000E-003	  3.93805E-001	  5.01132E-001	  4.11281E-001	  5.51012E-001
  2.00000E-003	  3.79107E-001	  4.32378E-001	  3.61049E-001	  5.46195E-001
  2.20000E-003	  4.08502E-001	  3.52165E-001	  4.16065E-001	  4.11325E-001
  2.40000E-003	  3.59511E-001	  4.27795E-001	  3.94537E-001	  4.73943E-001
  2.60000E-003	  3.42364E-001	  3.56749E-001	  3.99321E-001	  5.31745E-001
  2.80000E-003	  4.91788E-001	  3.52165E-001	  4.04105E-001	  4.47451E-001
  3.00000E-003	  2.98272E-001	  4.00293E-001	  3.51481E-001	  4.33000E-001
  3.20000E-003	  3.44809E-001	  4.63313E-001	  3.93336E-001	  3.98074E-001
  3.60000E-003	  4.17071E-001	  4.42686E-001	  3.96924E-001	  3.90848E-001
  4.00000E-003	  3.88901E-001	  4.12893E-001	  3.28752E-001	  3.73990E-001
  4.40000E-003	  3.16639E-001	  3.67057E-001	  3.99316E-001	  4.16137E-001
  4.80000E-003	  4.03598E-001	  3.77370E-001	  3.84964E-001	  3.87236E-001
  5.20000E-003	  3.71754E-001	  4.85085E-001	  2.90480E-001	  3.98074E-001
  5.60000E-003	  3.82777E-001	  3.42993E-001	  3.92140E-001	  4.17341E-001
  6.00000E-003	  3.46034E-001	  3.46431E-001	  3.23968E-001	  4.01686E-001
  6.40000E-003	  3.31970E-001	  3.84236E-001	  3.11401E-001	  3.76389E-001
  7.20000E-003	  2.93389E-001	  4.27812E-001	  3.26351E-001	  3.57122E-001
  8.00000E-003	  3.18497E-001	  3.38430E-001	  2.94657E-001	  3.05341E-001
  8.80000E-003	  2.51746E-001	  3.05198E-001	  2.94657E-001	  2.86074E-001
  9.60000E-003	  3.28908E-001	  3.05771E-001	  3.30537E-001	  3.83012E-001
  1.04000E-002	  2.41335E-001	  2.59362E-001	  2.59974E-001	  3.30027E-001
  1.12000E-002	  2.77466E-001	  2.67956E-001	  2.71336E-001	  2.78247E-001
  1.20000E-002	  2.97676E-001	  2.82280E-001	  2.74326E-001	  3.03535E-001
  1.28000E-002	  2.72579E-001	  2.81460E-001	  2.87165E-001	  2.95991E-001
  1.44000E-002	  2.27873E-001	  2.62265E-001	  2.53379E-001	  2.42105E-001
  1.60000E-002	  2.37059E-001	  2.01243E-001	  2.41120E-001	  2.15914E-001
  1.76000E-002	  2.30601E-001	  2.07859E-001	  2.33346E-001	  2.14710E-001
  1.92000E-002	  1.71505E-001	  2.03848E-001	  1.98364E-001	  2.06883E-001
  2.08000E-002	  1.33231E-001	  1.77204E-001	  1.62186E-001	  2.04775E-001
  2.24000E-002	  1.80385E-001	  1.98978E-001	  1.58897E-001	  1.70757E-001
  2.40000E-002	  1.43948E-001	  1.68036E-001	  1.70558E-001	  1.34331E-001
  2.56000E-002	  1.28251E-001	  1.57220E-001	  1.38112E-001	  1.45013E-001
  2.88000E-002	  1.41112E-001	  1.35707E-001	  1.09708E-001	  1.20027E-001
  3.20000E-002	  1.06509E-001	  1.28687E-001	  9.59540E-002	  1.23790E-001
  3.52000E-002	  8.50744E-002	  1.23792E-001	  8.41438E-002	  9.83515E-002
  3.84000E-002	  7.05780E-002	  9.88667E-002	  8.89277E-002	  9.12770E-002
  4.16000E-002	  7.91524E-002	  7.20791E-002	  5.26002E-002	  9.77494E-002
  4.48000E-002	  7.73150E-002	  8.62608E-002	  6.62043E-002	  8.02890E-002
  4.80000E-002	  6.01662E-002	  6.52031E-002	  5.09558E-002	  8.48046E-002
  5.12000E-002	  5.04295E-002	  6.98696E-002	  4.25509E-002	  7.57369E-002
  5.76000E-002	  5.13529E-002	  6.03670E-002	  3.20865E-002	  4.05890E-002
  6.40000E-002	  3.29028E-002	  6.74586E-002	  3.48521E-002	  4.57069E-002
  7.04000E-002	  2.33565E-002	  2.47660E-002	  3.27077E-002	  4.39759E-002
  7.68000E-002	  2.67251E-002	  4.31754E-002	  4.09065E-002	  3.74045E-002
  8.32000E-002	  3.27732E-002	  2.64625E-002	  2.17946E-002	  1.84386E-002
  8.96000E-002	  2.09299E-002	  2.29301E-002	  1.89772E-002	  3.59746E-002
  9.60000E-002	  1.84034E-002	  2.17840E-002	  3.50416E-003	  4.19955E-002
  1.02400E-001	  9.91891E-003	  1.15867E-002	 -9.65486E-003	  3.39847E-002
  1.15200E-001	 -8.53723E-003	  1.00538E-003	  1.27917E-002	  7.68072E-003
  1.28000E-001	  1.72469E-003	  1.73765E-002	  4.53210E-003	  9.26920E-003
  1.40800E-001	  5.28573E-003	  1.57021E-003	 -6.40349E-004	  6.25859E-003
  1.53600E-001	  1.01487E-002	 -7.88667E-003	 -9.67778E-003	  2.34480E-003
  1.66400E-001	  1.19940E-002	  1.83470E-003	  3.82290E-003	 -2.81087E-003
  1.79200E-001	  1.80284E-002	 -1.18130E-002	  5.84924E-003	  1.76006E-002
  1.92000E-001	  1.47970E-002	  4.79935E-003	 -1.23041E-003	 -5.67966E-004
  2.04800E-001	  7.34118E-003	  2.31720E-004	  2.79301E-003	 -8.44870E-003
  2.30400E-001	  8.00383E-003	  2.75765E-003	 -7.78671E-003	 -1.31316E-002
  2.56000E-001	  4.95509E-003	  1.80940E-003	  3.88107E-003	 -9.15675E-003
  2.81600E-001	 -5.37755E-003	  5.73417E-004	  1.07007E-003	 -1.57631E-002
  3.07200E-001	 -7.55181E-003	  1.19480E-002	 -1.06588E-002	 -6.50290E-003
  3.32800E-001	  7.72811E-003	 -3.14842E-005	  2.75329E-003	 -5.11377E-003
  3.58400E-001	 -5.24581E-004	  4.98515E-003	  4.87381E-003	 -1.60643E-002
  3.84000E-001	  4.82553E-003	 -1.05885E-004	 -2.96012E-003	  4.07096E-003
  4.09600E-001	 -1.48847E-003	  1.24795E-004	  1.67168E-003	  1.61227E-004
  4.60800E-001	 -7.64798E-003	 -1.95428E-003	  4.76813E-003	 -3.76888E-003
  5.12000E-001	 -3.05705E-003	 -7.95215E-004	  2.65659E-003	 -7.61406E-003
  5.63200E-001	  4.67312E-003	 -1.21172E-002	 -2.84834E-003	  1.10151E-002
  6.14400E-001	 -6.87435E-004	 -1.63102E-003	  7.96594E-004	  1.56391E-002
  6.65600E-001	 -9.95261E-004	 -6.84275E-003	  1.01552E-003	  9.50178E-004
  7.16800E-001	 -5.77237E-003	  1.77849E-003	 -2.20117E-003	  1.27610E-003
  7.68000E-001	  4.68849E-004	  4.00343E-004	 -6.22586E-004	  1.59446E-003
  8.19200E-001	 -1.90786E-003	 -1.71856E-003	  5.36568E-003	  5.40220E-003
  9.21600E-001	 -2.96566E-004	 -8.89673E-004	  4.27941E-003	 -9.49374E-004
  1.02400E+000	 -5.71257E-003	 -4.14021E-003	 -2.81502E-004	  5.33638E-003
  1.12640E+000	 -7.45882E-003	  2.04250E-004	  1.45020E-003	 -2.32720E-003
  1.22880E+000	  4.73011E-003	 -1.85507E-003	  4.14791E-003	 -2.66062E-004
  1.33120E+000	 -8.94942E-004	 -1.93211E-003	  3.03366E-003	  5.35215E-003
  1.43360E+000	 -2.96984E-003	 -3.34943E-003	  7.61713E-004	  1.70236E-004
  1.53600E+000	 -1.25716E-003	 -2.68562E-003	 -3.33527E-003	  3.75500E-003
  1.63840E+000	  9.67897E-004	 -1.88265E-003	  1.33709E-003	  1.08463E-004
  1.84320E+000	  1.88047E-004	  2.11479E-003	 -1.81455E-003	 -1.17553E-003
  2.04800E+000	  1.72149E-003	 -6.49604E-003	 -5.54899E-004	 -3.21164E-003
  2.25280E+000	  5.66470E-004	  1.16008E-003	 -2.46552E-004	 -6.18905E-004
  2.45760E+000	  1.80960E-003	 -2.41059E-003	  4.85841E-003	 -3.30043E-003
  2.66240E+000	 -3.92521E-004	 -8.34867E-004	  3.19437E-004	 -2.89161E-003
  2.86720E+000	 -2.04670E-003	  1.23219E-003	  1.18053E-003	 -2.77363E-003
  3.07200E+000	  3.40763E-003	  1.66657E-003	 -5.26784E-003	 -4.06022E-003
  3.27680E+000	 -1.50544E-003	 -4.87107E-005	 -6.93724E-004	  1.60945E-003
  3.68640E+000	  8.74702E-005	 -7.14820E-005	 -3.63755E-003	 -1.43890E-003
  4.09600E+000	  1.31687E-003	  2.78680E-003	 -1.92680E-003	  2.85974E-003
  4.50560E+000	  1.16686E-003	  2.04124E-003	  5.96883E-004	 -1.87228E-003
  4.91520E+000	  2.89767E-003	  1.72831E-003	  6.84406E-004	  3.33420E-003
  5.32480E+000	  2.51228E-003	 -2.90362E-003	 -3.69428E-003	 -6.52967E-004
  5.73440E+000	  8.29670E-004	  3.24542E-003	  2.26800E-003	 -3.18389E-003
  6.14400E+000	  1.73148E-003	 -1.13000E-003	  9.99610E-004	  1.27796E-005
  6.55360E+000	  1.70279E-003	  9.05142E-004	 -2.46052E-004	 -8.39030E-004
  7.37280E+000	 -2.72857E-003	 -3.63029E-003	 -9.84995E-004	 -3.27528E-003
  8.19200E+000	  9.90497E-004	  2.60631E-003	  2.90875E-003	  1.46403E-003
  9.01120E+000	  1.31132E-003	 -9.95898E-006	  2.20028E-003	 -2.54409E-004
  9.83040E+000	  5.53389E-004	 -8.11551E-004	 -8.15962E-004	  3.02194E-003
  1.06496E+001	 -1.38437E-004	 -1.07007E-003	 -1.20391E-003	  7.88856E-004
  1.14688E+001	  1.28644E-003	  1.55460E-003	 -2.13551E-003	 -6.67424E-004
  1.22880E+001	 -3.12522E-004	  9.68204E-004	 -2.73899E-003	  1.04558E-003
  1.31072E+001	 -3.58657E-004	 -5.90028E-006	  6.62236E-005	  2.56535E-003
  1.47456E+001	  1.50158E-003	  1.20940E-003	  5.48949E-004	  1.09853E-003
  1.63840E+001	 -6.35436E-004	  8.19377E-005	  9.42179E-004	  1.03585E-003
  1.80224E+001	  1.05275E-003	  2.79705E-003	  1.22134E-003	  8.31077E-004
  1.96608E+001	  2.49007E-004	  1.06501E-003	  8.03385E-005	 -1.94565E-003
  2.12992E+001	 -8.36310E-004	 -1.46602E-003	  5.43640E-004	 -2.59346E-003
  2.29376E+001	 -1.04384E-003	  1.69358E-003	  5.24146E-004	  2.10840E-003
  2.45760E+001	  1.45307E-003	  6.48827E-004	  8.69128E-004	  5.19099E-005
  2.62144E+001	  5.80641E-004	 -2.84791E-005	  1.36588E-003	  1.67871E-003
  2.94912E+001	 -5.38486E-004	  4.76584E-004	 -5.82536E-004	  9.96902E-004
  3.27680E+001	  4.23861E-005	  3.69941E-004	 -1.66024E-003	 -8.95869E-004
  3.60448E+001	  4.32910E-004	  4.74681E-004	  6.27042E-004	 -1.23069E-003
  3.93216E+001	  3.16649E-004	  1.31906E-004	 -7.87323E-004	  3.10305E-004
  4.25984E+001	 -8.62764E-004	  8.84232E-004	  1.32271E-003	 -5.47297E-005
  4.58752E+001	 -9.38114E-004	 -8.66057E-004	 -7.75803E-004	  6.06285E-004
  4.91520E+001	 -4.46719E-004	  1.32718E-004	 -8.73277E-004	 -9.04914E-004
  5.24288E+001	 -6.80621E-004	  5.33461E-004	 -2.71440E-004	 -9.31898E-004
  5.89824E+001	 -5.08310E-004	 -2.55639E-004	 -7.67995E-004	  7.58758E-004
  6.55360E+001	  3.30663E-004	  1.07634E-003	  1.53710E-004	 -9.37686E-004
  7.20896E+001	 -4.43369E-005	 -3.05092E-004	 -9.66844E-004	  8.39200E-004
  7.86432E+001	 -2.87743E-004	  2.11712E-004	 -4.23330E-004	 -1.83274E-003
  8.51968E+001	  4.32808E-004	  6.34315E-004	  1.43935E-003	  1.55332E-003
  9.17504E+001	 -1.31911E-005	  3.74261E-005	  8.46703E-005	 -8.24515E-005
  9.83040E+001	  1.23050E-004	  8.51030E-004	 -3.46064E-004	  1.38704E-003
  1.04858E+002	  1.00638E-003	  1.01354E-003	  1.46967E-004	  5.98055E-004
  1.17965E+002	 -6.13787E-004	  1.07928E-003	  4.91192E-004	 -1.70896E-004
  1.31072E+002	  4.42335E-005	 -4.20125E-004	  7.09888E-004	 -2.54864E-005
  1.44179E+002	  1.79372E-004	  5.20871E-004	  5.71858E-004	 -5.58977E-004
  1.57286E+002	 -9.21773E-004	 -1.85532E-004	 -7.36616E-004	 -2.22184E-004
  1.70394E+002	  5.32114E-005	  3.03616E-004	 -5.95425E-004	 -3.09156E-004
  1.83501E+002	 -4.22778E-004	  3.96435E-004	 -3.85177E-004	 -4.42102E-004
  1.96608E+002	 -4.82068E-004	 -8.88620E-005	 -1.36707E-003	  4.34772E-006
  2.09715E+002	  8.59197E-004	  3.96825E-004	 -3.50231E-004	 -2.32820E-004
  2.35930E+002	 -8.54385E-004	 -9.22853E-004	  1.62559E-004	 -5.98782E-004
  2.62144E+002	 -5.03522E-004	 -1.20409E-004	 -6.06260E-005	 -2.09154E-005
  2.88358E+002	  5.46466E-004	  1.04261E-003	 -4.72852E-004	  1.59100E-004
  3.14573E+002	  7.23720E-004	  3.34579E-004	 -3.18275E-004	  6.50192E-004
  3.40787E+002	 -5.69036E-004	 -2.21073E-004	 -4.79895E-004	 -5.18517E-005
  3.67002E+002	 -2.15155E-004	 -3.18015E-004	  2.39676E-004	 -1.00982E-004
  3.93216E+002	  5.48870E-004	  7.50807E-004	  6.96088E-004	  5.23268E-004

"Count Rate"
       0.01311	      54.70276	      49.89624	      45.16602	      45.01343
       0.02621	      46.92078	      42.87720	      50.81177	      47.14966
       0.03932	      44.47937	      53.17688	      48.37036	      51.04065
       0.05243	      46.38672	      50.27771	      45.77637	      50.65918
       0.06554	      49.81995	      44.32678	      42.95349	      45.08972
       0.07864	      44.70825	      47.45483	      50.20142	      49.97253
       0.09175	      50.27771	      49.36218	      42.64832	      44.32678
       0.10486	      48.21777	      49.81995	      43.79272	      50.43030
       0.11796	      46.15784	      51.42212	      48.90442	      46.69189
       0.13107	      42.49573	      47.98889	      50.43030	      48.59924
       0.14418	      43.33496	      47.53113	      48.14148	      47.07336
       0.15729	      49.81995	      52.87170	      46.84448	      48.75183
       0.17039	      47.53113	      46.53931	      43.56384	      48.06519
       0.18350	      46.99707	      46.15784	      41.73279	      41.35132
       0.19661	      44.17419	      46.00525	      43.94531	      46.38672
       0.20972	      45.39490	      49.28589	      47.07336	      48.29407
       0.22282	      46.92078	      50.65918	      46.61560	      41.19873
       0.23593	      44.63196	      52.56653	      45.70007	      46.38672
       0.24904	      47.53113	      44.63196	      50.65918	      46.00525
       0.26214	      46.31042	      48.75183	      46.69189	      48.37036
       0.27525	      41.58020	      48.21777	      47.30225	      45.31860
       0.28836	      42.26685	      43.33496	      48.37036	      45.70007
       0.30147	      48.67554	      50.27771	      44.09790	      47.07336
       0.31457	      45.47119	      46.99707	      42.87720	      46.69189
       0.32768	      49.20959	      52.41394	      45.54749	      43.02979
       0.34079	      50.20142	      50.58289	      49.51477	      44.40308
       0.35389	      44.70825	      45.77637	      45.47119	      45.24231
       0.36700	      46.92078	      45.01343	      54.62646	      46.84448
       0.38011	      44.63196	      52.18506	      47.07336	      42.95349
       0.39322	      42.57202	      43.64014	      48.52295	      46.69189
       0.40632	      45.01343	      48.67554	      47.91260	      48.29407
       0.41943	      45.39490	      46.61560	      46.38672	      49.81995
       0.43254	      48.82813	      53.71094	      49.05701	      51.34583
       0.44564	      48.82813	      50.58289	      43.33496	      47.45483
       0.45875	      43.48755	      45.08972	      44.86084	      45.77637
       0.47186	      49.74365	      48.14148	      50.04883	      47.30225
       0.48497	      42.72461	      46.38672	      46.61560	      44.55566
       0.49807	      43.86902	      47.68372	      45.16602	      45.85266
       0.51118	      46.76819	      45.39490	      50.96436	      50.58289
       0.52429	      44.86084	      48.44666	      49.20959	      47.83630
       0.53740	      46.53931	      45.54749	      43.02979	      50.12512
       0.55050	      45.08972	      43.02979	      48.67554	      41.65649
       0.56361	      46.53931	      46.31042	      43.64014	      46.92078
       0.57672	      45.77637	      40.89355	      45.85266	      44.78455
       0.58982	      41.27502	      49.20959	      44.32678	      45.08972
       0.60293	      42.95349	      44.86084	      48.14148	      44.86084
       0.61604	      48.29407	      47.14966	      46.69189	      47.76001
       0.62915	      44.78455	      46.99707	      44.25049	      45.92896
       0.64225	      44.86084	      46.84448	      45.47119	      43.94531
       0.65536	      42.26685	      46.84448	      44.93713	      43.18237
       0.66847	      38.90991	      44.02161	      40.74097	      41.27502
       0.68157	      47.07336	      43.71643	      45.08972	      42.64832
       0.69468	      42.49573	      44.02161	      44.40308	      48.67554
       0.70779	      43.41125	      46.61560	      43.10608	      48.98071
       0.72090	      49.36218	      47.30225	      45.24231	      45.70007
       0.73400	      48.52295	      52.56653	      48.75183	      47.22595
       0.74711	      48.98071	      47.53113	      49.66736	      45.39490
