ALV-7004/USB-FAST
Date :	"11/11/2025"
Time :	"3:52:32 PM"
Samplename : 	""
SampMemo(0) : 	""
SampMemo(1) : 	""
SampMemo(2) : 	""
SampMemo(3) : 	""
SampMemo(4) : 	""
SampMemo(5) : 	""
SampMemo(6) : 	""
SampMemo(7) : 	""
SampMemo(8) : 	""
SampMemo(9) : 	""
Temperature [K] :	     298.16000
Viscosity [cp]  :	       0.89000
Refractive Index:	       1.33200
Wavelength [nm] :	       0.00000
Angle [°]       :	       0.00000
Duration [s]    :	         1
FloatDur [ms]   :	          944
Stop TP [ms]   :	     57966
Runs            :	         1
Mode            :	"A-CH0+1  A-CH2+3 "
MeanCR0 [kHz]   :	      57.71213
MeanCR1 [kHz]   :	      59.32914
MeanCR2 [kHz]   :	      58.52488
MeanCR3 [kHz]   :	      55.72213

"Correlation"
  3.12500E-006	 -1.00000E+000	 -1.00000E+000	 -1.00000E+000	 -1.00000E+000
  6.25000E-006	 -1.00000E+000	 -1.00000E+000	 -1.00000E+000	 -1.00000E+000
  9.37500E-006	 -1.00000E+000	 -1.00000E+000	 -1.00000E+000	 -1.00000E+000
  1.25000E-005	 -1.00000E+000	 -1.00000E+000	 -1.00000E+000	 -1.00000E+000
  1.56250E-005	 -1.00000E+000	 -1.00000E+000	 -1.00000E+000	 -1.00000E+000
  1.87500E-005	 -1.00000E+000	 -1.00000E+000	 -1.00000E+000	 -1.00000E+000
  2.18750E-005	 -8.98194E-001	  1.02298E+000	  9.79961E-001	 -5.63170E-001
  2.50000E-005	  1.21330E+001	  1.26792E+001	  1.34537E+001	  2.14967E+001
  2.81250E-005	  3.17405E+000	  1.11931E+000	  1.47495E+000	  9.48391E+000
  3.12500E-005	  1.23973E+000	  1.02298E+000	  1.67295E+000	  5.33403E+000
  3.43750E-005	  1.95237E+000	  1.11931E+000	  6.82967E-001	  5.33403E+000
  3.75000E-005	  1.74876E+000	  1.40830E+000	  1.07896E+000	  3.80513E+000
  4.06250E-005	  1.23973E+000	  1.11931E+000	  1.17796E+000	  2.27622E+000
  4.37500E-005	  7.30702E-001	  1.02298E+000	  1.37595E+000	  2.60384E+000
  4.68750E-005	  1.54515E+000	  7.33979E-001	  4.84970E-001	  1.51177E+000
  5.00000E-005	  1.49425E+000	  5.89481E-001	  6.82966E-001	  2.22162E+000
  5.62500E-005	  1.13793E+000	  6.37647E-001	  9.79961E-001	  1.83939E+000
  6.25000E-005	  1.80598E-002	  5.41315E-001	  2.37475E-001	  1.51177E+000
  6.87500E-005	  4.76187E-001	  2.04152E-001	  5.34469E-001	  1.18415E+000
  7.50000E-005	  7.30702E-001	  8.30312E-001	  5.83968E-001	  1.02034E+000
  8.12500E-005	  5.77993E-001	  1.02298E+000	  3.36473E-001	  1.02034E+000
  8.75000E-005	  3.23478E-001	  3.48651E-001	  9.79961E-001	  6.92715E-001
  9.37500E-005	  4.25284E-001	  5.41315E-001	  3.85972E-001	  1.07494E+000
  1.00000E-004	  5.77992E-001	  9.50727E-001	  8.80962E-001	  5.28903E-001
  1.12500E-004	  6.03444E-001	  7.82145E-001	  6.33467E-001	  7.20016E-001
  1.25000E-004	  8.07056E-001	  4.69066E-001	  6.58217E-001	  5.28903E-001
  1.37500E-004	  9.08862E-001	  5.89481E-001	  3.61223E-001	  5.56205E-001
  1.50000E-004	  7.05250E-001	  7.33979E-001	  9.05712E-001	  5.28903E-001
  1.62500E-004	  4.76187E-001	  6.37647E-001	  4.10722E-001	  6.10809E-001
  1.75000E-004	  6.54347E-001	  5.89481E-001	  9.30461E-001	  4.74300E-001
  1.87500E-004	  6.28896E-001	  4.20900E-001	  6.58217E-001	  5.01602E-001
  2.00000E-004	  5.01638E-001	  6.13564E-001	  6.08717E-001	  3.78743E-001
  2.25000E-004	  4.63461E-001	  2.64360E-001	  6.82966E-001	  7.60969E-001
  2.50000E-004	  5.27089E-001	  3.24567E-001	  3.85972E-001	  3.37790E-001
  2.75000E-004	  3.87106E-001	  4.44982E-001	  2.99349E-001	  6.92714E-001
  3.00000E-004	  5.27089E-001	  6.73771E-001	  3.73597E-001	  5.56205E-001
  3.25000E-004	  7.68878E-001	  3.96816E-001	  7.57214E-001	  5.97158E-001
  3.50000E-004	  2.85300E-001	  4.44982E-001	  5.34469E-001	  4.33347E-001
  3.75000E-004	  6.03444E-001	  4.93148E-001	  5.59218E-001	  4.87950E-001
  4.00000E-004	  5.46177E-001	  4.32940E-001	  5.59218E-001	  4.12870E-001
  4.50000E-004	  5.33451E-001	  6.19584E-001	  4.91157E-001	  5.35728E-001
  5.00000E-004	  5.27089E-001	  4.38961E-001	  3.42660E-001	  3.65092E-001
  5.50000E-004	  3.04388E-001	  4.81106E-001	  4.16908E-001	  3.51441E-001
  6.00000E-004	  3.36203E-001	  6.97854E-001	  6.27279E-001	  4.87950E-001
  6.50000E-004	  5.84354E-001	  3.36608E-001	  3.73597E-001	  5.49379E-001
  7.00000E-004	  6.35257E-001	  6.49687E-001	  5.15906E-001	  6.10808E-001
  7.50000E-004	  3.80743E-001	  5.23252E-001	  4.04533E-001	  5.83506E-001
  8.00000E-004	  4.92092E-001	  5.83458E-001	  5.80872E-001	  6.00568E-001
  9.00000E-004	  5.20724E-001	  4.54012E-001	  5.09718E-001	  3.51439E-001
  1.00000E-003	  4.41189E-001	  4.75084E-001	  5.74685E-001	  4.06043E-001
  1.10000E-003	  4.44370E-001	  4.75084E-001	  4.75687E-001	  4.77710E-001
  1.20000E-003	  4.92092E-001	  4.99167E-001	  5.09718E-001	  5.18663E-001
  1.30000E-003	  5.36632E-001	  5.65396E-001	  5.03530E-001	  5.25488E-001
  1.40000E-003	  4.82547E-001	  6.04530E-001	  3.98345E-001	  5.35727E-001
  1.50000E-003	  4.88910E-001	  5.38302E-001	  5.93247E-001	  5.05012E-001
  1.60000E-003	  4.93680E-001	  4.72098E-001	  5.56120E-001	  5.10129E-001
  1.80000E-003	  4.39595E-001	  5.38327E-001	  3.92155E-001	  3.99215E-001
  2.00000E-003	  4.58684E-001	  3.29103E-001	  4.72591E-001	  4.33342E-001
  2.20000E-003	  4.95270E-001	  4.14900E-001	  4.29279E-001	  6.05685E-001
  2.40000E-003	  5.00043E-001	  4.43499E-001	  4.12264E-001	  4.31636E-001
  2.60000E-003	  4.71410E-001	  4.67582E-001	  5.45292E-001	  4.65763E-001
  2.80000E-003	  4.79363E-001	  4.29952E-001	  4.66403E-001	  3.99215E-001
  3.00000E-003	  4.10963E-001	  4.11889E-001	  4.16905E-001	  3.77033E-001
  3.20000E-003	  3.87893E-001	  4.87924E-001	  4.06871E-001	  4.06889E-001
  3.60000E-003	  4.50726E-001	  4.06641E-001	  4.67972E-001	  4.74290E-001
  4.00000E-003	  4.80949E-001	  4.35968E-001	  3.83668E-001	  4.41869E-001
  4.40000E-003	  4.63451E-001	  4.05111E-001	  4.12285E-001	  4.32484E-001
  4.80000E-003	  4.25274E-001	  3.81780E-001	  4.37808E-001	  4.30778E-001
  5.20000E-003	  4.24479E-001	  4.41989E-001	  4.05324E-001	  3.53992E-001
  5.60000E-003	  4.24479E-001	  3.87801E-001	  3.89855E-001	  4.28219E-001
  6.00000E-003	  3.90279E-001	  4.18658E-001	  4.15379E-001	  3.94945E-001
  6.40000E-003	  3.86292E-001	  4.20179E-001	  4.36664E-001	  3.94509E-001
  7.20000E-003	  3.77941E-001	  3.94590E-001	  3.88324E-001	  4.13278E-001
  8.00000E-003	  3.65216E-001	  3.69001E-001	  4.13074E-001	  4.05600E-001
  8.80000E-003	  3.69218E-001	  3.49057E-001	  4.00313E-001	  4.06880E-001
  9.60000E-003	  3.79160E-001	  3.21963E-001	  3.92940E-001	  3.93655E-001
  1.04000E-002	  3.75978E-001	  3.37368E-001	  4.15369E-001	  3.29241E-001
  1.12000E-002	  3.85946E-001	  3.49033E-001	  3.83684E-001	  3.67207E-001
  1.20000E-002	  4.01853E-001	  3.36615E-001	  3.57773E-001	  3.42465E-001
  1.28000E-002	  3.71809E-001	  3.42642E-001	  3.61647E-001	  3.42020E-001
  1.44000E-002	  3.69622E-001	  3.31917E-001	  3.57780E-001	  3.14719E-001
  1.60000E-002	  3.60674E-001	  3.19123E-001	  3.51205E-001	  3.45885E-001
  1.76000E-002	  3.51552E-001	  3.57317E-001	  3.59133E-001	  3.40979E-001
  1.92000E-002	  3.76607E-001	  3.17053E-001	  3.39217E-001	  3.27115E-001
  2.08000E-002	  3.42803E-001	  3.32858E-001	  3.27229E-001	  3.40766E-001
  2.24000E-002	  3.33108E-001	  3.55624E-001	  3.37646E-001	  3.12185E-001
  2.40000E-002	  3.43449E-001	  3.29824E-001	  3.49441E-001	  3.36500E-001
  2.56000E-002	  3.17635E-001	  3.17723E-001	  3.30044E-001	  3.13027E-001
  2.88000E-002	  3.08090E-001	  3.31270E-001	  3.09065E-001	  2.75003E-001
  3.20000E-002	  3.14950E-001	  2.77929E-001	  2.84991E-001	  2.70737E-001
  3.52000E-002	  2.84923E-001	  2.75106E-001	  2.74259E-001	  2.87317E-001
  3.84000E-002	  2.60761E-001	  2.52434E-001	  2.86441E-001	  2.59693E-001
  4.16000E-002	  2.37992E-001	  2.68615E-001	  2.67395E-001	  2.35400E-001
  4.48000E-002	  2.54895E-001	  2.66192E-001	  2.61981E-001	  2.42226E-001
  4.80000E-002	  2.34512E-001	  2.38721E-001	  2.41655E-001	  2.45876E-001
  5.12000E-002	  2.30934E-001	  2.36761E-001	  2.34111E-001	  2.18902E-001
  5.76000E-002	  2.25316E-001	  2.26506E-001	  2.14146E-001	  2.00747E-001
  6.40000E-002	  1.95139E-001	  2.12747E-001	  1.93896E-001	  1.93815E-001
  7.04000E-002	  1.99884E-001	  1.87700E-001	  1.72696E-001	  1.80559E-001
  7.68000E-002	  1.62853E-001	  1.66061E-001	  1.75983E-001	  1.54269E-001
  8.32000E-002	  1.69316E-001	  1.67070E-001	  1.51522E-001	  1.39701E-001
  8.96000E-002	  1.62576E-001	  1.55779E-001	  1.48332E-001	  1.23435E-001
  9.60000E-002	  1.35233E-001	  1.36586E-001	  1.35232E-001	  1.36021E-001
  1.02400E-001	  1.34638E-001	  1.32220E-001	  1.28780E-001	  1.17314E-001
  1.15200E-001	  1.29791E-001	  1.24343E-001	  1.15799E-001	  1.02702E-001
  1.28000E-001	  1.13799E-001	  1.03201E-001	  1.09055E-001	  8.76305E-002
  1.40800E-001	  9.49316E-002	  9.97546E-002	  8.15416E-002	  8.45520E-002
  1.53600E-001	  8.25770E-002	  8.35253E-002	  7.81861E-002	  6.12728E-002
  1.66400E-001	  7.88732E-002	  7.45640E-002	  7.34771E-002	  5.97593E-002
  1.79200E-001	  6.12238E-002	  7.15533E-002	  6.24979E-002	  6.92992E-002
  1.92000E-001	  5.92351E-002	  6.03529E-002	  6.53647E-002	  5.30863E-002
  2.04800E-001	  5.33942E-002	  5.22468E-002	  4.70616E-002	  4.43775E-002
  2.30400E-001	  4.48003E-002	  4.39347E-002	  4.72446E-002	  4.40041E-002
  2.56000E-001	  4.79509E-002	  2.73968E-002	  3.84837E-002	  2.62425E-002
  2.81600E-001	  3.27913E-002	  2.74180E-002	  3.14721E-002	  2.11014E-002
  3.07200E-001	  3.68809E-002	  2.18609E-002	  2.71090E-002	  1.94151E-002
  3.32800E-001	  3.26611E-002	  1.27652E-002	  2.20934E-002	  1.20337E-002
  3.58400E-001	  2.49043E-002	  2.03772E-002	  1.50869E-002	  1.46266E-002
  3.84000E-001	  1.49037E-002	  1.75718E-002	  1.60005E-002	  9.27927E-003
  4.09600E-001	  1.78824E-002	  1.98105E-002	  1.61922E-002	  1.19790E-002
  4.60800E-001	  1.98782E-002	  1.09121E-002	  4.00943E-003	  7.16295E-003
  5.12000E-001	  1.48979E-002	  1.14310E-002	  1.75263E-003	  5.08353E-003
  5.63200E-001	  1.13973E-002	  1.05243E-002	  4.42702E-003	 -2.97375E-004
  6.14400E-001	  1.66451E-002	  9.37010E-003	  4.75394E-003	  3.83497E-003
  6.65600E-001	  4.24034E-003	  1.72271E-003	  4.72955E-003	  8.14344E-003
  7.16800E-001	  5.29666E-003	  6.63300E-003	  7.89412E-003	  2.55536E-003
  7.68000E-001	 -1.61322E-003	  4.47098E-003	  2.06729E-003	  6.24178E-003
  8.19200E-001	 -2.68080E-004	 -2.27820E-003	  4.47992E-003	  6.57871E-003
  9.21600E-001	  4.96922E-003	  4.13239E-004	  1.18792E-003	 -2.88641E-003
  1.02400E+000	  8.00637E-003	  5.80783E-003	 -7.47003E-003	 -4.29353E-003
  1.12640E+000	  4.39822E-003	  6.03768E-003	 -2.33333E-003	 -5.80605E-004
  1.22880E+000	 -3.82756E-003	 -2.90628E-003	  6.73747E-003	 -4.43383E-003
  1.33120E+000	 -6.58242E-003	 -6.62036E-003	  5.42078E-003	 -6.31132E-003
  1.43360E+000	 -3.50682E-003	 -9.15453E-003	  1.08850E-002	 -5.07363E-003
  1.53600E+000	 -4.38952E-003	 -4.42777E-003	  2.81964E-003	 -7.11206E-003
  1.63840E+000	 -4.85716E-003	  2.31334E-003	  3.36025E-003	 -3.35156E-003
  1.84320E+000	 -6.41186E-003	  2.06030E-003	  1.69956E-003	  2.03543E-003
  2.04800E+000	 -4.84841E-003	 -6.90196E-003	 -3.73518E-003	  3.89914E-003
  2.25280E+000	 -5.89254E-003	 -6.99964E-003	  1.82083E-003	 -6.07331E-003
  2.45760E+000	 -9.65549E-003	 -4.75893E-003	  4.75351E-003	 -5.26498E-003
  2.66240E+000	 -6.64153E-003	  1.10520E-003	  6.03104E-003	 -9.65500E-003
  2.86720E+000	  3.71755E-003	  9.41623E-004	  9.89873E-004	 -1.10884E-002
  3.07200E+000	  2.56391E-003	 -1.41235E-002	 -3.78039E-003	  5.18457E-003
  3.27680E+000	 -3.51685E-003	 -9.72213E-003	 -2.63148E-003	 -1.49058E-003
  3.68640E+000	  2.70471E-003	  1.58253E-003	 -4.54381E-003	 -1.44538E-003
  4.09600E+000	  5.79568E-003	 -9.02507E-003	 -1.43167E-003	  6.10649E-004
  4.50560E+000	  3.37997E-003	  1.58485E-003	 -7.59373E-003	  2.48100E-003
  4.91520E+000	 -2.70504E-003	 -3.10444E-003	 -2.62530E-003	  5.79044E-003
  5.32480E+000	 -2.70404E-003	 -1.52918E-003	 -4.74199E-003	  6.10102E-003
  5.73440E+000	 -4.14133E-003	  3.15955E-003	 -4.82078E-004	 -9.86590E-003
  6.14400E+000	  4.81232E-003	 -1.66910E-003	  5.68619E-003	 -4.29637E-003
  6.55360E+000	  1.05668E-002	 -1.86874E-004	  4.20264E-003	 -2.48249E-003
  7.37280E+000	 -5.23312E-003	 -4.73664E-003	 -9.84338E-004	  4.55780E-004
  8.19200E+000	 -5.53482E-003	 -1.98956E-003	 -2.16153E-003	 -1.30775E-003
  9.01120E+000	 -6.57983E-004	 -3.56120E-003	  3.09598E-003	 -2.40122E-003
  9.83040E+000	  2.01492E-003	  1.80946E-003	 -1.09676E-003	  3.47782E-003
  1.06496E+001	  5.17716E-003	  4.71709E-003	  2.64595E-003	  4.23264E-004
  1.14688E+001	  4.44312E-004	  4.71870E-004	  3.58565E-003	  2.36060E-003
  1.22880E+001	  1.31204E-003	 -5.15739E-004	 -3.47906E-003	  1.96791E-003
  1.31072E+001	  3.84528E-003	 -2.50782E-003	 -1.68467E-003	  3.42468E-003
  1.47456E+001	 -3.41114E-003	 -3.20462E-003	 -3.28886E-003	  9.61512E-004
  1.63840E+001	 -1.88666E-003	 -1.92425E-003	  1.89146E-003	 -4.47129E-004
  1.80224E+001	 -1.26223E-003	 -1.31021E-003	  4.35995E-003	 -3.69626E-005
  1.96608E+001	  3.35725E-003	 -7.89814E-004	  2.10712E-003	 -2.11864E-004
  2.12992E+001	 -1.30847E-003	  2.30137E-003	  7.62800E-004	 -1.11115E-003
  2.29376E+001	 -2.57793E-003	 -9.70050E-004	 -2.86687E-003	  7.14640E-004
  2.45760E+001	 -3.05779E-004	  1.47963E-003	 -2.61708E-003	 -1.72945E-003
  2.62144E+001	 -4.05182E-003	  1.12346E-003	 -3.38197E-003	  3.54504E-003
  2.94912E+001	 -2.99760E-004	 -1.14319E-003	 -3.10113E-004	 -1.17427E-003
  3.27680E+001	  3.56592E-003	 -1.60163E-003	  1.27869E-003	  3.49060E-003
  3.60448E+001	 -9.93411E-004	  2.00864E-004	 -5.18019E-004	 -2.08671E-003
  3.93216E+001	 -7.80864E-004	 -1.98966E-003	 -1.29571E-003	  1.68090E-003
  4.25984E+001	  5.31400E-003	  2.46751E-003	 -3.43323E-003	  2.90146E-003
  4.58752E+001	 -1.25689E-004	 -3.27155E-005	 -4.50996E-004	  4.51376E-004
  4.91520E+001	 -1.64755E-004	  5.78427E-004	 -3.38295E-005	  8.21146E-004
  5.24288E+001	  7.69331E-004	  8.79787E-004	 -8.10152E-004	  1.03690E-004
  5.89824E+001	 -4.39332E-004	 -4.36364E-004	  4.14978E-004	 -1.32021E-004
  6.55360E+001	  6.48402E-004	  1.68836E-004	 -1.72216E-003	  1.77839E-003
  7.20896E+001	 -2.59653E-003	 -1.10897E-003	 -1.57750E-003	  1.49431E-003
  7.86432E+001	  1.73794E-003	  6.57922E-004	  1.04588E-003	  6.90153E-004
  8.51968E+001	 -5.48495E-004	  4.38998E-004	  1.28585E-003	 -3.27965E-004
  9.17504E+001	  3.02522E-004	 -1.26413E-003	  9.75304E-004	 -1.30339E-003
  9.83040E+001	 -1.70588E-003	 -1.69407E-003	  5.22382E-004	  1.48772E-003
  1.04858E+002	 -1.34945E-003	  6.55343E-004	  3.52252E-004	  1.24825E-003
  1.17965E+002	 -1.91713E-003	  2.97599E-004	 -2.50442E-005	  2.27068E-003
  1.31072E+002	  4.02477E-006	  8.25203E-004	 -1.81518E-003	 -3.20019E-004
  1.44179E+002	 -1.44666E-003	  2.02030E-004	 -2.40889E-005	  9.53188E-004
  1.57286E+002	 -1.10064E-003	 -2.22825E-004	  6.65490E-004	  1.08437E-003
  1.70394E+002	 -1.95916E-004	 -4.73275E-004	  9.99586E-004	  5.51270E-004
  1.83501E+002	 -4.67587E-004	 -4.79678E-004	  8.42448E-005	  2.87337E-004
  1.96608E+002	  4.20428E-005	 -7.60954E-004	 -4.10206E-005	  1.13144E-003
  2.09715E+002	  7.91207E-004	 -8.25975E-004	 -3.56033E-005	  3.98581E-004
  2.35930E+002	 -5.32036E-005	  3.12297E-004	 -1.01204E-004	  7.42884E-004
  2.62144E+002	  9.40504E-004	 -3.19314E-004	 -1.68393E-003	  9.96177E-005
  2.88358E+002	 -1.84880E-004	 -7.78114E-004	  5.88176E-004	  2.15611E-004
  3.14573E+002	  3.94580E-004	 -2.36602E-004	  3.08711E-003	 -4.06152E-004
  3.40787E+002	 -1.61672E-004	 -9.09637E-004	 -3.19184E-004	  9.53341E-004
  3.67002E+002	 -2.66366E-004	  9.02352E-004	 -1.36217E-003	  4.00632E-004
  3.93216E+002	 -2.58621E-004	 -5.17683E-005	  5.68789E-004	  4.29966E-004

"Count Rate"
       0.01311	      54.24500	      54.85535	      60.11963	      50.27771
       0.02621	      57.22046	      58.21228	      50.12512	      60.65369
       0.03932	      59.58557	      59.73816	      61.95068	      60.72998
       0.05243	      64.01062	      65.91797	      59.73816	      57.60193
       0.06554	      50.65918	      59.43298	      51.80359	      54.55017
       0.07864	      51.04065	      53.48206	      55.38940	      49.59106
       0.09175	      54.93164	      56.07605	      67.13867	      45.70007
       0.10486	      56.76270	      61.18774	      58.82263	      52.79541
       0.11796	      53.55835	      58.51746	      49.13330	      50.81177
       0.13107	      56.99158	      53.40576	      59.28040	      55.23682
       0.14418	      59.50928	      52.79541	      55.08423	      49.13330
       0.15729	      54.93164	      64.46838	      52.71912	      46.92078
       0.17039	      49.89624	      60.80627	      57.22046	      53.25317
       0.18350	      59.73816	      56.91528	      58.28857	      52.64282
       0.19661	      64.08691	      55.84717	      70.87708	      53.10059
       0.20972	      58.21228	      59.12781	      58.97522	      59.89075
       0.22282	      52.33765	      62.63733	      59.43298	      52.26135
       0.23593	      63.17139	      52.10876	      57.06787	      54.39758
       0.24904	      61.79810	      58.28857	      63.32397	      53.17688
       0.26214	      57.06787	      55.38940	      53.25317	      53.17688
       0.27525	      63.93433	      61.72180	      59.96704	      52.33765
       0.28836	      54.70276	      50.43030	      62.25586	      48.29407
       0.30147	      51.42212	      69.42749	      54.16870	      49.66736
       0.31457	      66.90979	      58.44116	      61.34033	      59.20410
       0.32768	      57.06787	      58.82263	      51.34583	      55.23682
       0.34079	      60.50110	      57.52563	      61.34033	      47.68372
       0.35389	      52.18506	      61.03516	      62.25586	      59.28040
       0.36700	      53.25317	      61.34033	      58.74634	      49.36218
       0.38011	      48.59924	      68.58826	      53.78723	      50.04883
       0.39322	      50.20142	      58.28857	      56.91528	      55.84717
       0.40632	      57.75452	      56.15234	      60.42480	      49.20959
       0.41943	      58.89893	      54.93164	      66.14685	      57.90710
       0.43254	      55.46570	      64.77356	      59.50928	      55.77087
       0.44564	      55.16052	      63.17139	      54.16870	      51.26953
       0.45875	      54.01611	      56.22864	      51.04065	      55.23682
       0.47186	      66.22314	      59.35669	      51.80359	      61.72180
       0.48497	      64.69727	      62.48474	      53.25317	      52.03247
       0.49807	      61.18774	      54.24500	      54.70276	      51.95618
       0.51118	      68.81714	      55.69458	      62.56104	      52.26135
       0.52429	      54.32129	      60.80627	      68.66455	      55.69458
       0.53740	      54.77905	      60.80627	      60.34851	      61.79810
       0.55050	      61.11145	      59.12781	      49.74365	      50.58289
       0.56361	      54.85535	      63.09509	      57.52563	      58.13599
       0.57672	      56.61011	      59.12781	      61.26404	      52.79541
       0.58982	      55.84717	      57.22046	      61.34033	      71.64001
       0.60293	      56.61011	      51.57471	      66.75720	      52.71912
       0.61604	      53.55835	      52.87170	      55.46570	      52.87170
       0.62915	      56.30493	      57.29675	      57.29675	      59.50928
       0.64225	      51.95618	      50.65918	      52.49023	      54.77905
       0.65536	      52.18506	      60.04333	      56.53381	      57.06787
       0.66847	      54.16870	      55.08423	      55.38940	      59.58557
       0.68157	      65.15503	      66.83350	      58.67004	      49.36218
       0.69468	      52.87170	      59.12781	      59.89075	      57.14417
       0.70779	      51.26953	      54.62646	      56.45752	      57.22046
       0.72090	      52.49023	      56.30493	      62.17957	      52.49023
       0.73400	      63.40027	      52.71912	      57.37305	      59.05151
       0.74711	      52.87170	      55.61829	      51.49841	      56.38123
