ALV-7004/USB-FAST
Date :	"11/11/2025"
Time :	"3:57:05 PM"
Samplename : 	""
SampMemo(0) : 	""
SampMemo(1) : 	""
SampMemo(2) : 	""
SampMemo(3) : 	""
SampMemo(4) : 	""
SampMemo(5) : 	""
SampMemo(6) : 	""
SampMemo(7) : 	""
SampMemo(8) : 	""
SampMemo(9) : 	""
Temperature [K] :	     298.16000
Viscosity [cp]  :	       0.89000
Refractive Index:	       1.33200
Wavelength [nm] :	       0.00000
Angle [°]       :	       0.00000
Duration [s]    :	         1
FloatDur [ms]   :	          944
Stop TP [ms]   :	     67743
Runs            :	         1
Mode            :	"A-CH0+1  A-CH2+3 "
MeanCR0 [kHz]   :	      46.80845
MeanCR1 [kHz]   :	      48.39897
MeanCR2 [kHz]   :	      48.15207
MeanCR3 [kHz]   :	      47.22595

"Correlation"
  3.12500E-006	 -1.00000E+000	 -1.00000E+000	 -1.00000E+000	 -1.00000E+000
  6.25000E-006	 -1.00000E+000	 -1.00000E+000	 -1.00000E+000	 -1.00000E+000
  9.37500E-006	 -1.00000E+000	 -1.00000E+000	 -1.00000E+000	 -1.00000E+000
  1.25000E-005	 -1.00000E+000	 -1.00000E+000	 -1.00000E+000	 -1.00000E+000
  1.56250E-005	 -1.00000E+000	 -1.00000E+000	 -1.00000E+000	 -1.00000E+000
  1.87500E-005	 -1.00000E+000	 -1.00000E+000	 -1.00000E+000	 -1.00000E+000
  2.18750E-005	 -8.45240E-001	  1.46084E+000	  1.48614E+000	 -5.43892E-001
  2.50000E-005	  1.43212E+001	  1.43441E+001	  1.61105E+001	  2.95592E+001
  2.81250E-005	  2.40472E+000	  3.19791E+000	  1.19366E+000	  1.00986E+001
  3.12500E-005	  1.63092E+000	  8.81822E-001	  1.19366E+000	  5.99365E+000
  3.43750E-005	  1.16664E+000	  1.17133E+000	  1.77863E+000	  3.71311E+000
  3.75000E-005	  1.16664E+000	  8.81822E-001	  1.19366E+000	  2.80090E+000
  4.06250E-005	  1.16664E+000	  2.18462E+000	  1.63239E+000	  2.64886E+000
  4.37500E-005	  1.01188E+000	  4.47556E-001	  7.54926E-001	  5.38551E+000
  4.68750E-005	  2.38081E-001	  1.58045E-001	  3.16194E-001	  2.64886E+000
  5.00000E-005	  7.02361E-001	  1.17133E+000	  4.62438E-001	  3.25700E+000
  5.62500E-005	  3.15461E-001	  1.17133E+000	  5.35560E-001	  1.96470E+000
  6.25000E-005	  1.24402E+000	  1.31609E+000	  6.08682E-001	  1.73665E+000
  6.87500E-005	  8.57121E-001	  3.02800E-001	  3.16194E-001	  8.24430E-001
  7.50000E-005	  5.47601E-001	  5.19933E-001	  7.54926E-001	  1.96470E+000
  8.12500E-005	  3.92841E-001	  3.02800E-001	  1.19366E+000	  6.72395E-001
  8.75000E-005	  7.79741E-001	  9.54200E-001	  7.54926E-001	  1.28054E+000
  9.37500E-005	  2.38081E-001	  3.75178E-001	  3.16194E-001	  1.12850E+000
  1.00000E-004	  7.02361E-001	  7.00878E-001	  2.79633E-001	  1.24253E+000
  1.12500E-004	  7.41051E-001	  5.19933E-001	  6.81804E-001	  1.24253E+000
  1.25000E-004	  5.08910E-001	  5.19933E-001	  3.89316E-001	  9.38457E-001
  1.37500E-004	  5.47601E-001	  4.11367E-001	  6.08682E-001	  7.86421E-001
  1.50000E-004	  3.92840E-001	  5.92311E-001	  2.43072E-001	  1.47058E+000
  1.62500E-004	  3.15460E-001	  6.64689E-001	  3.16194E-001	  6.72394E-001
  1.75000E-004	  7.79741E-001	  5.92311E-001	  2.79633E-001	  5.96376E-001
  1.87500E-004	  6.63671E-001	  8.09444E-001	  7.18365E-001	  8.62439E-001
  2.00000E-004	  4.31530E-001	  6.64688E-001	  5.17279E-001	  6.91399E-001
  2.25000E-004	  7.79740E-001	  4.47555E-001	  6.81803E-001	  6.34385E-001
  2.50000E-004	  6.24980E-001	  4.65650E-001	  2.79633E-001	  7.48412E-001
  2.75000E-004	  5.66945E-001	  5.01838E-001	  3.89316E-001	  5.77372E-001
  3.00000E-004	  3.92840E-001	  1.08086E+000	  5.35559E-001	  3.49318E-001
  3.25000E-004	  5.28255E-001	  7.55161E-001	  5.53840E-001	  3.11309E-001
  3.50000E-004	  7.99085E-001	  2.48516E-001	  6.63523E-001	  3.68322E-001
  3.75000E-004	  2.38080E-001	  5.56122E-001	  7.91486E-001	  6.72394E-001
  4.00000E-004	  4.89565E-001	  4.74696E-001	  5.99540E-001	  6.05878E-001
  4.50000E-004	  5.57272E-001	  5.38027E-001	  3.71035E-001	  5.20358E-001
  5.00000E-004	  4.41202E-001	  3.93271E-001	  4.98998E-001	  4.72846E-001
  5.50000E-004	  4.21857E-001	  5.10885E-001	  6.45242E-001	  6.24882E-001
  6.00000E-004	  3.92840E-001	  6.01357E-001	  4.89858E-001	  4.72846E-001
  6.50000E-004	  3.92840E-001	  4.92791E-001	  3.71035E-001	  6.43887E-001
  7.00000E-004	  3.83167E-001	  7.64207E-001	  6.90943E-001	  2.82802E-001
  7.50000E-004	  5.18582E-001	  4.65649E-001	  6.90943E-001	  3.30313E-001
  8.00000E-004	  5.66943E-001	  4.92789E-001	  3.61893E-001	  4.30085E-001
  9.00000E-004	  4.75055E-001	  3.07322E-001	  6.58951E-001	  3.92076E-001
  1.00000E-003	  5.33089E-001	  4.88266E-001	  3.93884E-001	  5.53614E-001
  1.10000E-003	  4.55710E-001	  4.20412E-001	  4.89856E-001	  4.68094E-001
  1.20000E-003	  5.47598E-001	  4.20412E-001	  5.08137E-001	  5.39361E-001
  1.30000E-003	  4.84727E-001	  4.65648E-001	  3.84744E-001	  4.87098E-001
  1.40000E-003	  5.47598E-001	  3.97794E-001	  5.58408E-001	  4.58592E-001
  1.50000E-003	  4.26692E-001	  5.38025E-001	  4.80716E-001	  4.11081E-001
  1.60000E-003	  4.29140E-001	  4.20409E-001	  4.67003E-001	  4.79969E-001
  1.80000E-003	  3.90449E-001	  3.66126E-001	  4.53293E-001	  4.49087E-001
  2.00000E-003	  4.77504E-001	  4.70169E-001	  3.91597E-001	  4.30083E-001
  2.20000E-003	  3.22741E-001	  4.31718E-001	  4.46438E-001	  4.37209E-001
  2.40000E-003	  5.21031E-001	  3.75173E-001	  3.84741E-001	  4.75218E-001
  2.60000E-003	  3.75940E-001	  3.41246E-001	  4.60148E-001	  4.51463E-001
  2.80000E-003	  4.09795E-001	  4.54336E-001	  4.62433E-001	  3.92074E-001
  3.00000E-003	  4.79922E-001	  5.35761E-001	  3.34470E-001	  3.77851E-001
  3.20000E-003	  4.54592E-001	  4.54331E-001	  4.22440E-001	  3.71908E-001
  3.60000E-003	  4.05017E-001	  4.47546E-001	  3.57316E-001	  3.49340E-001
  4.00000E-003	  4.35213E-001	  4.12488E-001	  3.45921E-001	  3.86161E-001
  4.40000E-003	  3.22766E-001	  4.07965E-001	  3.31068E-001	  4.31298E-001
  4.80000E-003	  4.36422E-001	  3.68383E-001	  3.99620E-001	  3.92100E-001
  5.20000E-003	  3.79594E-001	  4.38499E-001	  3.75627E-001	  3.65969E-001
  5.60000E-003	  3.14302E-001	  3.01660E-001	  4.14474E-001	  3.89725E-001
  6.00000E-003	  3.02211E-001	  3.61598E-001	  3.68772E-001	  4.12293E-001
  6.40000E-003	  3.24026E-001	  3.74058E-001	  3.56194E-001	  4.13471E-001
  7.20000E-003	  3.31251E-001	  3.70666E-001	  3.24203E-001	  3.70711E-001
  8.00000E-003	  3.56643E-001	  3.48047E-001	  3.35057E-001	  3.16072E-001
  8.80000E-003	  3.43342E-001	  3.41827E-001	  3.58479E-001	  2.72124E-001
  9.60000E-003	  2.90140E-001	  3.16382E-001	  2.88785E-001	  3.65960E-001
  1.04000E-002	  3.08852E-001	  2.90371E-001	  3.37914E-001	  3.36265E-001
  1.12000E-002	  3.00993E-001	  2.70015E-001	  2.77359E-001	  2.89941E-001
  1.20000E-002	  2.52629E-001	  2.81324E-001	  2.87642E-001	  2.63216E-001
  1.28000E-002	  2.61464E-001	  2.93209E-001	  2.88795E-001	  2.54884E-001
  1.44000E-002	  2.15213E-001	  2.66039E-001	  2.47092E-001	  2.70622E-001
  1.60000E-002	  2.13702E-001	  2.26175E-001	  2.28240E-001	  2.30535E-001
  1.76000E-002	  2.29421E-001	  2.56427E-001	  2.04532E-001	  2.17793E-001
  1.92000E-002	  2.35769E-001	  2.42856E-001	  2.00248E-001	  2.15418E-001
  2.08000E-002	  1.99494E-001	  2.37201E-001	  1.99391E-001	  2.27890E-001
  2.24000E-002	  2.06749E-001	  2.10625E-001	  1.80825E-001	  1.82159E-001
  2.40000E-002	  1.48985E-001	  1.76698E-001	  1.78539E-001	  1.58106E-001
  2.56000E-002	  1.66342E-001	  1.61026E-001	  1.55968E-001	  1.80224E-001
  2.88000E-002	  1.21448E-001	  1.55089E-001	  1.32403E-001	  1.63149E-001
  3.20000E-002	  1.16132E-001	  1.34167E-001	  1.40972E-001	  1.22319E-001
  3.52000E-002	  8.44140E-002	  1.38550E-001	  1.05125E-001	  9.55932E-002
  3.84000E-002	  8.07862E-002	  9.59988E-002	  8.89626E-002	  1.02572E-001
  4.16000E-002	  8.74618E-002	  1.10111E-001	  8.58207E-002	  7.62915E-002
  4.48000E-002	  6.26712E-002	  7.29329E-002	  8.48210E-002	  9.42569E-002
  4.80000E-002	  6.18913E-002	  7.56188E-002	  6.49697E-002	  7.43614E-002
  5.12000E-002	  5.32775E-002	  6.32618E-002	  3.64190E-002	  6.85608E-002
  5.76000E-002	  4.50376E-002	  3.73924E-002	  5.00579E-002	  3.15168E-002
  6.40000E-002	  3.89378E-002	  3.62388E-002	  2.73501E-002	  3.18880E-002
  7.04000E-002	  3.22385E-002	  4.64167E-002	  4.19174E-002	  1.94905E-002
  7.68000E-002	  3.62215E-002	  1.84981E-002	  4.70588E-002	  1.90222E-002
  8.32000E-002	  3.04532E-002	  1.74379E-002	  1.37826E-002	  2.80789E-002
  8.96000E-002	  2.14054E-002	  3.29875E-002	  1.64247E-002	  3.55023E-002
  9.60000E-002	  2.70225E-002	  7.61339E-003	  1.02074E-002	  4.70830E-002
  1.02400E-001	  3.54116E-002	  4.22171E-003	  1.86316E-002	  2.41711E-002
  1.15200E-001	  1.43303E-002	 -3.30571E-003	  1.19540E-002	  1.49886E-002
  1.28000E-001	  6.27770E-003	  1.18247E-003	 -2.07959E-003	  8.93812E-003
  1.40800E-001	 -1.91096E-003	 -1.09255E-002	 -1.64703E-002	  9.08660E-003
  1.53600E-001	 -2.15257E-003	  6.03736E-003	  1.16994E-002	  1.02084E-002
  1.66400E-001	 -7.53572E-003	  1.43552E-002	  1.39091E-002	  1.14334E-002
  1.79200E-001	  1.37538E-002	  6.81483E-003	 -9.61527E-004	 -5.71648E-003
  1.92000E-001	 -1.15945E-002	  1.03841E-002	  3.89563E-003	 -5.28582E-003
  2.04800E-001	 -1.64471E-003	 -4.39410E-003	  1.10117E-003	  3.43451E-003
  2.30400E-001	  7.71229E-004	 -3.95652E-003	  1.68220E-003	  5.16408E-004
  2.56000E-001	 -7.07828E-003	 -2.27383E-003	  7.17741E-004	 -6.18801E-003
  2.81600E-001	 -6.57595E-003	  1.69253E-003	 -1.12309E-002	  9.56619E-003
  3.07200E-001	  1.61059E-003	  3.93657E-003	 -5.52936E-003	  7.80293E-003
  3.32800E-001	  3.53545E-003	 -8.51904E-004	 -9.33371E-003	  3.80843E-003
  3.58400E-001	 -4.28461E-003	 -4.67797E-003	 -2.51089E-003	 -8.57120E-003
  3.84000E-001	  6.29550E-003	  3.83918E-003	 -7.06139E-003	  3.39615E-003
  4.09600E-001	  1.25688E-003	 -6.82257E-003	 -7.96702E-003	  7.33228E-004
  4.60800E-001	  3.61894E-003	  6.52890E-005	 -2.99940E-003	  6.20477E-003
  5.12000E-001	  6.53587E-004	 -1.35728E-003	 -3.89206E-003	  9.11740E-003
  5.63200E-001	 -2.25516E-003	  8.37096E-003	 -7.96110E-003	  9.69083E-003
  6.14400E-001	  7.73454E-003	 -1.07820E-002	  3.82238E-003	 -2.44401E-004
  6.65600E-001	  1.11315E-003	  3.21168E-004	 -5.13071E-003	 -8.78580E-003
  7.16800E-001	 -4.59815E-003	  7.81424E-003	 -1.71282E-003	  2.16965E-003
  7.68000E-001	 -1.27664E-002	  1.48298E-003	  2.53532E-003	  1.27267E-003
  8.19200E-001	 -6.32361E-003	  3.50266E-003	  7.92405E-004	 -3.91986E-004
  9.21600E-001	  1.85461E-005	  5.80579E-003	 -6.86466E-003	 -8.84239E-003
  1.02400E+000	  5.05719E-003	  5.16059E-003	 -8.60178E-004	  2.99684E-003
  1.12640E+000	 -1.41895E-003	 -3.24852E-003	 -6.26391E-005	 -4.58969E-003
  1.22880E+000	 -3.53930E-003	  4.70009E-003	 -2.06648E-003	  7.92035E-003
  1.33120E+000	 -2.09457E-003	  1.87952E-003	  1.66331E-003	 -2.10838E-003
  1.43360E+000	 -2.37478E-003	  2.07377E-003	  3.29589E-003	 -2.90518E-004
  1.53600E+000	 -2.83311E-004	  2.51175E-004	  6.01084E-005	  3.00939E-003
  1.63840E+000	 -3.40867E-003	  4.31661E-003	 -1.11928E-003	 -2.86211E-003
  1.84320E+000	 -3.68825E-003	  1.63723E-004	  1.00429E-003	  8.47464E-004
  2.04800E+000	  4.53394E-003	 -3.60678E-003	 -1.20482E-003	 -3.56804E-003
  2.25280E+000	  6.76435E-003	  2.67063E-003	  2.93154E-003	  9.12232E-004
  2.45760E+000	  5.59040E-003	 -9.00604E-004	 -4.24900E-003	 -1.31634E-003
  2.66240E+000	  5.29837E-003	 -2.50242E-004	  5.61060E-003	  3.39963E-003
  2.86720E+000	  3.57290E-003	 -2.27455E-003	 -1.84710E-003	  9.47566E-004
  3.07200E+000	  3.63421E-003	 -7.51617E-004	 -6.38085E-004	 -2.72804E-003
  3.27680E+000	  7.22524E-004	  8.24547E-004	  9.06641E-004	 -3.30825E-003
  3.68640E+000	 -2.70695E-004	  3.01976E-003	 -3.17326E-003	  3.89433E-004
  4.09600E+000	  5.66638E-004	  2.97352E-003	 -4.57452E-003	  1.36464E-003
  4.50560E+000	 -5.38590E-003	  3.36926E-003	  3.53802E-004	 -2.45399E-004
  4.91520E+000	 -1.13419E-004	 -3.68870E-003	 -5.18383E-004	 -9.50311E-004
  5.32480E+000	  7.64181E-004	 -1.65545E-003	 -4.34553E-004	 -1.33430E-003
  5.73440E+000	 -1.89855E-003	 -9.47099E-004	 -2.18681E-003	  2.91127E-003
  6.14400E+000	  5.19286E-004	 -7.71877E-004	  1.89790E-003	 -2.23204E-003
  6.55360E+000	  1.47228E-003	 -1.97405E-003	 -2.99907E-004	 -2.98677E-003
  7.37280E+000	 -3.50090E-004	 -7.05548E-006	  4.39207E-004	  8.32962E-004
  8.19200E+000	  6.78317E-004	 -2.74039E-003	 -1.36745E-003	 -8.53928E-004
  9.01120E+000	  1.43484E-003	 -3.43029E-004	  9.19548E-004	 -1.98072E-003
  9.83040E+000	 -3.17414E-003	 -3.46973E-004	  4.60533E-005	 -1.61478E-003
  1.06496E+001	  1.72964E-003	 -3.54475E-003	 -1.67546E-004	  1.27322E-003
  1.14688E+001	  1.27671E-003	  8.90819E-004	  2.59229E-003	 -3.34185E-003
  1.22880E+001	  1.93548E-004	 -2.09939E-003	 -2.08171E-003	 -1.01973E-003
  1.31072E+001	  7.97661E-004	  1.02793E-004	  1.00136E-003	 -8.89962E-004
  1.47456E+001	  2.07328E-004	  5.26007E-004	 -1.93867E-003	  1.40253E-003
  1.63840E+001	  6.58940E-004	  4.76694E-004	  9.58279E-004	 -1.10815E-003
  1.80224E+001	 -1.11164E-003	  9.14735E-004	 -1.28062E-004	  1.26240E-003
  1.96608E+001	  3.71852E-004	 -9.32336E-004	 -1.08785E-003	  1.28615E-003
  2.12992E+001	  4.82477E-004	  2.56031E-003	  4.58303E-004	 -1.48718E-003
  2.29376E+001	 -9.07246E-004	  1.12165E-003	  2.79176E-004	 -1.72690E-003
  2.45760E+001	 -8.50658E-005	 -4.54430E-004	 -1.14730E-003	 -1.28899E-003
  2.62144E+001	  3.05497E-004	 -1.18557E-003	 -4.54647E-004	  3.71004E-004
  2.94912E+001	 -1.24881E-003	 -2.69353E-003	 -3.57879E-004	  9.03165E-004
  3.27680E+001	 -2.62337E-003	 -2.77104E-003	  5.51299E-004	 -7.72022E-004
  3.60448E+001	  1.26282E-003	  6.54114E-004	  2.09858E-004	  4.90253E-004
  3.93216E+001	  4.52641E-004	  9.88311E-004	 -1.07402E-004	  7.26098E-005
  4.25984E+001	  5.35537E-004	 -2.19614E-004	 -1.32210E-004	  5.38242E-005
  4.58752E+001	 -2.50816E-004	  3.94236E-005	 -5.10353E-004	  4.85772E-004
  4.91520E+001	 -1.98829E-005	  1.02908E-004	 -4.51129E-005	  8.38614E-004
  5.24288E+001	 -2.54908E-005	 -4.89983E-004	  5.85762E-004	 -1.22941E-003
  5.89824E+001	 -2.63228E-004	  7.84347E-004	  1.53573E-004	 -3.96230E-004
  6.55360E+001	  4.92838E-004	  3.22157E-004	 -1.39710E-005	 -1.29196E-004
  7.20896E+001	 -6.93159E-004	  4.60147E-004	 -1.74824E-004	  4.38353E-005
  7.86432E+001	 -5.28253E-004	  8.36392E-004	 -6.38185E-004	  3.12927E-004
  8.51968E+001	 -4.40565E-004	  2.10544E-004	  3.48378E-004	  1.36964E-005
  9.17504E+001	  4.20551E-004	 -1.50642E-003	 -4.02708E-004	 -7.12264E-004
  9.83040E+001	 -8.83274E-005	 -8.58042E-004	 -7.28884E-004	  2.64810E-004
  1.04858E+002	  1.90963E-005	 -1.73998E-004	 -3.15124E-004	  7.09529E-004
  1.17965E+002	 -2.18034E-004	  4.04751E-004	  2.71282E-004	  3.03326E-004
  1.31072E+002	  5.04213E-004	  2.52054E-004	  9.37468E-005	 -2.75254E-005
  1.44179E+002	 -6.57899E-004	  1.20353E-004	 -6.08988E-004	 -1.54878E-004
  1.57286E+002	 -6.09734E-005	 -4.99877E-004	 -1.34234E-004	 -1.21035E-004
  1.70394E+002	  8.89107E-005	 -7.35709E-004	  1.00648E-004	 -1.94865E-004
  1.83501E+002	  3.90594E-004	 -4.47784E-004	  2.10759E-005	  3.50685E-004
  1.96608E+002	 -3.47891E-004	  1.57222E-004	  2.40817E-004	  7.09930E-004
  2.09715E+002	 -6.66818E-004	  2.16771E-004	  9.31201E-005	  4.61362E-004
  2.35930E+002	 -4.09317E-004	 -9.96824E-005	 -2.43049E-004	 -9.52258E-005
  2.62144E+002	  5.89329E-004	 -8.62702E-004	  4.35582E-004	 -5.21477E-004
  2.88358E+002	  2.39837E-005	  2.88987E-004	 -3.69814E-005	  3.12706E-004
  3.14573E+002	 -6.93740E-004	 -3.14241E-004	  1.36160E-004	  1.32029E-004
  3.40787E+002	 -6.72626E-004	  1.38414E-004	 -7.45028E-005	 -3.11964E-004
  3.67002E+002	  7.39015E-004	 -2.56435E-005	  8.19764E-005	 -2.09039E-004
  3.93216E+002	  3.48895E-004	 -1.13641E-004	 -1.36458E-004	 -1.01107E-004

"Count Rate"
       0.01311	      44.55566	      41.88538	      51.95618	      44.17419
       0.02621	      47.22595	      42.34314	      48.90442	      45.62378
       0.03932	      46.31042	      48.98071	      48.06519	      45.08972
       0.05243	      47.37854	      46.08154	      46.38672	      44.17419
       0.06554	      45.47119	      46.23413	      48.14148	      41.19873
       0.07864	      42.64832	      44.25049	      49.20959	      51.42212
       0.09175	      54.32129	      48.75183	      49.28589	      48.52295
       0.10486	      44.86084	      53.93982	      45.31860	      53.17688
       0.11796	      47.98889	      49.28589	      46.92078	      48.14148
       0.13107	      46.53931	      46.46301	      45.70007	      48.82813
       0.14418	      45.31860	      48.37036	      42.95349	      47.07336
       0.15729	      46.08154	      49.59106	      44.17419	      48.37036
       0.17039	      41.27502	      51.95618	      42.95349	      44.70825
       0.18350	      45.85266	      44.55566	      46.46301	      48.52295
       0.19661	      49.20959	      45.08972	      45.31860	      46.08154
       0.20972	      52.18506	      48.90442	      48.29407	      47.14966
       0.22282	      51.19324	      47.53113	      48.29407	      45.16602
       0.23593	      47.60742	      51.34583	      48.75183	      47.30225
       0.24904	      49.28589	      48.82813	      49.28589	      47.37854
       0.26214	      50.81177	      48.21777	      46.76819	      44.63196
       0.27525	      45.31860	      43.33496	      47.07336	      47.07336
       0.28836	      41.88538	      49.74365	      54.24500	      52.10876
       0.30147	      43.79272	      46.99707	      47.76001	      47.83630
       0.31457	      47.45483	      47.45483	      45.01343	      47.37854
       0.32768	      44.09790	      46.23413	      49.66736	      45.85266
       0.34079	      44.55566	      46.23413	      47.22595	      43.94531
       0.35389	      44.93713	      50.65918	      46.84448	      48.52295
       0.36700	      47.60742	      51.95618	      45.77637	      44.78455
       0.38011	      41.88538	      46.92078	      45.39490	      44.63196
       0.39322	      44.09790	      47.98889	      45.85266	      48.75183
       0.40632	      46.38672	      45.39490	      52.18506	      48.98071
       0.41943	      46.15784	      48.14148	      48.14148	      45.92896
       0.43254	      42.87720	      48.06519	      44.09790	      47.45483
       0.44564	      44.70825	      42.19055	      45.31860	      46.08154
       0.45875	      45.39490	      48.06519	      47.68372	      40.81726
       0.47186	      43.48755	      47.83630	      47.22595	      47.53113
       0.48497	      44.63196	      46.76819	      46.92078	      47.53113
       0.49807	      56.22864	      46.31042	      46.38672	      43.41125
       0.51118	      45.24231	      46.92078	      46.38672	      51.19324
       0.52429	      44.02161	      43.25867	      44.86084	      44.40308
       0.53740	      40.66467	      46.38672	      52.49023	      44.17419
       0.55050	      45.77637	      41.96167	      44.93713	      46.99707
       0.56361	      47.07336	      47.60742	      46.84448	      43.79272
       0.57672	      45.54749	      51.11694	      48.59924	      44.32678
       0.58982	      47.53113	      53.10059	      44.32678	      51.04065
       0.60293	      44.55566	      47.30225	      48.75183	      45.08972
       0.61604	      48.06519	      47.30225	      47.60742	      49.66736
       0.62915	      47.98889	      43.64014	      46.76819	      40.58838
       0.64225	      42.57202	      50.58289	      45.77637	      47.91260
       0.65536	      46.23413	      52.94800	      47.45483	      45.70007
       0.66847	      48.98071	      48.29407	      52.33765	      46.76819
       0.68157	      50.65918	      44.17419	      45.31860	      46.99707
       0.69468	      46.00525	      48.44666	      43.41125	      47.98889
       0.70779	      45.31860	      48.59924	      46.92078	      44.40308
       0.72090	      42.64832	      48.90442	      48.59924	      51.34583
       0.73400	      46.00525	      48.14148	      47.22595	      47.37854
       0.74711	      47.45483	      45.92896	      45.24231	      42.72461
