ALV-7004/USB-FAST
Date :	"11/11/2025"
Time :	"3:54:57 PM"
Samplename : 	""
SampMemo(0) : 	""
SampMemo(1) : 	""
SampMemo(2) : 	""
SampMemo(3) : 	""
SampMemo(4) : 	""
SampMemo(5) : 	""
SampMemo(6) : 	""
SampMemo(7) : 	""
SampMemo(8) : 	""
SampMemo(9) : 	""
Temperature [K] :	     298.16000
Viscosity [cp]  :	       0.89000
Refractive Index:	       1.33200
Wavelength [nm] :	       0.00000
Angle [°]       :	       0.00000
Duration [s]    :	         1
FloatDur [ms]   :	          944
Stop TP [ms]   :	     62197
Runs            :	         1
Mode            :	"A-CH0+1  A-CH2+3 "
MeanCR0 [kHz]   :	      55.73485
MeanCR1 [kHz]   :	      54.41348
MeanCR2 [kHz]   :	      52.88972
MeanCR3 [kHz]   :	      55.53034

"Correlation"
  3.12500E-006	 -1.00000E+000	 -1.00000E+000	 -1.00000E+000	 -1.00000E+000
  6.25000E-006	 -1.00000E+000	 -1.00000E+000	 -1.00000E+000	 -1.00000E+000
  9.37500E-006	 -1.00000E+000	 -1.00000E+000	 -1.00000E+000	 -1.00000E+000
  1.25000E-005	 -1.00000E+000	 -1.00000E+000	 -1.00000E+000	 -1.00000E+000
  1.56250E-005	 -1.00000E+000	 -1.00000E+000	 -1.00000E+000	 -1.00000E+000
  1.87500E-005	 -1.00000E+000	 -1.00000E+000	 -1.00000E+000	 -1.00000E+000
  2.18750E-005	 -1.00000E+000	  2.59758E-001	  1.42435E+000	 -8.90037E-001
  2.50000E-005	  1.48275E+001	  1.42316E+001	  1.23339E+001	  2.63808E+001
  2.81250E-005	  3.03875E+000	  1.63404E+000	  2.87896E+000	  9.22657E+000
  3.12500E-005	  1.18311E+000	  1.40499E+000	  1.90922E+000	  4.16827E+000
  3.43750E-005	  1.29227E+000	  7.17852E-001	  2.15165E+000	  4.93801E+000
  3.75000E-005	  1.07395E+000	  8.32376E-001	  8.18261E-001	  3.50849E+000
  4.06250E-005	  1.40142E+000	  1.74856E+000	  1.30313E+000	  2.07897E+000
  4.37500E-005	  1.61973E+000	  1.06142E+000	  4.54609E-001	  2.62878E+000
  4.68750E-005	  9.64799E-001	  3.07114E-002	  4.54609E-001	  2.51882E+000
  5.00000E-005	  1.01938E+000	  4.31544E-001	  8.18261E-001	  3.17860E+000
  5.62500E-005	  8.55644E-001	  3.74282E-001	  6.36435E-001	  1.41919E+000
  6.25000E-005	  1.12853E+000	  7.17852E-001	 -9.08694E-002	  1.58413E+000
  6.87500E-005	  9.15550E-002	  8.79731E-002	  8.18261E-001	  8.69372E-001
  7.50000E-005	  6.37333E-001	 -2.65504E-002	  5.15218E-001	  1.14428E+000
  8.12500E-005	  3.09866E-001	  8.32376E-001	  2.72783E-001	  1.58413E+000
  8.75000E-005	  7.46488E-001	  5.46067E-001	  4.54609E-001	  1.03432E+000
  9.37500E-005	  3.64444E-001	  5.46067E-001	  1.00009E+000	  8.69372E-001
  1.00000E-004	  4.73599E-001	  7.46483E-001	  7.57652E-001	  7.31918E-001
  1.12500E-004	  1.18844E-001	  4.60174E-001	  3.33391E-001	  7.04428E-001
  1.25000E-004	  3.91733E-001	  6.89221E-001	  1.81870E-001	  5.11992E-001
  1.37500E-004	  3.64444E-001	  4.88805E-001	  6.36435E-001	  4.57011E-001
  1.50000E-004	  5.28177E-001	  4.31543E-001	  7.87957E-001	  8.14391E-001
  1.62500E-004	  5.55466E-001	  5.17436E-001	  5.45522E-001	  8.41881E-001
  1.75000E-004	  5.28177E-001	  7.17852E-001	  3.03087E-001	  5.39483E-001
  1.87500E-004	  8.28354E-001	  3.17020E-001	  4.84913E-001	  7.04428E-001
  2.00000E-004	  4.19021E-001	  5.60382E-001	  4.54608E-001	  5.39483E-001
  2.25000E-004	  3.78088E-001	  4.74489E-001	  6.21282E-001	  5.66973E-001
  2.50000E-004	  6.10043E-001	  6.60590E-001	  5.30369E-001	  5.80719E-001
  2.75000E-004	  6.91910E-001	  7.60798E-001	  6.06130E-001	  3.74538E-001
  3.00000E-004	  5.96399E-001	  5.17436E-001	  4.24304E-001	  4.84501E-001
  3.25000E-004	  4.19021E-001	  4.02912E-001	  3.18239E-001	  4.84501E-001
  3.50000E-004	  5.82754E-001	  3.45650E-001	  4.24304E-001	  6.76936E-001
  3.75000E-004	  5.55465E-001	  4.74489E-001	  3.03087E-001	  7.18173E-001
  4.00000E-004	  4.73598E-001	  5.03120E-001	  2.80358E-001	  5.46355E-001
  4.50000E-004	  4.59954E-001	  6.24801E-001	  4.77336E-001	  4.91373E-001
  5.00000E-004	  4.39487E-001	  5.67539E-001	  5.53097E-001	  6.70063E-001
  5.50000E-004	  6.03220E-001	  4.67331E-001	  4.47032E-001	  5.05119E-001
  6.00000E-004	  6.30509E-001	  4.74489E-001	  4.62184E-001	  6.42572E-001
  6.50000E-004	  5.96398E-001	  4.38700E-001	  4.62184E-001	  5.25737E-001
  7.00000E-004	  5.14531E-001	  5.03120E-001	  5.53097E-001	  4.15774E-001
  7.50000E-004	  3.91732E-001	  4.53016E-001	  4.54608E-001	  5.32609E-001
  8.00000E-004	  4.36102E-001	  5.53222E-001	  4.31878E-001	  5.15426E-001
  9.00000E-004	  4.53130E-001	  5.24591E-001	  4.62183E-001	  5.36044E-001
  1.00000E-003	  5.34997E-001	  4.74487E-001	  5.94764E-001	  5.29172E-001
  1.10000E-003	  3.40564E-001	  4.88803E-001	  4.09150E-001	  5.18863E-001
  1.20000E-003	  4.56541E-001	  5.67538E-001	  4.58395E-001	  5.42917E-001
  1.30000E-003	  4.42897E-001	  4.60172E-001	  4.47031E-001	  5.49790E-001
  1.40000E-003	  5.17941E-001	  4.85224E-001	  5.03851E-001	  5.36044E-001
  1.50000E-003	  4.15608E-001	  4.53014E-001	  3.97786E-001	  6.11644E-001
  1.60000E-003	  5.12880E-001	  4.36935E-001	  4.47028E-001	  5.34324E-001
  1.80000E-003	  5.36758E-001	  4.90619E-001	  4.50816E-001	  5.54942E-001
  2.00000E-003	  5.26525E-001	  5.33566E-001	  4.05360E-001	  5.63532E-001
  2.20000E-003	  4.73650E-001	  4.81672E-001	  4.56498E-001	  5.32605E-001
  2.40000E-003	  5.02646E-001	  3.93988E-001	  4.73544E-001	  5.97896E-001
  2.60000E-003	  5.07734E-001	  5.29987E-001	  3.95890E-001	  5.34324E-001
  2.80000E-003	  4.17338E-001	  4.60198E-001	  3.71267E-001	  5.29169E-001
  3.00000E-003	  4.95795E-001	  4.69145E-001	  5.24683E-001	  5.15424E-001
  3.20000E-003	  4.70290E-001	  4.42327E-001	  5.12367E-001	  4.99096E-001
  3.60000E-003	  4.60028E-001	  5.36275E-001	  4.66910E-001	  5.62668E-001
  4.00000E-003	  5.34224E-001	  4.50379E-001	  4.45129E-001	  4.87928E-001
  4.40000E-003	  4.62587E-001	  5.42538E-001	  4.63122E-001	  5.64386E-001
  4.80000E-003	  4.12270E-001	  4.34246E-001	  5.00055E-001	  5.38614E-001
  5.20000E-003	  4.42119E-001	  4.52141E-001	  4.44182E-001	  5.14560E-001
  5.60000E-003	  5.13756E-001	  4.73614E-001	  4.76380E-001	  4.96519E-001
  6.00000E-003	  4.48061E-001	  5.51455E-001	  4.36606E-001	  5.15419E-001
  6.40000E-003	  5.13008E-001	  5.05902E-001	  4.37543E-001	  5.07677E-001
  7.20000E-003	  5.00641E-001	  4.91138E-001	  4.71162E-001	  5.32190E-001
  8.00000E-003	  4.87422E-001	  5.38114E-001	  4.37070E-001	  5.67842E-001
  8.80000E-003	  4.95524E-001	  4.77269E-001	  4.89658E-001	  5.17585E-001
  9.60000E-003	  5.02745E-001	  5.26034E-001	  4.88238E-001	  5.33478E-001
  1.04000E-002	  4.50266E-001	  4.73690E-001	  4.73559E-001	  5.72996E-001
  1.12000E-002	  4.73720E-001	  4.62030E-001	  5.00075E-001	  5.64405E-001
  1.20000E-002	  4.72867E-001	  4.92451E-001	  4.94867E-001	  4.97396E-001
  1.28000E-002	  4.76157E-001	  4.83462E-001	  4.48207E-001	  5.22934E-001
  1.44000E-002	  4.79170E-001	  4.78540E-001	  4.30450E-001	  5.68894E-001
  1.60000E-002	  4.66803E-001	  4.87207E-001	  4.79694E-001	  5.09188E-001
  1.76000E-002	  4.62539E-001	  5.02196E-001	  4.37789E-001	  5.33457E-001
  1.92000E-002	  4.65283E-001	  4.75798E-001	  4.51995E-001	  5.33243E-001
  2.08000E-002	  4.57607E-001	  4.77141E-001	  4.70935E-001	  5.35390E-001
  2.24000E-002	  4.80180E-001	  4.49177E-001	  4.31634E-001	  5.31554E-001
  2.40000E-002	  4.41800E-001	  4.73980E-001	  4.88691E-001	  5.16978E-001
  2.56000E-002	  4.49551E-001	  5.08347E-001	  4.78115E-001	  5.27675E-001
  2.88000E-002	  4.79832E-001	  4.67934E-001	  4.69119E-001	  5.28320E-001
  3.20000E-002	  4.35583E-001	  4.81358E-001	  4.45118E-001	  5.23810E-001
  3.52000E-002	  4.46992E-001	  4.70395E-001	  4.33163E-001	  5.16722E-001
  3.84000E-002	  4.50830E-001	  4.82166E-001	  4.61217E-001	  5.00292E-001
  4.16000E-002	  4.53575E-001	  4.79536E-001	  4.27126E-001	  5.25313E-001
  4.48000E-002	  4.59731E-001	  4.51907E-001	  4.62046E-001	  5.33689E-001
  4.80000E-002	  4.48829E-001	  4.56158E-001	  4.42396E-001	  5.04967E-001
  5.12000E-002	  4.42393E-001	  4.68507E-001	  4.37996E-001	  5.26445E-001
  5.76000E-002	  4.51697E-001	  4.78689E-001	  4.43796E-001	  5.06017E-001
  6.40000E-002	  4.52710E-001	  4.71359E-001	  4.36989E-001	  5.19064E-001
  7.04000E-002	  4.43859E-001	  4.60477E-001	  4.41724E-001	  5.06801E-001
  7.68000E-002	  4.44416E-001	  4.62911E-001	  4.43914E-001	  5.14480E-001
  8.32000E-002	  4.32793E-001	  4.56225E-001	  4.43500E-001	  5.03687E-001
  8.96000E-002	  4.30420E-001	  4.47917E-001	  4.31899E-001	  5.08659E-001
  9.60000E-002	  4.37084E-001	  4.48811E-001	  4.28081E-001	  4.97465E-001
  1.02400E-001	  4.36737E-001	  4.38168E-001	  4.20436E-001	  5.00613E-001
  1.15200E-001	  4.32282E-001	  4.38616E-001	  4.15936E-001	  4.97422E-001
  1.28000E-001	  4.34252E-001	  4.43626E-001	  4.29223E-001	  4.96296E-001
  1.40800E-001	  4.14250E-001	  4.36965E-001	  4.07325E-001	  4.89824E-001
  1.53600E-001	  4.09263E-001	  4.21350E-001	  4.19607E-001	  4.92112E-001
  1.66400E-001	  4.04702E-001	  4.26583E-001	  3.96407E-001	  4.81210E-001
  1.79200E-001	  4.13449E-001	  4.17152E-001	  3.83355E-001	  4.87207E-001
  1.92000E-001	  3.80941E-001	  4.17712E-001	  3.82700E-001	  4.72437E-001
  2.04800E-001	  3.77424E-001	  4.08732E-001	  3.86208E-001	  4.74299E-001
  2.30400E-001	  3.75758E-001	  4.06536E-001	  3.68574E-001	  4.57058E-001
  2.56000E-001	  3.71237E-001	  3.79305E-001	  3.58878E-001	  4.39280E-001
  2.81600E-001	  3.61403E-001	  3.66969E-001	  3.38156E-001	  4.37762E-001
  3.07200E-001	  3.35837E-001	  3.52079E-001	  3.29334E-001	  4.16809E-001
  3.32800E-001	  3.37259E-001	  3.38963E-001	  3.24034E-001	  4.06090E-001
  3.58400E-001	  3.09641E-001	  3.33653E-001	  3.08785E-001	  3.99090E-001
  3.84000E-001	  3.05789E-001	  3.25772E-001	  2.94173E-001	  3.85626E-001
  4.09600E-001	  2.96413E-001	  3.07251E-001	  2.78754E-001	  3.73065E-001
  4.60800E-001	  2.74693E-001	  2.82818E-001	  2.56992E-001	  3.52689E-001
  5.12000E-001	  2.51850E-001	  2.57910E-001	  2.34901E-001	  3.27420E-001
  5.63200E-001	  2.31975E-001	  2.34813E-001	  2.11486E-001	  3.10874E-001
  6.14400E-001	  2.17587E-001	  2.16986E-001	  1.84674E-001	  2.90548E-001
  6.65600E-001	  1.98765E-001	  1.93932E-001	  1.73178E-001	  2.70507E-001
  7.16800E-001	  1.79518E-001	  1.75402E-001	  1.60031E-001	  2.61696E-001
  7.68000E-001	  1.64192E-001	  1.61886E-001	  1.37270E-001	  2.43690E-001
  8.19200E-001	  1.52184E-001	  1.45318E-001	  1.28763E-001	  2.30534E-001
  9.21600E-001	  1.27177E-001	  1.20747E-001	  1.04440E-001	  2.03825E-001
  1.02400E+000	  1.05742E-001	  9.73069E-002	  8.88899E-002	  1.74379E-001
  1.12640E+000	  8.61541E-002	  7.99802E-002	  7.70243E-002	  1.52512E-001
  1.22880E+000	  7.01383E-002	  6.88087E-002	  6.37001E-002	  1.35021E-001
  1.33120E+000	  6.11779E-002	  5.53660E-002	  5.85056E-002	  1.13661E-001
  1.43360E+000	  4.42085E-002	  4.57524E-002	  5.79743E-002	  9.93001E-002
  1.53600E+000	  3.28820E-002	  3.81854E-002	  5.44615E-002	  9.29998E-002
  1.63840E+000	  2.49076E-002	  2.62852E-002	  4.96211E-002	  8.80717E-002
  1.84320E+000	  1.23591E-002	  1.55448E-002	  4.41338E-002	  7.82206E-002
  2.04800E+000	  9.22630E-003	  7.05860E-003	  3.75090E-002	  6.06891E-002
  2.25280E+000	  6.40413E-003	  9.92521E-003	  2.45409E-002	  4.96514E-002
  2.45760E+000	  8.46312E-004	  9.98657E-003	  1.41561E-002	  3.95624E-002
  2.66240E+000	  2.49344E-003	  4.77533E-003	  1.37092E-002	  3.18025E-002
  2.86720E+000	  3.25081E-003	  4.59805E-003	  8.58726E-003	  3.21461E-002
  3.07200E+000	  6.41740E-003	  2.84520E-003	  6.55874E-003	  3.25022E-002
  3.27680E+000	  1.17304E-002	  3.26334E-003	 -2.44879E-003	  3.15347E-002
  3.68640E+000	  8.65385E-003	  3.87215E-004	 -1.63162E-002	  2.75388E-002
  4.09600E+000	  1.33175E-003	  6.30977E-003	 -1.48170E-002	  3.32020E-002
  4.50560E+000	 -3.10985E-003	  1.09654E-002	 -6.87633E-003	  3.34692E-002
  4.91520E+000	 -4.80346E-003	  9.45233E-003	  7.57873E-004	  2.96557E-002
  5.32480E+000	 -4.62572E-003	  1.64979E-002	 -7.39536E-004	  1.76079E-002
  5.73440E+000	 -4.80660E-003	  1.96402E-002	 -7.40382E-003	 -4.49409E-004
  6.14400E+000	  4.31089E-003	  1.37208E-002	 -6.52270E-003	 -1.00114E-002
  6.55360E+000	  1.33200E-003	 -2.64271E-003	 -9.08438E-003	 -1.42885E-002
  7.37280E+000	 -7.72364E-003	 -9.93991E-003	 -8.85920E-003	 -1.80591E-002
  8.19200E+000	 -2.44809E-002	 -1.06913E-002	  4.04302E-003	 -7.02665E-003
  9.01120E+000	 -3.22143E-002	 -1.90098E-002	  9.14035E-003	  1.24710E-002
  9.83040E+000	 -3.43531E-002	 -1.64273E-002	  1.52036E-003	  1.46386E-002
  1.06496E+001	 -1.82008E-002	 -6.99282E-003	 -1.69632E-002	  1.50687E-002
  1.14688E+001	 -7.61716E-004	 -1.75110E-002	 -2.46793E-002	  8.43428E-004
  1.22880E+001	  2.83721E-003	 -1.09190E-002	 -1.22790E-002	 -1.45084E-002
  1.31072E+001	 -2.69012E-003	 -1.79433E-002	 -6.06094E-003	 -3.53241E-003
  1.47456E+001	  6.54877E-003	 -1.38413E-002	 -1.49927E-002	  7.49712E-003
  1.63840E+001	  2.57766E-002	 -2.04909E-002	 -6.24756E-003	  1.99370E-003
  1.80224E+001	  2.58207E-002	 -7.19824E-003	  5.63535E-003	  1.01941E-002
  1.96608E+001	  1.30788E-002	 -1.64212E-002	  4.08118E-003	  5.05820E-003
  2.12992E+001	  1.10261E-002	  1.86287E-004	 -2.61943E-003	  2.81316E-003
  2.29376E+001	  4.58054E-004	 -4.58126E-003	 -3.65632E-003	  2.45883E-002
  2.45760E+001	 -1.95656E-002	  1.12875E-003	  2.57211E-003	  6.28083E-003
  2.62144E+001	 -2.29104E-002	  6.34950E-003	 -1.10797E-002	  1.62460E-002
  2.94912E+001	 -1.25710E-002	 -1.41561E-003	 -1.51281E-002	  1.64385E-003
  3.27680E+001	  1.98140E-002	  1.94864E-002	 -1.63887E-002	 -2.48789E-004
  3.60448E+001	  1.59344E-002	 -4.63076E-003	 -1.15126E-002	 -1.42026E-004
  3.93216E+001	 -4.80060E-003	 -1.39972E-004	 -7.86511E-003	 -1.33134E-002
  4.25984E+001	 -2.20579E-002	  2.27942E-003	  2.23868E-003	 -1.44539E-002
  4.58752E+001	 -2.03801E-002	 -2.11442E-002	 -9.13372E-004	  3.37712E-003
  4.91520E+001	 -5.91320E-003	  1.05347E-002	  2.45600E-003	  1.65401E-002
  5.24288E+001	 -9.35234E-003	  8.44420E-003	  1.45409E-002	  1.32521E-002
  5.89824E+001	 -1.44412E-002	 -7.97190E-003	  1.45080E-002	 -3.68957E-003
  6.55360E+001	  7.46233E-003	  8.98687E-003	 -2.58569E-003	 -1.84446E-002
  7.20896E+001	 -2.31008E-003	  4.72922E-003	  1.29057E-003	 -1.53903E-002
  7.86432E+001	 -3.64662E-003	  7.71615E-003	  4.92324E-003	  4.19716E-003
  8.51968E+001	  4.62241E-004	 -2.70236E-003	  3.93739E-003	 -6.08392E-003
  9.17504E+001	 -8.05287E-003	 -7.24976E-003	 -1.10703E-002	 -9.02517E-003
  9.83040E+001	 -1.62177E-003	 -1.19082E-002	  2.00981E-003	 -1.38550E-002
  1.04858E+002	 -1.07487E-002	  7.99596E-003	 -2.34524E-003	 -1.24244E-003
  1.17965E+002	 -1.08709E-003	 -1.12133E-002	 -5.18598E-003	  2.17864E-002
  1.31072E+002	  5.83050E-003	 -7.67719E-003	 -3.29976E-003	  1.99118E-002
  1.44179E+002	  8.07186E-003	  3.07199E-003	 -1.06472E-002	  1.07874E-002
  1.57286E+002	  6.23989E-003	  5.10219E-003	  4.36159E-003	  3.32354E-003
  1.70394E+002	  5.88252E-003	 -2.31837E-003	  4.15022E-003	 -5.75814E-003
  1.83501E+002	 -1.25982E-002	  7.08782E-003	  9.57529E-004	  2.40927E-003
  1.96608E+002	  8.74359E-003	 -9.58653E-005	 -1.04101E-002	  6.11750E-003
  2.09715E+002	 -7.37820E-003	  2.67406E-004	 -7.13564E-003	 -9.98525E-003
  2.35930E+002	 -8.01272E-003	  7.15268E-003	 -9.76639E-004	 -4.65976E-003
  2.62144E+002	  1.63845E-003	 -9.23312E-004	  7.21613E-003	  5.33987E-003
  2.88358E+002	  4.83091E-003	 -8.28897E-003	 -9.36621E-003	  2.86402E-003
  3.14573E+002	  4.15594E-003	 -4.39128E-003	  1.15119E-002	 -3.48539E-003
  3.40787E+002	  5.67721E-003	 -2.54818E-003	 -1.72144E-003	 -1.92930E-003
  3.67002E+002	 -9.32711E-003	 -7.28549E-003	 -2.23759E-003	 -2.02906E-002
  3.93216E+002	 -5.59792E-003	  3.79822E-003	  6.24755E-003	 -1.03778E-003

"Count Rate"
       0.01311	      68.20679	      70.19043	      42.64832	      52.94800
       0.02621	      44.55566	      68.43567	      55.84717	      46.76819
       0.03932	      69.65637	      40.66467	      52.10876	      40.35950
       0.05243	      49.36218	      59.12781	      50.73547	      56.83899
       0.06554	      53.86353	      65.15503	      76.37024	      60.19592
       0.07864	      45.47119	      49.89624	      36.39221	      42.49573
       0.09175	      50.43030	      48.82813	      38.07068	      68.74084
       0.10486	      49.13330	      85.06775	      49.59106	      83.92334
       0.11796	      78.43018	      50.65918	      90.78979	      52.79541
       0.13107	      59.12781	      41.96167	      51.04065	      43.64014
       0.14418	      57.06787	      45.92896	      57.67822	      50.35400
       0.15729	      61.95068	      52.49023	      54.47388	      77.97241
       0.17039	      51.80359	      47.60742	      58.67004	      74.31030
       0.18350	      78.12500	      48.29407	      57.06787	      49.66736
       0.19661	      51.72729	      73.39478	      60.88257	      46.61560
       0.20972	      41.04614	      52.87170	      44.09790	      58.59375
       0.22282	      37.99438	      49.36218	      51.26953	      57.75452
       0.23593	      41.88538	      43.02979	      61.18774	      31.35681
       0.24904	      27.38953	      51.34583	      48.44666	      75.22583
       0.26214	      64.39209	      65.53650	      33.18787	      40.74097
       0.27525	      52.71912	      39.82544	      51.80359	      68.51196
       0.28836	      56.38123	      41.12244	      47.14966	      99.33472
       0.30147	      41.80908	      56.07605	      46.46301	     103.68347
       0.31457	      82.16858	      47.30225	      40.05432	      42.34314
       0.32768	      54.01611	      70.87708	      62.86621	      86.97510
       0.34079	      56.30493	      47.76001	      53.40576	      48.82813
       0.35389	      51.72729	      49.59106	      48.44666	      48.59924
       0.36700	      25.71106	      51.57471	      40.81726	      55.69458
       0.38011	      59.96704	      45.31860	      63.32397	      40.66467
       0.39322	      64.16321	      52.33765	      63.85803	      25.40588
       0.40632	      62.40845	      62.63733	      29.67834	      59.81445
       0.41943	      50.73547	      52.79541	      50.43030	      73.24219
       0.43254	      58.59375	      40.28320	      70.57190	      78.12500
       0.44564	      59.12781	      62.40845	      59.12781	      71.48743
       0.45875	      56.53381	      42.19055	      65.84167	      40.20691
       0.47186	      65.46021	      30.21240	      50.65918	      49.05701
       0.48497	      70.87708	      56.30493	      52.49023	      48.21777
       0.49807	      45.85266	      52.71912	      42.72461	      43.64014
       0.51118	      56.83899	      35.62927	      60.19592	      39.36768
       0.52429	      35.01892	      46.31042	      58.36487	      53.86353
       0.53740	      57.22046	      36.46851	      44.02161	      81.71082
       0.55050	      41.58020	      50.73547	      72.47925	      54.16870
       0.56361	      48.37036	      78.27759	      54.16870	      38.22327
       0.57672	      61.64551	      47.07336	      40.20691	      45.85266
       0.58982	      60.04333	      84.07593	      52.49023	      56.53381
       0.60293	      63.85803	      40.74097	      53.78723	      50.81177
       0.61604	      47.68372	      52.18506	      61.87439	      42.11426
       0.62915	      58.36487	      56.30493	      51.19324	      48.06519
       0.64225	      56.15234	      57.29675	      66.45203	      38.22327
       0.65536	      55.16052	      55.46570	      38.45215	      49.36218
       0.66847	      50.27771	      63.40027	      32.65381	      53.17688
       0.68157	      49.74365	      29.90723	      39.36768	      47.68372
       0.69468	      30.89905	      55.84717	      58.59375	      52.03247
       0.70779	      48.14148	      50.04883	      65.91797	      43.56384
       0.72090	      62.94250	      44.93713	      57.90710	      67.74902
       0.73400	      68.58826	      45.16602	      36.46851	      59.35669
       0.74711	      60.72998	      66.98608	      42.41943	      67.59644
