ALV-7004/USB-FAST
Date :	"11/11/2025"
Time :	"3:58:38 PM"
Samplename : 	""
SampMemo(0) : 	""
SampMemo(1) : 	""
SampMemo(2) : 	""
SampMemo(3) : 	""
SampMemo(4) : 	""
SampMemo(5) : 	""
SampMemo(6) : 	""
SampMemo(7) : 	""
SampMemo(8) : 	""
SampMemo(9) : 	""
Temperature [K] :	     298.16000
Viscosity [cp]  :	       0.89000
Refractive Index:	       1.33200
Wavelength [nm] :	       0.00000
Angle [°]       :	       0.00000
Duration [s]    :	         1
FloatDur [ms]   :	          944
Stop TP [ms]   :	     68116
Runs            :	         1
Mode            :	"A-CH0+1  A-CH2+3 "
MeanCR0 [kHz]   :	      56.77541
MeanCR1 [kHz]   :	      57.89015
MeanCR2 [kHz]   :	      58.21122
MeanCR3 [kHz]   :	      56.28904

"Correlation"
  3.12500E-006	 -1.00000E+000	 -1.00000E+000	 -1.00000E+000	 -1.00000E+000
  6.25000E-006	 -1.00000E+000	 -1.00000E+000	 -1.00000E+000	 -1.00000E+000
  9.37500E-006	 -1.00000E+000	 -1.00000E+000	 -1.00000E+000	 -1.00000E+000
  1.25000E-005	 -1.00000E+000	 -1.00000E+000	 -1.00000E+000	 -1.00000E+000
  1.56250E-005	 -1.00000E+000	 -1.00000E+000	 -1.00000E+000	 -1.00000E+000
  1.87500E-005	 -1.00000E+000	 -1.00000E+000	 -1.00000E+000	 -1.00000E+000
  2.18750E-005	 -8.94807E-001	  1.18082E-002	  6.77466E-004	 -6.78944E-001
  2.50000E-005	  1.13076E+001	  1.20523E+001	  9.80732E+000	  2.31862E+001
  2.81250E-005	  3.62849E+000	  2.54133E+000	  1.30156E+000	  8.84573E+000
  3.12500E-005	  1.10386E+000	  1.22598E+000	  2.40230E+000	  4.45796E+000
  3.43750E-005	  9.98668E-001	  1.52952E+000	  8.01219E-001	  4.02988E+000
  3.75000E-005	  1.41944E+000	  1.73188E+000	  1.10142E+000	  4.13690E+000
  4.06250E-005	  5.77895E-001	  5.17712E-001	  9.01287E-001	  2.95969E+000
  4.37500E-005	  8.93475E-001	  5.17712E-001	  1.00745E-001	  2.21056E+000
  4.68750E-005	  9.98668E-001	  7.20074E-001	  7.01152E-001	  3.92286E+000
  5.00000E-005	  1.10386E+000	  1.22598E+000	  1.10142E+000	  2.79917E+000
  5.62500E-005	  9.46071E-001	  1.22598E+000	  9.51321E-001	  1.83600E+000
  6.25000E-005	  6.83088E-001	  5.17712E-001	  9.51321E-001	  1.24739E+000
  6.87500E-005	  7.88281E-001	  6.18893E-001	  7.51185E-001	  1.62196E+000
  7.50000E-005	  4.20106E-001	  9.22435E-001	  1.05139E+000	  1.24739E+000
  8.12500E-005	  4.20106E-001	  6.18893E-001	  9.51321E-001	  1.51494E+000
  8.75000E-005	  8.93474E-001	  5.68303E-001	  8.51253E-001	  6.58791E-001
  9.37500E-005	  6.30492E-001	  9.22435E-001	  3.50915E-001	  1.03336E+000
  1.00000E-004	  7.09386E-001	  5.93598E-001	  5.01016E-001	  7.65809E-001
  1.12500E-004	  8.67176E-001	  7.70664E-001	  7.76202E-001	  1.00660E+000
  1.25000E-004	  1.57123E-001	  6.44188E-001	  4.50982E-001	  6.85545E-001
  1.37500E-004	  3.14913E-001	  4.16531E-001	  3.00880E-001	  9.53092E-001
  1.50000E-004	  5.25299E-001	  4.67122E-001	  1.00135E+000	  7.65809E-001
  1.62500E-004	  8.14579E-001	  4.16531E-001	  5.01016E-001	  4.71508E-001
  1.75000E-004	  4.99000E-001	  4.16531E-001	  7.01151E-001	  4.44753E-001
  1.87500E-004	  6.04193E-001	  5.93598E-001	  9.01287E-001	  4.17998E-001
  2.00000E-004	  4.59553E-001	  4.54474E-001	  7.26168E-001	  5.51771E-001
  2.25000E-004	  4.33254E-001	  4.79769E-001	  6.38609E-001	  4.31375E-001
  2.50000E-004	  8.40877E-001	  6.44188E-001	  8.26236E-001	  3.77866E-001
  2.75000E-004	  3.80658E-001	  3.27998E-001	  3.38406E-001	  2.44093E-001
  3.00000E-004	  3.01763E-001	  5.17712E-001	  4.00948E-001	  5.38394E-001
  3.25000E-004	  4.85851E-001	  5.43007E-001	  4.88507E-001	  3.77866E-001
  3.50000E-004	  4.72702E-001	  5.05064E-001	  4.25965E-001	  6.85545E-001
  3.75000E-004	  3.93807E-001	  3.65941E-001	  2.13321E-001	  4.98262E-001
  4.00000E-004	  3.34635E-001	  4.54473E-001	  4.00947E-001	  4.31375E-001
  4.50000E-004	  5.58170E-001	  4.67121E-001	  4.88507E-001	  5.31705E-001
  5.00000E-004	  3.74083E-001	  6.06244E-001	  4.19710E-001	  6.78855E-001
  5.50000E-004	  4.98999E-001	  4.41825E-001	  4.13456E-001	  5.18327E-001
  6.00000E-004	  4.52978E-001	  3.91235E-001	  4.07202E-001	  7.59119E-001
  6.50000E-004	  4.72701E-001	  4.92416E-001	  3.25897E-001	  6.25346E-001
  7.00000E-004	  3.54359E-001	  4.54473E-001	  4.13456E-001	  3.57799E-001
  7.50000E-004	  4.46403E-001	  5.36682E-001	  4.69744E-001	  2.77535E-001
  8.00000E-004	  4.06954E-001	  6.12567E-001	  4.04073E-001	  5.55114E-001
  9.00000E-004	  4.59551E-001	  4.98738E-001	  4.29090E-001	  4.14652E-001
  1.00000E-003	  4.66125E-001	  5.01900E-001	  4.16582E-001	  2.54124E-001
  1.10000E-003	  3.97093E-001	  5.14548E-001	  5.44793E-001	  6.22000E-001
  1.20000E-003	  3.90518E-001	  5.99919E-001	  4.54107E-001	  5.25015E-001
  1.30000E-003	  4.66125E-001	  4.16529E-001	  3.88438E-001	  3.44421E-001
  1.40000E-003	  3.90518E-001	  4.63958E-001	  3.35277E-001	  6.22000E-001
  1.50000E-003	  3.54358E-001	  4.73443E-001	  5.76064E-001	  4.94916E-001
  1.60000E-003	  4.23388E-001	  5.43002E-001	  3.75927E-001	  4.68159E-001
  1.80000E-003	  4.74341E-001	  4.29174E-001	  5.41664E-001	  4.41404E-001
  2.00000E-003	  4.41468E-001	  4.71860E-001	  4.77558E-001	  4.36388E-001
  2.20000E-003	  4.05308E-001	  4.40241E-001	  4.86939E-001	  4.09633E-001
  2.40000E-003	  3.54356E-001	  4.35498E-001	  4.72867E-001	  4.79864E-001
  2.60000E-003	  4.75985E-001	  3.45384E-001	  5.15083E-001	  4.76519E-001
  2.80000E-003	  3.79010E-001	  3.80165E-001	  3.96253E-001	  5.09963E-001
  3.00000E-003	  5.10501E-001	  4.14946E-001	  4.13452E-001	  4.02944E-001
  3.20000E-003	  4.82554E-001	  4.15731E-001	  4.22047E-001	  4.12999E-001
  3.60000E-003	  4.51325E-001	  4.67902E-001	  4.83025E-001	  4.56476E-001
  4.00000E-003	  4.16809E-001	  4.57626E-001	  4.54100E-001	  4.66509E-001
  4.40000E-003	  4.13522E-001	  4.08617E-001	  4.86152E-001	  4.28885E-001
  4.80000E-003	  4.36533E-001	  4.12570E-001	  4.49409E-001	  4.10491E-001
  5.20000E-003	  4.38203E-001	  4.26008E-001	  3.68105E-001	  3.77883E-001
  5.60000E-003	  4.05330E-001	  4.33122E-001	  3.60287E-001	  4.37246E-001
  6.00000E-003	  3.91359E-001	  4.10989E-001	  4.00157E-001	  4.42262E-001
  6.40000E-003	  3.49847E-001	  3.90478E-001	  3.81385E-001	  4.08836E-001
  7.20000E-003	  3.82309E-001	  4.25260E-001	  3.78649E-001	  4.00866E-001
  8.00000E-003	  3.89706E-001	  4.14588E-001	  4.21646E-001	  4.18842E-001
  8.80000E-003	  3.66284E-001	  4.16564E-001	  3.48551E-001	  4.04211E-001
  9.60000E-003	  3.42451E-001	  4.53322E-001	  4.15001E-001	  4.07973E-001
  1.04000E-002	  4.27099E-001	  3.69925E-001	  3.92330E-001	  4.15498E-001
  1.12000E-002	  3.85186E-001	  3.91664E-001	  3.55587E-001	  3.63242E-001
  1.20000E-002	  4.08608E-001	  3.90478E-001	  3.72395E-001	  3.95850E-001
  1.28000E-002	  3.54760E-001	  3.58321E-001	  3.79021E-001	  3.84439E-001
  1.44000E-002	  3.50445E-001	  3.62274E-001	  3.54005E-001	  3.49321E-001
  1.60000E-002	  3.54760E-001	  3.77862E-001	  3.81171E-001	  3.72315E-001
  1.76000E-002	  3.45925E-001	  3.77836E-001	  3.60259E-001	  3.65417E-001
  1.92000E-002	  3.04424E-001	  3.70920E-001	  3.49339E-001	  3.45140E-001
  2.08000E-002	  3.21682E-001	  3.31000E-001	  3.28818E-001	  3.41980E-001
  2.24000E-002	  3.45103E-001	  3.66374E-001	  3.25104E-001	  3.25884E-001
  2.40000E-002	  3.29900E-001	  2.92660E-001	  3.35658E-001	  3.16687E-001
  2.56000E-002	  3.22776E-001	  3.07590E-001	  3.34253E-001	  3.10817E-001
  2.88000E-002	  2.89904E-001	  3.15200E-001	  3.20181E-001	  2.92421E-001
  3.20000E-002	  2.85076E-001	  3.06381E-001	  3.00733E-001	  2.95766E-001
  3.52000E-002	  2.71414E-001	  2.94226E-001	  2.86172E-001	  2.90491E-001
  3.84000E-002	  2.42343E-001	  2.49856E-001	  2.69265E-001	  2.61829E-001
  4.16000E-002	  2.41213E-001	  2.81949E-001	  2.70047E-001	  2.83046E-001
  4.48000E-002	  2.49968E-001	  2.69376E-001	  2.20793E-001	  2.17955E-001
  4.80000E-002	  2.25006E-001	  2.44870E-001	  2.40632E-001	  2.32042E-001
  5.12000E-002	  2.04520E-001	  2.40138E-001	  2.31385E-001	  2.25285E-001
  5.76000E-002	  1.89442E-001	  2.24479E-001	  2.14867E-001	  2.11203E-001
  6.40000E-002	  1.75061E-001	  1.99998E-001	  2.07102E-001	  1.91575E-001
  7.04000E-002	  1.83638E-001	  1.94239E-001	  1.69377E-001	  1.90111E-001
  7.68000E-002	  1.60269E-001	  1.82676E-001	  1.63911E-001	  1.64397E-001
  8.32000E-002	  1.34331E-001	  1.58542E-001	  1.30438E-001	  1.59162E-001
  8.96000E-002	  1.27778E-001	  1.42039E-001	  1.17245E-001	  1.40073E-001
  9.60000E-002	  1.25847E-001	  1.33498E-001	  1.26822E-001	  1.26066E-001
  1.02400E-001	  1.15619E-001	  1.39197E-001	  1.20256E-001	  1.25372E-001
  1.15200E-001	  9.69222E-002	  1.02059E-001	  9.74506E-002	  1.08730E-001
  1.28000E-001	  8.63611E-002	  1.04065E-001	  8.90377E-002	  1.00513E-001
  1.40800E-001	  6.25209E-002	  9.13454E-002	  7.90209E-002	  8.34159E-002
  1.53600E-001	  6.52492E-002	  7.36843E-002	  6.64868E-002	  6.43498E-002
  1.66400E-001	  5.44048E-002	  6.46076E-002	  6.14375E-002	  4.77810E-002
  1.79200E-001	  3.76012E-002	  4.97346E-002	  5.33771E-002	  4.95581E-002
  1.92000E-001	  3.36394E-002	  4.35334E-002	  4.87334E-002	  4.34296E-002
  2.04800E-001	  2.84372E-002	  3.97184E-002	  3.99751E-002	  4.22959E-002
  2.30400E-001	  1.79333E-002	  3.73528E-002	  2.84332E-002	  2.75193E-002
  2.56000E-001	  1.20304E-002	  2.97039E-002	  2.66029E-002	  2.90351E-002
  2.81600E-001	  1.13048E-002	  2.99315E-002	  1.11029E-002	  2.36359E-002
  3.07200E-001	  3.71660E-003	  2.94933E-002	  1.67613E-002	  2.29232E-002
  3.32800E-001	 -6.94494E-003	  2.03690E-002	  1.65962E-002	  1.41125E-002
  3.58400E-001	 -2.49445E-003	  1.49205E-002	  9.85008E-003	  1.54277E-002
  3.84000E-001	 -2.55293E-003	  7.93449E-003	  8.59103E-003	  1.57998E-002
  4.09600E-001	  7.46676E-003	  9.10483E-003	  8.47260E-003	  1.34580E-002
  4.60800E-001	  1.84639E-003	  6.68110E-003	  5.95343E-003	  1.21371E-002
  5.12000E-001	  1.04759E-003	  2.32856E-003	  7.19157E-004	  1.00684E-002
  5.63200E-001	  8.90422E-004	 -1.75725E-003	  4.79169E-003	  1.29921E-002
  6.14400E-001	 -2.07060E-003	 -5.71246E-003	  2.84127E-003	  6.22304E-003
  6.65600E-001	  1.02043E-002	  8.95515E-004	  3.45928E-003	  4.16305E-003
  7.16800E-001	  1.25944E-002	  8.21118E-004	  2.67747E-003	 -4.94744E-004
  7.68000E-001	  9.63204E-003	  1.88342E-003	  8.32059E-004	  7.00652E-003
  8.19200E-001	  7.49669E-003	  1.57962E-004	  9.39651E-004	  3.89058E-003
  9.21600E-001	  4.04776E-003	 -4.10129E-003	  3.61354E-004	  4.16955E-003
  1.02400E+000	  2.23152E-003	 -5.66268E-003	 -2.61297E-003	 -1.47438E-003
  1.12640E+000	 -2.25670E-003	 -6.08103E-003	 -3.84095E-003	 -1.54806E-003
  1.22880E+000	 -3.29350E-003	  4.49135E-004	 -3.54083E-003	  4.68711E-003
  1.33120E+000	  1.43545E-003	  3.14352E-003	 -1.37765E-002	  3.81507E-003
  1.43360E+000	 -3.96125E-003	  1.50433E-003	 -1.42707E-002	  3.20815E-004
  1.53600E+000	 -6.36634E-003	  1.36784E-005	 -6.70251E-003	 -4.43015E-003
  1.63840E+000	 -1.91104E-004	 -3.72168E-003	 -1.02947E-003	 -4.38427E-003
  1.84320E+000	 -9.17417E-003	 -2.38743E-003	 -6.77145E-003	 -2.93544E-003
  2.04800E+000	 -3.58497E-003	 -2.64009E-003	 -3.43443E-003	  4.87620E-003
  2.25280E+000	 -2.19408E-003	  1.04682E-002	 -1.32440E-003	  7.29564E-003
  2.45760E+000	 -4.38363E-003	  8.29389E-004	 -1.90702E-004	 -8.52031E-003
  2.66240E+000	  2.58359E-003	  1.09325E-002	  5.50690E-003	 -1.15630E-002
  2.86720E+000	  3.25992E-003	  1.29397E-003	 -3.71922E-003	 -6.25530E-003
  3.07200E+000	  2.21663E-003	  3.84337E-003	  9.85338E-004	 -7.87450E-003
  3.27680E+000	  3.58152E-003	  3.55781E-003	  4.35549E-003	 -2.29752E-003
  3.68640E+000	 -1.49106E-003	 -6.53982E-003	 -4.43412E-004	  9.45262E-004
  4.09600E+000	 -2.50364E-004	 -4.56001E-003	 -2.19941E-003	 -6.46204E-004
  4.50560E+000	 -4.54755E-003	 -5.09050E-003	 -1.04908E-003	  1.54265E-003
  4.91520E+000	  3.50472E-003	 -4.07129E-003	 -1.83094E-003	  5.06317E-004
  5.32480E+000	 -1.99524E-003	  1.08871E-003	 -2.92257E-003	 -1.92643E-003
  5.73440E+000	 -3.81301E-005	 -2.34221E-003	  2.29626E-003	  3.70906E-003
  6.14400E+000	  4.85152E-003	  5.77678E-003	 -2.24059E-003	  1.38088E-003
  6.55360E+000	  4.79331E-003	  1.37703E-003	 -2.11829E-003	  1.66884E-003
  7.37280E+000	  3.39125E-003	  3.57467E-003	  7.84568E-004	  6.09635E-003
  8.19200E+000	  1.44756E-004	  4.45846E-003	 -1.65566E-003	  5.74251E-003
  9.01120E+000	  1.25179E-003	  2.90988E-003	  7.18638E-004	  4.76265E-003
  9.83040E+000	  4.50333E-003	  1.42473E-003	 -2.45857E-003	 -2.08504E-003
  1.06496E+001	  1.73241E-003	  1.26508E-003	 -7.76231E-004	 -5.60530E-003
  1.14688E+001	 -2.47166E-003	 -6.97720E-004	  3.63001E-003	 -4.72318E-003
  1.22880E+001	 -3.08974E-004	  2.16433E-004	 -2.63917E-003	 -3.57048E-004
  1.31072E+001	 -1.72478E-003	  1.11888E-003	 -9.41131E-005	 -1.46449E-003
  1.47456E+001	  2.21949E-003	 -1.38270E-003	 -4.89779E-003	  4.13225E-003
  1.63840E+001	  1.66437E-004	  2.94022E-003	  2.75723E-003	  3.04355E-003
  1.80224E+001	 -2.69865E-003	  2.88151E-003	 -1.52251E-003	  1.01048E-003
  1.96608E+001	 -4.49259E-003	  2.45807E-003	 -6.15145E-004	 -3.19612E-003
  2.12992E+001	  5.96237E-004	 -1.79768E-003	 -3.27342E-003	  1.24929E-003
  2.29376E+001	 -3.20108E-003	  1.06098E-003	  8.92115E-004	  4.07849E-003
  2.45760E+001	  1.44601E-003	 -5.26555E-003	 -2.38078E-003	  2.52937E-003
  2.62144E+001	 -3.87430E-003	 -4.63793E-004	 -1.67183E-003	 -2.97233E-003
  2.94912E+001	  1.89617E-004	 -5.48035E-004	 -4.09886E-004	 -3.90927E-004
  3.27680E+001	  1.05986E-003	  2.50189E-003	 -2.21960E-003	  6.01850E-005
  3.60448E+001	 -5.21382E-004	 -9.98969E-004	 -8.75765E-004	 -9.95453E-004
  3.93216E+001	 -6.61323E-004	 -9.81040E-004	 -2.68221E-005	  7.72611E-005
  4.25984E+001	  1.33013E-003	  1.60239E-003	  1.75054E-004	  3.77382E-004
  4.58752E+001	 -1.61082E-003	 -5.74909E-004	 -6.79892E-004	 -9.83935E-004
  4.91520E+001	  2.79910E-004	 -9.76005E-004	  2.13617E-003	  1.23205E-003
  5.24288E+001	 -4.46676E-005	  6.13601E-004	  1.82841E-003	 -1.37210E-003
  5.89824E+001	 -1.79136E-003	  1.34833E-003	  7.81349E-004	 -1.38494E-003
  6.55360E+001	 -7.43470E-004	  7.01034E-005	  3.36373E-004	  1.11464E-003
  7.20896E+001	  2.04612E-004	  6.22275E-004	  1.99043E-003	  1.65717E-003
  7.86432E+001	 -8.00329E-004	  1.16293E-003	 -5.74148E-004	 -2.97924E-004
  8.51968E+001	 -1.52711E-003	 -6.60714E-004	 -1.22288E-003	 -5.97568E-004
  9.17504E+001	 -3.91156E-004	 -5.26374E-004	 -1.49863E-003	  5.60924E-004
  9.83040E+001	 -1.18828E-003	  1.14972E-004	  7.97328E-004	 -7.25028E-004
  1.04858E+002	 -1.88006E-004	  1.25074E-003	  3.97003E-004	  1.44272E-003
  1.17965E+002	  1.55462E-004	  8.37486E-004	  1.99952E-004	  9.21624E-004
  1.31072E+002	  9.07296E-004	  8.43088E-005	  3.81559E-004	 -5.24606E-004
  1.44179E+002	  1.42778E-003	  7.86771E-004	  1.00387E-004	 -7.13689E-004
  1.57286E+002	 -6.14255E-004	  1.32035E-003	 -2.72593E-004	 -1.00083E-003
  1.70394E+002	  9.39266E-004	 -1.56538E-003	  4.69953E-004	  1.90962E-004
  1.83501E+002	  4.05830E-004	 -9.80726E-004	 -1.82356E-004	  1.02353E-003
  1.96608E+002	  4.77190E-004	  2.74842E-004	 -7.50070E-004	 -2.22592E-004
  2.09715E+002	 -1.51970E-004	 -7.63139E-004	 -1.28658E-003	 -1.37426E-003
  2.35930E+002	 -2.94639E-004	 -2.36379E-004	  3.42198E-004	 -6.98531E-004
  2.62144E+002	 -1.30027E-003	 -9.95535E-004	  1.79847E-005	  6.57370E-004
  2.88358E+002	  1.48632E-003	 -1.04940E-003	  4.82013E-004	  6.30523E-004
  3.14573E+002	 -1.73587E-004	 -1.80820E-003	  4.11530E-004	 -1.00432E-004
  3.40787E+002	  3.26594E-004	 -4.69315E-004	 -7.85351E-004	  6.77519E-004
  3.67002E+002	 -2.60977E-003	  5.77977E-005	  4.13608E-004	 -8.46564E-004
  3.93216E+002	 -9.53046E-004	  8.23066E-004	 -1.11789E-003	  8.71002E-004

"Count Rate"
       0.01311	      58.13599	      67.44385	      53.55835	      60.04333
       0.02621	      54.70276	      57.83081	      53.02429	      64.23950
       0.03932	      60.88257	      56.68640	      61.26404	      65.76538
       0.05243	      53.48206	      55.31311	      53.78723	      54.62646
       0.06554	      54.85535	      50.58289	      56.91528	      55.61829
       0.07864	      69.50378	      56.45752	      57.67822	      55.54199
       0.09175	      59.89075	      50.58289	      51.19324	      61.11145
       0.10486	      54.39758	      53.17688	      50.12512	      71.79260
       0.11796	      52.94800	      58.74634	      59.43298	      59.12781
       0.13107	      52.64282	      59.43298	      59.12781	      50.58289
       0.14418	      56.15234	      56.99158	      59.73816	      55.77087
       0.15729	      51.87988	      62.48474	      56.83899	      57.29675
       0.17039	      55.92346	      59.35669	      52.71912	      57.52563
       0.18350	      55.99976	      69.80896	      62.94250	      48.29407
       0.19661	      51.72729	      64.39209	      53.02429	      59.43298
       0.20972	      64.92615	      58.97522	      62.25586	      55.54199
       0.22282	      59.58557	      50.73547	      61.41663	      64.92615
       0.23593	      50.73547	      67.44385	      60.72998	      49.66736
       0.24904	      58.74634	      53.40576	      59.20410	      44.09790
       0.26214	      56.99158	      58.97522	      56.15234	      56.83899
       0.27525	      55.92346	      59.73816	      64.84985	      57.44934
       0.28836	      60.11963	      61.41663	      64.62097	      54.32129
       0.30147	      54.70276	      65.15503	      53.55835	      63.85803
       0.31457	      46.31042	      61.34033	      59.66187	      59.66187
       0.32768	      46.69189	      55.54199	      56.30493	      55.08423
       0.34079	      52.41394	      60.04333	      52.64282	      53.02429
       0.35389	      63.70544	      62.56104	      59.05151	      53.17688
       0.36700	      60.42480	      47.14966	      57.44934	      55.23682
       0.38011	      50.43030	      52.87170	      55.08423	      54.24500
       0.39322	      57.60193	      63.47656	      53.93982	      47.83630
       0.40632	      53.40576	      60.50110	      62.10327	      59.28040
       0.41943	      64.84985	      55.92346	      57.52563	      47.83630
       0.43254	      49.36218	      56.99158	      62.33215	      60.34851
       0.44564	      46.69189	      51.72729	      51.34583	      52.26135
       0.45875	      63.32397	      49.51477	      55.69458	      44.63196
       0.47186	      51.26953	      48.82813	      58.21228	      55.84717
       0.48497	      54.62646	      56.22864	      56.30493	      55.00793
       0.49807	      57.06787	      51.65100	      57.14417	      56.68640
       0.51118	      49.51477	      53.40576	      55.46570	      49.20959
       0.52429	      55.92346	      50.65918	      52.94800	      55.23682
       0.53740	      56.68640	      60.88257	      58.97522	      55.99976
       0.55050	      54.70276	      54.16870	      63.32397	      50.35400
       0.56361	      53.71094	      56.99158	      58.51746	      56.15234
       0.57672	      53.71094	      61.41663	      53.63464	      57.14417
       0.58982	      55.00793	      57.98340	      56.30493	      51.65100
       0.60293	      54.32129	      55.00793	      57.83081	      64.39209
       0.61604	      56.07605	      49.74365	      52.56653	      60.04333
       0.62915	      49.74365	      57.37305	      53.63464	      50.96436
       0.64225	      58.74634	      57.22046	      54.93164	      54.85535
       0.65536	      57.44934	      57.14417	      59.35669	      52.18506
       0.66847	      57.06787	      51.87988	      53.63464	      56.22864
       0.68157	      56.22864	      53.17688	      55.08423	      57.98340
       0.69468	      62.25586	      55.31311	      54.09241	      50.88806
       0.70779	      63.17139	      54.16870	      57.90710	      53.32947
       0.72090	      52.87170	      58.21228	      63.70544	      57.83081
       0.73400	      50.50659	      65.38391	      55.77087	      51.42212
       0.74711	      49.89624	      51.04065	      47.60742	      59.81445
