ALV-7004/USB-FAST
Date :	"11/11/2025"
Time :	"3:58:56 PM"
Samplename : 	""
SampMemo(0) : 	""
SampMemo(1) : 	""
SampMemo(2) : 	""
SampMemo(3) : 	""
SampMemo(4) : 	""
SampMemo(5) : 	""
SampMemo(6) : 	""
SampMemo(7) : 	""
SampMemo(8) : 	""
SampMemo(9) : 	""
Temperature [K] :	     298.16000
Viscosity [cp]  :	       0.89000
Refractive Index:	       1.33200
Wavelength [nm] :	       0.00000
Angle [°]       :	       0.00000
Duration [s]    :	         1
FloatDur [ms]   :	          944
Stop TP [ms]   :	     68188
Runs            :	         1
Mode            :	"A-CH0+1  A-CH2+3 "
MeanCR0 [kHz]   :	      55.04926
MeanCR1 [kHz]   :	      57.36245
MeanCR2 [kHz]   :	      57.83823
MeanCR3 [kHz]   :	      55.95419

"Correlation"
  3.12500E-006	 -1.00000E+000	 -1.00000E+000	 -1.00000E+000	 -1.00000E+000
  6.25000E-006	 -1.00000E+000	 -1.00000E+000	 -1.00000E+000	 -1.00000E+000
  9.37500E-006	 -1.00000E+000	 -1.00000E+000	 -1.00000E+000	 -1.00000E+000
  1.25000E-005	 -1.00000E+000	 -1.00000E+000	 -1.00000E+000	 -1.00000E+000
  1.56250E-005	 -1.00000E+000	 -1.00000E+000	 -1.00000E+000	 -1.00000E+000
  1.87500E-005	 -1.00000E+000	 -1.00000E+000	 -1.00000E+000	 -1.00000E+000
  2.18750E-005	 -8.88107E-001	  5.45765E-001	  5.20438E-001	 -7.83393E-001
  2.50000E-005	  1.28748E+001	  1.36332E+001	  1.28867E+001	  2.66174E+001
  2.81250E-005	  4.14710E+000	  2.19458E+000	  2.24360E+000	  7.98919E+000
  3.12500E-005	  2.02112E+000	  1.16407E+000	  1.22998E+000	  4.63178E+000
  3.43750E-005	  1.57355E+000	  6.48816E-001	  1.63543E+000	  4.63178E+000
  3.75000E-005	  9.02188E-001	  9.57969E-001	  1.02725E+000	  3.65705E+000
  4.06250E-005	  1.01408E+000	  1.57627E+000	  1.02725E+000	  2.57401E+000
  4.37500E-005	  1.23787E+000	  7.51867E-001	  6.21801E-001	  3.00723E+000
  4.68750E-005	  5.66508E-001	  4.42714E-001	  1.02725E+000	  1.38268E+000
  5.00000E-005	  1.34976E+000	  3.91188E-001	  5.71120E-001	  1.49098E+000
  5.62500E-005	  1.34976E+000	  9.06443E-001	  1.07793E+000	  1.27437E+000
  6.25000E-005	  7.34348E-001	  8.03392E-001	  7.73845E-001	  8.95310E-001
  6.87500E-005	  7.34348E-001	  7.00341E-001	  5.20438E-001	  1.22022E+000
  7.50000E-005	  4.54614E-001	  5.45765E-001	  9.76570E-001	  1.54513E+000
  8.12500E-005	  6.22455E-001	  7.51867E-001	  7.23163E-001	  1.16607E+000
  8.75000E-005	  5.66508E-001	  2.88137E-001	  9.25889E-001	  1.65343E+000
  9.37500E-005	  2.30828E-001	  9.06443E-001	  2.16351E-001	  1.05777E+000
  1.00000E-004	  6.78401E-001	  8.29155E-001	  5.20438E-001	  1.03069E+000
  1.12500E-004	  3.14747E-001	  5.45765E-001	  3.93735E-001	  9.49462E-001
  1.25000E-004	  4.82588E-001	  3.39663E-001	  9.00548E-001	  8.41158E-001
  1.37500E-004	  4.26641E-001	  9.06443E-001	  5.20438E-001	  5.16248E-001
  1.50000E-004	  8.46241E-001	  3.91188E-001	  6.21801E-001	  5.16248E-001
  1.62500E-004	  5.66508E-001	  6.23053E-001	  5.96460E-001	  5.16248E-001
  1.75000E-004	  9.30161E-001	  6.48815E-001	  4.44416E-001	  6.51627E-001
  1.87500E-004	  5.38534E-001	  6.74578E-001	  5.96460E-001	  5.16248E-001
  2.00000E-004	  5.66507E-001	  4.04069E-001	  5.96460E-001	  5.56862E-001
  2.25000E-004	  5.94481E-001	  3.78306E-001	  3.17713E-001	  6.24551E-001
  2.50000E-004	  3.42721E-001	  5.97290E-001	  4.06405E-001	  5.56862E-001
  2.75000E-004	  6.08467E-001	  2.88137E-001	  7.99185E-001	  3.67331E-001
  3.00000E-004	  4.40627E-001	  8.16273E-001	  4.19075E-001	  4.62096E-001
  3.25000E-004	  5.24547E-001	  4.55595E-001	  3.43053E-001	  7.32855E-001
  3.50000E-004	  5.66507E-001	  7.00341E-001	  5.45778E-001	  5.43324E-001
  3.75000E-004	  4.82587E-001	  3.26781E-001	  5.83789E-001	  3.94406E-001
  4.00000E-004	  4.54613E-001	  4.29831E-001	  3.30383E-001	  6.31319E-001
  4.50000E-004	  5.24547E-001	  6.61696E-001	  3.17712E-001	  4.07944E-001
  5.00000E-004	  4.96573E-001	  6.81018E-001	  6.97822E-001	  5.97475E-001
  5.50000E-004	  6.50427E-001	  6.35933E-001	  5.26772E-001	  4.55326E-001
  6.00000E-004	  3.84680E-001	  6.03730E-001	  3.74729E-001	  5.97475E-001
  6.50000E-004	  5.03567E-001	  6.16611E-001	  5.07767E-001	  6.04244E-001
  7.00000E-004	  4.19647E-001	  4.42713E-001	  3.93734E-001	  4.55326E-001
  7.50000E-004	  5.80493E-001	  5.97289E-001	  3.68393E-001	  4.95940E-001
  8.00000E-004	  5.24545E-001	  6.71355E-001	  4.00068E-001	  5.06092E-001
  9.00000E-004	  5.97975E-001	  6.74576E-001	  2.63862E-001	  4.31634E-001
  1.00000E-003	  5.17552E-001	  5.58644E-001	  3.55722E-001	  4.38403E-001
  1.10000E-003	  5.24545E-001	  5.81186E-001	  4.38079E-001	  5.19630E-001
  1.20000E-003	  3.88175E-001	  5.87627E-001	  4.88760E-001	  5.29784E-001
  1.30000E-003	  4.65102E-001	  4.97457E-001	  5.36274E-001	  4.55325E-001
  1.40000E-003	  5.31539E-001	  5.10338E-001	  4.06403E-001	  5.63628E-001
  1.50000E-003	  4.37129E-001	  5.16779E-001	  5.29939E-001	  3.97789E-001
  1.60000E-003	  5.00066E-001	  4.23387E-001	  4.66585E-001	  4.50246E-001
  1.80000E-003	  4.07405E-001	  4.94234E-001	  3.84228E-001	  4.50246E-001
  2.00000E-003	  5.59509E-001	  3.70251E-001	  4.53914E-001	  4.35016E-001
  2.20000E-003	  4.33630E-001	  5.58641E-001	  3.36714E-001	  5.04398E-001
  2.40000E-003	  4.58106E-001	  4.50760E-001	  4.90341E-001	  4.41785E-001
  2.60000E-003	  4.37126E-001	  5.11946E-001	  4.65001E-001	  4.57015E-001
  2.80000E-003	  5.14053E-001	  4.44319E-001	  3.49385E-001	  4.95936E-001
  3.00000E-003	  4.24888E-001	  4.28217E-001	  4.60250E-001	  4.26555E-001
  3.20000E-003	  4.12645E-001	  4.08917E-001	  4.12731E-001	  4.87498E-001
  3.60000E-003	  4.66843E-001	  4.27434E-001	  4.64204E-001	  4.45192E-001
  4.00000E-003	  4.16142E-001	  4.17773E-001	  3.66802E-001	  4.22346E-001
  4.40000E-003	  5.12299E-001	  4.50782E-001	  4.07188E-001	  5.04421E-001
  4.80000E-003	  4.49360E-001	  4.27434E-001	  4.15107E-001	  3.98655E-001
  5.20000E-003	  4.01281E-001	  4.76545E-001	  3.67593E-001	  3.90193E-001
  5.60000E-003	  5.37650E-001	  3.12305E-001	  3.90558E-001	  4.13885E-001
  6.00000E-003	  4.08274E-001	  3.98450E-001	  4.17483E-001	  3.71578E-001
  6.40000E-003	  4.16569E-001	  4.43553E-001	  3.81838E-001	  3.88941E-001
  7.20000E-003	  4.14821E-001	  4.25035E-001	  3.70752E-001	  4.21490E-001
  8.00000E-003	  3.82040E-001	  3.58614E-001	  3.96488E-001	  3.88915E-001
  8.80000E-003	  4.29681E-001	  4.18997E-001	  3.75107E-001	  4.18106E-001
  9.60000E-003	  3.85537E-001	  3.67848E-001	  3.61645E-001	  3.95287E-001
  1.04000E-002	  4.06953E-001	  3.72276E-001	  3.83818E-001	  3.93172E-001
  1.12000E-002	  3.87285E-001	  3.83949E-001	  3.59269E-001	  3.38596E-001
  1.20000E-002	  3.54941E-001	  3.70665E-001	  3.31949E-001	  3.91479E-001
  1.28000E-002	  3.75247E-001	  3.49563E-001	  3.40667E-001	  3.93179E-001
  1.44000E-002	  3.23891E-001	  3.53186E-001	  3.45220E-001	  3.71602E-001
  1.60000E-002	  3.53611E-001	  3.36078E-001	  3.08991E-001	  3.69064E-001
  1.76000E-002	  3.46618E-001	  3.49966E-001	  3.18692E-001	  3.31622E-001
  1.92000E-002	  3.35254E-001	  3.47551E-001	  3.23839E-001	  3.28661E-001
  2.08000E-002	  3.03785E-001	  3.23397E-001	  3.16712E-001	  3.01559E-001
  2.24000E-002	  3.01381E-001	  3.25386E-001	  3.26413E-001	  3.41539E-001
  2.40000E-002	  3.43559E-001	  3.09082E-001	  3.16118E-001	  2.99021E-001
  2.56000E-002	  2.99077E-001	  2.99760E-001	  2.70917E-001	  2.59584E-001
  2.88000E-002	  2.65313E-001	  2.76714E-001	  2.59137E-001	  2.63391E-001
  3.20000E-002	  2.69028E-001	  2.63932E-001	  2.68145E-001	  2.67833E-001
  3.52000E-002	  2.58805E-001	  2.60007E-001	  2.47137E-001	  2.51780E-001
  3.84000E-002	  2.44491E-001	  2.38672E-001	  2.35555E-001	  2.19438E-001
  4.16000E-002	  2.44819E-001	  2.23375E-001	  2.28032E-001	  2.26654E-001
  4.48000E-002	  2.10835E-001	  2.06489E-001	  1.90516E-001	  1.98095E-001
  4.80000E-002	  2.01001E-001	  1.96101E-001	  1.91902E-001	  2.29486E-001
  5.12000E-002	  1.87774E-001	  1.81122E-001	  1.90703E-001	  1.98869E-001
  5.76000E-002	  1.74661E-001	  1.68168E-001	  1.70536E-001	  1.63277E-001
  6.40000E-002	  1.52019E-001	  1.53021E-001	  1.60489E-001	  1.67983E-001
  7.04000E-002	  1.48763E-001	  1.35430E-001	  1.29850E-001	  1.35935E-001
  7.68000E-002	  1.34065E-001	  1.27328E-001	  1.20673E-001	  1.20069E-001
  8.32000E-002	  1.24504E-001	  9.25546E-002	  9.76083E-002	  1.14833E-001
  8.96000E-002	  1.16472E-001	  9.27357E-002	  7.93743E-002	  8.33661E-002
  9.60000E-002	  1.04561E-001	  7.85450E-002	  8.43634E-002	  8.69623E-002
  1.02400E-001	  8.62791E-002	  7.93726E-002	  7.20876E-002	  8.33365E-002
  1.15200E-001	  7.05700E-002	  6.15835E-002	  6.54585E-002	  5.71858E-002
  1.28000E-001	  5.09612E-002	  5.58971E-002	  4.14523E-002	  4.97756E-002
  1.40800E-001	  4.84406E-002	  4.47002E-002	  4.23738E-002	  4.45599E-002
  1.53600E-001	  3.15841E-002	  3.64654E-002	  3.43289E-002	  3.67857E-002
  1.66400E-001	  2.65920E-002	  2.89738E-002	  2.91248E-002	  3.65938E-002
  1.79200E-001	  2.74116E-002	  2.08725E-002	  3.05605E-002	  2.76631E-002
  1.92000E-001	  1.14569E-002	  1.85138E-002	  1.72740E-002	  1.01052E-002
  2.04800E-001	  1.65452E-002	  1.66692E-002	  1.29755E-002	  1.59691E-002
  2.30400E-001	  2.38559E-003	  9.19616E-003	  2.22032E-003	  1.59030E-002
  2.56000E-001	  4.89044E-004	  1.32093E-002	 -1.37686E-003	  1.97447E-002
  2.81600E-001	 -5.90717E-003	  1.83988E-002	  1.47219E-003	  1.64583E-002
  3.07200E-001	 -1.18016E-003	  1.28819E-002	 -2.26029E-003	  1.13840E-002
  3.32800E-001	 -8.63955E-003	  2.94297E-003	 -1.00361E-002	  8.72591E-003
  3.58400E-001	  1.84152E-003	 -1.42179E-003	 -7.79497E-003	  1.00483E-002
  3.84000E-001	 -4.28141E-003	 -9.91364E-003	 -4.81161E-003	  8.68624E-003
  4.09600E-001	  1.79000E-003	 -5.54555E-003	 -5.25322E-003	  4.80047E-003
  4.60800E-001	 -2.18504E-003	  2.01904E-003	  4.24716E-005	  2.15614E-003
  5.12000E-001	 -2.26409E-003	  4.39194E-003	 -1.05383E-003	 -3.76750E-004
  5.63200E-001	  3.17161E-003	  5.25412E-003	 -3.72335E-003	 -1.56724E-003
  6.14400E-001	  1.05181E-003	  1.45782E-003	 -5.12867E-003	 -3.13568E-003
  6.65600E-001	  4.43864E-003	 -2.51528E-003	 -1.00410E-002	 -7.33514E-003
  7.16800E-001	 -4.91937E-003	 -4.61317E-003	 -1.32822E-002	 -1.01475E-002
  7.68000E-001	  5.25881E-003	 -3.18837E-005	  5.96449E-004	 -1.06965E-002
  8.19200E-001	  2.45796E-004	  2.58035E-003	 -1.80425E-003	  1.10884E-004
  9.21600E-001	 -4.46665E-003	 -3.43278E-003	  1.42278E-003	  1.89637E-003
  1.02400E+000	 -6.61081E-003	  1.63860E-003	 -6.53433E-004	  1.53166E-003
  1.12640E+000	 -2.57897E-003	  7.94592E-003	 -2.96900E-003	  1.21033E-003
  1.22880E+000	 -8.95495E-003	  3.81738E-003	 -5.94737E-003	  6.14415E-003
  1.33120E+000	 -3.24033E-003	 -4.12666E-003	 -8.05267E-003	 -5.75781E-003
  1.43360E+000	 -2.25865E-003	  2.45926E-003	 -5.79652E-003	  1.02250E-003
  1.53600E+000	 -6.64701E-003	  1.77371E-005	 -2.69242E-003	  2.31269E-003
  1.63840E+000	 -2.33092E-003	  3.61722E-003	  2.91071E-003	  2.31881E-003
  1.84320E+000	  1.72952E-004	 -2.54314E-003	  3.26566E-003	 -7.14488E-003
  2.04800E+000	 -1.27714E-003	  4.64007E-003	  2.49137E-003	 -1.12802E-002
  2.25280E+000	 -1.21172E-003	  6.48110E-003	  5.20482E-004	 -7.08707E-003
  2.45760E+000	 -2.14245E-004	  6.67803E-003	 -1.13665E-002	 -5.38604E-003
  2.66240E+000	 -4.88259E-003	  4.18529E-003	 -6.28931E-003	 -9.36688E-003
  2.86720E+000	 -1.37693E-003	  4.53259E-003	  9.16973E-004	  4.35389E-003
  3.07200E+000	 -6.12273E-003	 -1.20032E-003	  5.37566E-003	 -1.83434E-003
  3.27680E+000	  4.84774E-004	 -2.49993E-003	 -2.26494E-003	 -4.71780E-003
  3.68640E+000	 -1.61520E-003	 -1.34603E-003	 -1.16830E-003	 -6.64573E-003
  4.09600E+000	 -1.30763E-004	 -2.65380E-003	  1.66503E-003	  1.77488E-003
  4.50560E+000	 -1.38717E-003	  9.31437E-004	  2.99559E-003	  2.99532E-003
  4.91520E+000	  2.89197E-003	 -2.02462E-003	 -2.35220E-004	  3.85331E-004
  5.32480E+000	 -1.38675E-003	 -5.83154E-004	 -4.29736E-004	  2.30175E-003
  5.73440E+000	  5.05765E-004	 -2.35493E-003	  1.38718E-003	  1.85188E-003
  6.14400E+000	  1.13122E-003	  8.70051E-004	  6.45429E-003	 -1.37156E-003
  6.55360E+000	  3.21193E-004	 -4.07358E-003	  1.51472E-003	 -2.88210E-003
  7.37280E+000	 -2.51996E-003	  2.01867E-003	 -2.77461E-004	 -2.00152E-003
  8.19200E+000	 -4.28255E-003	 -1.89012E-003	  3.40191E-004	 -3.43051E-003
  9.01120E+000	  3.28092E-003	  1.61408E-003	 -4.11213E-003	  2.70879E-003
  9.83040E+000	 -1.86325E-005	 -2.54458E-003	  2.16253E-003	  1.75282E-003
  1.06496E+001	  1.41610E-003	 -8.17464E-004	 -1.25538E-003	 -3.56860E-003
  1.14688E+001	  5.08597E-004	  9.03104E-004	 -1.50922E-003	 -1.64043E-003
  1.22880E+001	 -4.46434E-004	 -1.49721E-003	 -3.56253E-004	  3.94075E-003
  1.31072E+001	  2.57605E-004	 -2.44087E-003	 -1.15548E-003	  7.32901E-004
  1.47456E+001	 -2.79216E-003	  2.10895E-003	 -2.39537E-003	 -9.82200E-004
  1.63840E+001	  1.88740E-003	 -4.79528E-004	 -1.78652E-003	  2.67176E-003
  1.80224E+001	 -3.91723E-005	 -1.20527E-003	 -1.40459E-003	 -5.95886E-004
  1.96608E+001	  4.86659E-004	  1.88066E-003	  9.18362E-004	 -1.87769E-003
  2.12992E+001	 -1.06384E-003	  8.24449E-004	  8.61797E-004	  1.32470E-003
  2.29376E+001	 -2.40445E-003	 -3.36941E-003	  1.94579E-003	  4.19175E-003
  2.45760E+001	 -1.58870E-004	 -2.04618E-003	 -7.63196E-004	  1.80190E-003
  2.62144E+001	 -7.04913E-004	 -6.16167E-004	 -5.34160E-004	 -2.08625E-003
  2.94912E+001	  6.91177E-004	  4.19659E-004	 -1.62925E-004	  5.44620E-004
  3.27680E+001	 -6.80452E-004	  2.87896E-003	 -1.95950E-003	 -2.54085E-004
  3.60448E+001	  1.29769E-003	 -1.16579E-004	  1.54114E-003	 -1.21912E-003
  3.93216E+001	  2.21592E-004	 -1.51724E-003	  5.84655E-005	  2.25805E-004
  4.25984E+001	 -1.16858E-003	 -5.83027E-004	  1.39363E-004	 -1.80985E-003
  4.58752E+001	  1.89915E-005	  1.08945E-004	  9.54753E-004	  1.18073E-003
  4.91520E+001	 -3.39896E-004	 -2.05729E-004	 -7.45051E-007	 -1.61284E-003
  5.24288E+001	  4.38893E-004	 -1.87753E-004	 -6.57659E-004	  1.02188E-005
  5.89824E+001	 -4.18475E-005	  7.30746E-004	 -1.99648E-003	  8.01880E-004
  6.55360E+001	 -1.37300E-003	 -1.44525E-003	  6.34617E-004	 -9.35734E-004
  7.20896E+001	  8.60974E-004	 -2.29291E-004	 -3.29943E-004	  1.19255E-004
  7.86432E+001	 -2.06567E-003	  7.77893E-004	 -1.32889E-003	  4.86949E-004
  8.51968E+001	  1.42988E-003	 -6.89045E-005	 -7.88742E-004	 -4.78716E-004
  9.17504E+001	 -6.48069E-004	 -1.78748E-003	  9.57326E-004	 -6.43077E-004
  9.83040E+001	  4.82461E-004	  1.00048E-003	  1.07395E-003	  7.41872E-006
  1.04858E+002	  1.99050E-004	  5.22594E-004	 -1.22610E-004	 -6.30355E-004
  1.17965E+002	 -1.65994E-004	  3.01035E-004	 -1.05147E-003	 -6.33909E-004
  1.31072E+002	  1.18707E-004	  7.36684E-004	  3.35385E-004	  2.57536E-004
  1.44179E+002	  2.51379E-004	 -1.09717E-003	 -3.88933E-004	  6.16641E-004
  1.57286E+002	 -1.11632E-003	  1.35577E-004	 -9.97518E-005	  2.23631E-004
  1.70394E+002	 -4.89617E-004	  2.58389E-004	  8.42076E-004	 -2.17516E-004
  1.83501E+002	  4.94293E-004	 -8.38896E-005	 -1.14160E-003	 -5.92429E-004
  1.96608E+002	  1.89816E-004	 -7.22495E-004	  1.71241E-004	 -1.10899E-005
  2.09715E+002	 -2.23870E-004	 -1.40352E-004	 -1.28111E-004	 -5.80042E-004
  2.35930E+002	  2.76402E-004	 -1.00851E-003	 -3.78269E-004	 -4.02537E-004
  2.62144E+002	  1.10621E-004	  1.52445E-004	  7.63884E-005	 -3.85878E-004
  2.88358E+002	 -2.05331E-005	 -1.65612E-004	  3.99820E-005	 -1.57505E-004
  3.14573E+002	 -1.30736E-003	 -3.14958E-004	 -9.62916E-005	  4.95340E-004
  3.40787E+002	 -2.47715E-004	  8.29901E-005	  1.16446E-004	 -3.28444E-004
  3.67002E+002	  3.32312E-005	  3.59208E-004	 -8.55940E-005	 -3.68632E-004
  3.93216E+002	  2.52132E-004	  4.80058E-004	  2.17070E-004	 -5.40219E-006

"Count Rate"
       0.01311	      52.10876	      50.81177	      59.96704	      54.32129
       0.02621	      60.65369	      62.33215	      55.46570	      60.50110
       0.03932	      55.99976	      54.39758	      60.34851	      57.14417
       0.05243	      49.36218	      53.86353	      55.16052	      51.42212
       0.06554	      54.62646	      61.56921	      60.34851	      51.72729
       0.07864	      58.59375	      57.75452	      56.76270	      51.72729
       0.09175	      53.93982	      59.35669	      55.69458	      55.00793
       0.10486	      49.89624	      54.32129	      55.61829	      55.84717
       0.11796	      61.87439	      61.03516	      49.59106	      56.45752
       0.13107	      57.14417	      59.12781	      58.67004	      53.40576
       0.14418	      59.66187	      54.24500	      59.96704	      57.90710
       0.15729	      54.85535	      62.33215	      55.31311	      53.93982
       0.17039	      58.44116	      58.59375	      55.99976	      55.61829
       0.18350	      49.66736	      57.67822	      57.37305	      51.72729
       0.19661	      50.73547	      53.17688	      55.38940	      58.44116
       0.20972	      53.10059	      52.33765	      59.35669	      50.88806
       0.22282	      55.92346	      56.76270	      61.03516	      58.44116
       0.23593	      49.59106	      49.36218	      65.07874	      54.70276
       0.24904	      56.15234	      66.29944	      55.69458	      53.63464
       0.26214	      55.00793	      53.17688	      59.81445	      53.86353
       0.27525	      55.99976	      60.57739	      57.37305	      56.91528
       0.28836	      50.20142	      57.37305	      55.54199	      59.20410
       0.30147	      50.50659	      54.09241	      62.33215	      61.72180
       0.31457	      49.81995	      55.31311	      50.81177	      58.28857
       0.32768	      54.39758	      56.83899	      60.34851	      55.23682
       0.34079	      59.73816	      50.65918	      54.39758	      52.49023
       0.35389	      56.76270	      65.38391	      56.83899	      51.49841
       0.36700	      55.16052	      54.16870	      59.81445	      52.56653
       0.38011	      54.01611	      53.32947	      48.29407	      54.09241
       0.39322	      59.58557	      57.98340	      68.81714	      58.82263
       0.40632	      54.55017	      62.63733	      50.88806	      54.77905
       0.41943	      49.97253	      61.64551	      53.71094	      56.68640
       0.43254	      51.11694	      60.34851	      57.98340	      54.32129
       0.44564	      54.32129	      59.73816	      52.03247	      59.20410
       0.45875	      45.85266	      61.34033	      52.18506	      57.90710
       0.47186	      52.79541	      53.40576	      60.04333	      55.69458
       0.48497	      48.75183	      52.41394	      59.12781	      55.54199
       0.49807	      53.17688	      51.26953	      55.61829	      51.87988
       0.51118	      53.71094	      52.64282	      59.73816	      49.81995
       0.52429	      53.86353	      55.08423	      55.23682	      50.35400
       0.53740	      50.27771	      63.32397	      57.98340	      55.16052
       0.55050	      54.77905	      54.77905	      51.42212	      55.69458
       0.56361	      49.59106	      61.11145	      57.44934	      47.83630
       0.57672	      53.40576	      54.09241	      53.48206	      51.04065
       0.58982	      56.91528	      51.49841	      53.63464	      55.54199
       0.60293	      52.33765	      51.95618	      58.05969	      51.80359
       0.61604	      59.12781	      56.45752	      51.95618	      62.10327
       0.62915	      56.07605	      60.57739	      61.56921	      49.97253
       0.64225	      49.20959	      48.82813	      62.78992	      52.41394
       0.65536	      52.87170	      54.01611	      57.83081	      49.89624
       0.66847	      60.27222	      51.80359	      59.50928	      57.98340
       0.68157	      47.45483	      57.75452	      57.52563	      57.06787
       0.69468	      48.59924	      55.46570	      62.71362	      60.72998
       0.70779	      54.32129	      55.69458	      53.32947	      52.79541
       0.72090	      57.83081	      44.93713	      50.43030	      57.98340
       0.73400	      56.76270	      56.91528	      63.24768	      58.51746
       0.74711	      52.49023	      61.11145	      57.60193	      59.50928
