ALV-7004/USB-FAST
Date :	"11/11/2025"
Time :	"3:55:36 PM"
Samplename : 	""
SampMemo(0) : 	""
SampMemo(1) : 	""
SampMemo(2) : 	""
SampMemo(3) : 	""
SampMemo(4) : 	""
SampMemo(5) : 	""
SampMemo(6) : 	""
SampMemo(7) : 	""
SampMemo(8) : 	""
SampMemo(9) : 	""
Temperature [K] :	     298.16000
Viscosity [cp]  :	       0.89000
Refractive Index:	       1.33200
Wavelength [nm] :	       0.00000
Angle [°]       :	       0.00000
Duration [s]    :	         1
FloatDur [ms]   :	          944
Stop TP [ms]   :	     64219
Runs            :	         1
Mode            :	"A-CH0+1  A-CH2+3 "
MeanCR0 [kHz]   :	      53.38245
MeanCR1 [kHz]   :	      52.07804
MeanCR2 [kHz]   :	      54.45268
MeanCR3 [kHz]   :	      57.55743

"Correlation"
  3.12500E-006	 -1.00000E+000	 -1.00000E+000	 -1.00000E+000	 -1.00000E+000
  6.25000E-006	 -1.00000E+000	 -1.00000E+000	 -1.00000E+000	 -1.00000E+000
  9.37500E-006	 -1.00000E+000	 -1.00000E+000	 -1.00000E+000	 -1.00000E+000
  1.25000E-005	 -1.00000E+000	 -1.00000E+000	 -1.00000E+000	 -1.00000E+000
  1.56250E-005	 -1.00000E+000	 -1.00000E+000	 -1.00000E+000	 -1.00000E+000
  1.87500E-005	 -1.00000E+000	 -1.00000E+000	 -1.00000E+000	 -1.00000E+000
  2.18750E-005	 -7.62020E-001	  6.25331E-001	  3.72304E-001	 -4.88230E-001
  2.50000E-005	  1.24459E+001	  1.43781E+001	  1.29518E+001	  2.63285E+001
  2.81250E-005	  3.40263E+000	  2.00061E+000	  3.57435E+000	  9.03069E+000
  3.12500E-005	  1.61778E+000	  1.50051E+000	  1.51589E+000	  5.34595E+000
  3.43750E-005	  1.14182E+000	  1.00041E+000	  7.15379E-001	  4.42476E+000
  3.75000E-005	  3.08890E-001	  6.25331E-001	  1.74461E+000	  2.17297E+000
  4.06250E-005	  1.26081E+000	  7.50356E-001	  1.40153E+000	  2.37768E+000
  4.37500E-005	  1.14182E+000	  1.12543E+000	  7.15379E-001	  2.37768E+000
  4.68750E-005	  6.65860E-001	  1.37548E+000	  9.44097E-001	  1.45650E+000
  5.00000E-005	  4.27880E-001	  1.31297E+000	  1.22999E+000	  1.86591E+000
  5.62500E-005	  7.25355E-001	  7.50356E-001	  3.72303E-001	  1.66120E+000
  6.25000E-005	  7.25355E-001	  6.87843E-001	  9.44097E-001	  1.35414E+000
  6.87500E-005	  4.87375E-001	  1.18794E+000	  9.44097E-001	  1.86591E+000
  7.50000E-005	  1.89900E-001	  6.25331E-001	  7.15379E-001	  7.40018E-001
  8.12500E-005	  4.87375E-001	  4.37792E-001	  5.43841E-001	  1.04708E+000
  8.75000E-005	  8.44345E-001	  1.25229E-001	  8.86917E-001	  1.14943E+000
  9.37500E-005	  4.87375E-001	  2.50254E-001	  7.15379E-001	  6.88841E-001
  1.00000E-004	  3.68385E-001	  6.87843E-001	  6.86790E-001	  8.67960E-001
  1.12500E-004	  6.06365E-001	  5.94074E-001	  7.72559E-001	  5.35310E-001
  1.25000E-004	  6.65860E-001	  1.09418E+000	  7.43969E-001	  1.02149E+000
  1.37500E-004	  7.25355E-001	  2.03270E-004	  9.72686E-001	  4.84133E-001
  1.50000E-004	  4.57628E-001	  9.69150E-001	  6.58200E-001	  5.35310E-001
  1.62500E-004	  7.55103E-001	  5.94074E-001	  4.58072E-001	  8.42372E-001
  1.75000E-004	  4.87375E-001	  6.25330E-001	  2.29355E-001	  5.09721E-001
  1.87500E-004	  4.87375E-001	  3.75279E-001	  5.15252E-001	  6.37664E-001
  2.00000E-004	  6.06365E-001	  4.06536E-001	  5.15251E-001	  4.58544E-001
  2.25000E-004	  5.61743E-001	  2.97138E-001	  1.72176E-001	  7.78400E-001
  2.50000E-004	  5.17122E-001	  6.40958E-001	  3.86598E-001	  6.63252E-001
  2.75000E-004	  6.65860E-001	  5.47189E-001	  6.01020E-001	  7.01635E-001
  3.00000E-004	  3.23763E-001	  6.40958E-001	  5.86725E-001	  5.99281E-001
  3.25000E-004	  4.87375E-001	  6.56586E-001	  5.72431E-001	  5.35309E-001
  3.50000E-004	  5.31996E-001	  4.53420E-001	  6.43905E-001	  4.71338E-001
  3.75000E-004	  4.72501E-001	  3.90907E-001	  6.15315E-001	  5.86486E-001
  4.00000E-004	  5.69180E-001	  4.29977E-001	  4.50924E-001	  6.37663E-001
  4.50000E-004	  6.06364E-001	  4.45605E-001	  5.22398E-001	  5.54500E-001
  5.00000E-004	  6.65859E-001	  5.47188E-001	  4.65219E-001	  5.16117E-001
  5.50000E-004	  4.27879E-001	  3.67465E-001	  2.86534E-001	  5.22515E-001
  6.00000E-004	  4.50190E-001	  3.04952E-001	  4.65219E-001	  3.81778E-001
  6.50000E-004	  4.05568E-001	  5.08118E-001	  6.01020E-001	  4.77735E-001
  7.00000E-004	  5.24558E-001	  5.70631E-001	  3.72302E-001	  5.80089E-001
  7.50000E-004	  6.88170E-001	  5.47188E-001	  3.07976E-001	  5.03323E-001
  8.00000E-004	  4.61344E-001	  5.82350E-001	  3.93744E-001	  4.84131E-001
  9.00000E-004	  4.27878E-001	  5.39373E-001	  6.15313E-001	  4.52145E-001
  1.00000E-003	  4.72499E-001	  4.76860E-001	  4.22333E-001	  4.42549E-001
  1.10000E-003	  5.13402E-001	  5.86258E-001	  4.29481E-001	  5.70492E-001
  1.20000E-003	  4.53907E-001	  5.31559E-001	  5.33118E-001	  4.07365E-001
  1.30000E-003	  4.31596E-001	  4.29976E-001	  4.90233E-001	  5.03322E-001
  1.40000E-003	  5.61741E-001	  5.43280E-001	  4.75939E-001	  5.86484E-001
  1.50000E-003	  5.76615E-001	  6.80026E-001	  5.18823E-001	  5.00123E-001
  1.60000E-003	  5.31991E-001	  6.44860E-001	  5.54588E-001	  4.18558E-001
  1.80000E-003	  5.11540E-001	  5.04207E-001	  3.99129E-001	  4.56940E-001
  2.00000E-003	  5.69176E-001	  4.63183E-001	  5.67096E-001	  4.88926E-001
  2.20000E-003	  5.48724E-001	  5.49138E-001	  4.52735E-001	  5.08117E-001
  2.40000E-003	  4.16720E-001	  4.74904E-001	  5.74243E-001	  5.14542E-001
  2.60000E-003	  5.18977E-001	  4.59276E-001	  4.54522E-001	  4.68162E-001
  2.80000E-003	  4.50186E-001	  4.14345E-001	  4.88473E-001	  5.00148E-001
  3.00000E-003	  4.20439E-001	  4.63183E-001	  4.09850E-001	  4.80957E-001
  3.20000E-003	  5.14324E-001	  6.19459E-001	  5.12650E-001	  5.35356E-001
  3.60000E-003	  5.16183E-001	  4.73923E-001	  4.81349E-001	  4.32999E-001
  4.00000E-003	  4.34378E-001	  5.17877E-001	  4.04512E-001	  5.26560E-001
  4.40000E-003	  4.83647E-001	  5.22760E-001	  4.45611E-001	  4.82578E-001
  4.80000E-003	  5.19901E-001	  4.76853E-001	  5.06366E-001	  4.70583E-001
  5.20000E-003	  4.91084E-001	  3.98713E-001	  5.04579E-001	  4.68238E-001
  5.60000E-003	  4.59477E-001	  5.24714E-001	  5.17088E-001	  4.80234E-001
  6.00000E-003	  5.56156E-001	  4.74899E-001	  4.67054E-001	  4.92229E-001
  6.40000E-003	  4.67834E-001	  4.76355E-001	  4.83184E-001	  4.79106E-001
  7.20000E-003	  5.55216E-001	  4.82215E-001	  5.21127E-001	  5.21092E-001
  8.00000E-003	  4.87355E-001	  4.92471E-001	  4.83155E-001	  5.19920E-001
  8.80000E-003	  4.90144E-001	  4.74401E-001	  4.97004E-001	  5.21120E-001
  9.60000E-003	  5.05482E-001	  4.21168E-001	  4.50097E-001	  4.82732E-001
  1.04000E-002	  4.87820E-001	  4.90029E-001	  5.00548E-001	  5.12723E-001
  1.12000E-002	  5.04088E-001	  4.49494E-001	  5.04122E-001	  4.90330E-001
  1.20000E-002	  5.07806E-001	  4.91983E-001	  5.55942E-001	  4.95928E-001
  1.28000E-002	  4.88759E-001	  4.44620E-001	  5.32081E-001	  5.05988E-001
  1.44000E-002	  4.82019E-001	  4.91046E-001	  5.19796E-001	  4.89565E-001
  1.60000E-002	  4.39258E-001	  4.57103E-001	  5.19573E-001	  4.94991E-001
  1.76000E-002	  4.80392E-001	  4.79813E-001	  4.79813E-001	  4.66771E-001
  1.92000E-002	  4.98985E-001	  5.15710E-001	  4.72889E-001	  4.70370E-001
  2.08000E-002	  4.79928E-001	  4.70534E-001	  5.26244E-001	  4.89365E-001
  2.24000E-002	  4.97590E-001	  5.25966E-001	  4.48765E-001	  5.09359E-001
  2.40000E-002	  4.68772E-001	  4.80332E-001	  4.93410E-001	  4.51776E-001
  2.56000E-002	  5.01444E-001	  4.70554E-001	  4.84327E-001	  4.50870E-001
  2.88000E-002	  4.88661E-001	  4.75926E-001	  4.83880E-001	  4.96560E-001
  3.20000E-002	  4.80062E-001	  5.03887E-001	  4.93039E-001	  4.68366E-001
  3.52000E-002	  4.56357E-001	  4.78276E-001	  4.64223E-001	  4.93860E-001
  3.84000E-002	  4.60308E-001	  4.69455E-001	  4.89911E-001	  4.87162E-001
  4.16000E-002	  4.54498E-001	  4.48942E-001	  4.61319E-001	  4.92733E-001
  4.48000E-002	  4.53336E-001	  4.67746E-001	  4.85026E-001	  5.10429E-001
  4.80000E-002	  4.54382E-001	  4.77636E-001	  4.84104E-001	  4.71511E-001
  5.12000E-002	  4.55435E-001	  4.78745E-001	  4.81764E-001	  4.80301E-001
  5.76000E-002	  4.64557E-001	  4.73708E-001	  4.75034E-001	  4.59481E-001
  6.40000E-002	  4.71850E-001	  4.72976E-001	  4.88604E-001	  4.65980E-001
  7.04000E-002	  4.64528E-001	  4.56615E-001	  4.67105E-001	  4.53355E-001
  7.68000E-002	  4.38728E-001	  4.74776E-001	  4.60180E-001	  4.55155E-001
  8.32000E-002	  4.62175E-001	  4.55575E-001	  4.51999E-001	  4.43706E-001
  8.96000E-002	  4.72722E-001	  4.68366E-001	  4.42869E-001	  4.63404E-001
  9.60000E-002	  4.60141E-001	  4.70350E-001	  4.65486E-001	  4.56658E-001
  1.02400E-001	  4.48737E-001	  4.59079E-001	  4.45702E-001	  4.57745E-001
  1.15200E-001	  4.56698E-001	  4.49129E-001	  4.51763E-001	  4.44195E-001
  1.28000E-001	  4.33364E-001	  4.42658E-001	  4.48412E-001	  4.42247E-001
  1.40800E-001	  4.36270E-001	  4.29013E-001	  4.31125E-001	  4.64449E-001
  1.53600E-001	  4.41413E-001	  4.27334E-001	  4.30985E-001	  4.41323E-001
  1.66400E-001	  4.15811E-001	  4.33193E-001	  4.35482E-001	  4.49379E-001
  1.79200E-001	  4.09418E-001	  4.34933E-001	  4.26936E-001	  4.27552E-001
  1.92000E-001	  4.10930E-001	  4.13995E-001	  4.27913E-001	  4.28956E-001
  2.04800E-001	  4.04807E-001	  4.06040E-001	  4.16093E-001	  4.18184E-001
  2.30400E-001	  3.90929E-001	  3.93480E-001	  4.18705E-001	  4.13588E-001
  2.56000E-001	  3.77107E-001	  3.85726E-001	  3.96318E-001	  4.02800E-001
  2.81600E-001	  3.64910E-001	  3.78991E-001	  3.89617E-001	  3.93787E-001
  3.07200E-001	  3.71154E-001	  3.67251E-001	  3.74899E-001	  3.87774E-001
  3.32800E-001	  3.50848E-001	  3.50617E-001	  3.69327E-001	  3.68343E-001
  3.58400E-001	  3.50456E-001	  3.48037E-001	  3.55961E-001	  3.68682E-001
  3.84000E-001	  3.29146E-001	  3.21510E-001	  3.51131E-001	  3.49534E-001
  4.09600E-001	  3.20340E-001	  3.10331E-001	  3.47397E-001	  3.47225E-001
  4.60800E-001	  3.04497E-001	  3.01610E-001	  3.25112E-001	  3.32484E-001
  5.12000E-001	  2.88083E-001	  2.79553E-001	  3.07489E-001	  3.12861E-001
  5.63200E-001	  2.76218E-001	  2.61862E-001	  2.83395E-001	  2.99226E-001
  6.14400E-001	  2.54591E-001	  2.46796E-001	  2.66030E-001	  2.89148E-001
  6.65600E-001	  2.43430E-001	  2.32022E-001	  2.55396E-001	  2.70875E-001
  7.16800E-001	  2.36375E-001	  2.14666E-001	  2.40173E-001	  2.58450E-001
  7.68000E-001	  2.17136E-001	  1.96798E-001	  2.20783E-001	  2.42413E-001
  8.19200E-001	  2.02310E-001	  1.81888E-001	  2.08236E-001	  2.32364E-001
  9.21600E-001	  1.73665E-001	  1.52745E-001	  1.91117E-001	  2.09339E-001
  1.02400E+000	  1.55108E-001	  1.33750E-001	  1.71212E-001	  1.88922E-001
  1.12640E+000	  1.32944E-001	  1.17087E-001	  1.51776E-001	  1.68908E-001
  1.22880E+000	  1.16581E-001	  1.05696E-001	  1.34476E-001	  1.52480E-001
  1.33120E+000	  1.02208E-001	  8.84154E-002	  1.15346E-001	  1.39577E-001
  1.43360E+000	  8.85832E-002	  7.71892E-002	  1.05159E-001	  1.27064E-001
  1.53600E+000	  7.28127E-002	  6.21300E-002	  9.60374E-002	  1.13207E-001
  1.63840E+000	  6.19751E-002	  5.07572E-002	  8.78228E-002	  1.06498E-001
  1.84320E+000	  3.91897E-002	  3.67256E-002	  7.60539E-002	  8.69012E-002
  2.04800E+000	  3.06198E-002	  2.51584E-002	  6.37377E-002	  7.29040E-002
  2.25280E+000	  1.31011E-002	  1.35790E-002	  5.32401E-002	  5.93119E-002
  2.45760E+000	  7.34610E-003	  8.60067E-003	  4.71929E-002	  4.90306E-002
  2.66240E+000	  5.40074E-003	  3.14959E-003	  3.63198E-002	  3.86442E-002
  2.86720E+000	  5.16334E-003	  2.66732E-003	  2.81759E-002	  3.72670E-002
  3.07200E+000	  6.73803E-003	  6.88867E-003	  2.04842E-002	  3.40339E-002
  3.27680E+000	  1.05921E-002	  1.42497E-002	  2.16059E-002	  2.43581E-002
  3.68640E+000	  7.26917E-003	  1.25664E-002	  1.69918E-002	  1.78384E-002
  4.09600E+000	  5.02163E-003	  1.02541E-004	  1.13916E-002	  1.09267E-002
  4.50560E+000	  4.16586E-003	 -7.87537E-004	  1.17780E-002	  2.24345E-003
  4.91520E+000	  8.99889E-004	 -1.80354E-003	  1.63285E-002	 -5.15112E-003
  5.32480E+000	  3.95248E-003	 -4.27747E-003	  1.33741E-002	 -4.47154E-003
  5.73440E+000	  1.55185E-002	  8.88243E-003	  8.26749E-003	  5.05964E-003
  6.14400E+000	  1.99662E-002	  3.20245E-002	  3.23258E-003	  1.39189E-002
  6.55360E+000	  2.26477E-002	  3.52486E-002	  2.03542E-003	  2.55269E-002
  7.37280E+000	  3.16088E-002	  2.69820E-002	  9.83828E-003	  3.46323E-002
  8.19200E+000	  3.23854E-002	  1.50345E-002	  1.88772E-002	  1.87395E-002
  9.01120E+000	  3.68225E-002	 -3.07308E-003	  2.41797E-002	 -4.28575E-004
  9.83040E+000	  3.52215E-002	 -1.31653E-002	  2.90627E-002	 -1.72377E-002
  1.06496E+001	  3.42554E-002	 -1.30310E-002	  2.58162E-002	 -8.09909E-003
  1.14688E+001	  1.32023E-002	 -2.12775E-003	  1.72200E-002	  6.18279E-003
  1.22880E+001	  4.55466E-003	 -6.52272E-003	  1.19376E-002	  1.13680E-002
  1.31072E+001	  9.13646E-003	  8.39372E-004	  2.06418E-002	  1.20261E-002
  1.47456E+001	  2.36219E-002	 -1.07600E-002	 -7.74415E-003	 -8.95286E-003
  1.63840E+001	  6.99257E-003	  1.67464E-002	 -2.34369E-003	  3.50392E-003
  1.80224E+001	  1.32708E-002	 -7.82974E-004	  2.22600E-002	 -7.19651E-003
  1.96608E+001	  2.02259E-002	 -8.71825E-003	  2.31236E-002	 -6.68151E-003
  2.12992E+001	  1.85088E-002	  3.24226E-003	  2.00640E-002	  1.22997E-003
  2.29376E+001	  1.68934E-003	  9.78326E-003	  1.81712E-002	  1.89343E-002
  2.45760E+001	  6.41831E-003	 -1.24566E-002	 -3.40998E-003	  1.62080E-002
  2.62144E+001	  1.75075E-002	 -3.23016E-002	 -1.88457E-002	 -7.63080E-003
  2.94912E+001	  1.82449E-003	  1.04345E-002	 -9.77517E-003	 -4.43293E-003
  3.27680E+001	  2.90109E-002	 -1.07885E-002	 -1.99480E-003	  1.85047E-002
  3.60448E+001	  4.70120E-003	  4.97447E-003	 -9.05653E-004	  2.95270E-002
  3.93216E+001	 -4.99567E-003	 -1.43245E-002	 -1.68876E-002	  2.19176E-002
  4.25984E+001	  9.60060E-003	  4.81298E-003	  5.64833E-003	  4.83789E-003
  4.58752E+001	 -1.75573E-002	  9.37753E-003	 -1.32020E-002	  6.76176E-003
  4.91520E+001	  2.73874E-004	 -5.41951E-003	  1.77019E-003	  2.15463E-002
  5.24288E+001	  1.56970E-003	 -7.34162E-003	 -1.05567E-002	  1.54179E-002
  5.89824E+001	  1.65928E-003	 -3.24500E-003	 -1.55605E-002	  1.55104E-002
  6.55360E+001	  1.02237E-002	  1.64673E-002	 -1.41901E-002	  2.04543E-002
  7.20896E+001	  1.02514E-002	  3.01146E-003	 -5.97940E-003	  9.62246E-003
  7.86432E+001	 -2.31334E-003	 -3.47417E-003	 -1.78108E-002	  1.97258E-003
  8.51968E+001	  1.91582E-002	 -9.90855E-003	 -1.06166E-002	 -1.05790E-002
  9.17504E+001	  1.17023E-002	 -1.26693E-002	 -1.07382E-002	 -9.93306E-003
  9.83040E+001	 -1.20634E-003	 -6.12694E-003	 -1.02638E-002	  8.18855E-003
  1.04858E+002	  1.04518E-002	  1.12530E-002	 -1.36578E-003	  2.01596E-002
  1.17965E+002	  8.69438E-003	 -3.38789E-003	  9.37497E-004	  1.13648E-002
  1.31072E+002	  1.39194E-003	  7.96109E-003	 -1.32854E-002	  1.17018E-003
  1.44179E+002	 -4.75630E-003	  7.71297E-003	  9.43038E-003	 -6.85823E-003
  1.57286E+002	 -7.12998E-003	 -1.68986E-002	  2.58248E-003	 -5.33354E-004
  1.70394E+002	 -6.52495E-003	  2.31784E-003	  6.80812E-003	  1.89068E-002
  1.83501E+002	 -2.03118E-002	  7.31858E-003	  7.40074E-003	  5.39010E-003
  1.96608E+002	 -1.40936E-002	 -5.20996E-003	 -4.73486E-003	 -2.60875E-002
  2.09715E+002	 -1.68506E-003	 -1.09211E-002	 -3.27394E-003	  5.09486E-003
  2.35930E+002	 -2.45523E-003	 -1.92369E-003	 -1.58046E-002	  5.08976E-003
  2.62144E+002	 -3.60767E-002	 -1.66445E-002	 -6.67918E-003	 -3.90133E-006
  2.88358E+002	 -2.24707E-002	 -7.32783E-003	  8.92126E-003	  1.52852E-003
  3.14573E+002	 -6.37172E-003	 -9.63005E-003	 -3.50770E-003	 -1.71440E-003
  3.40787E+002	 -8.68998E-003	  3.36791E-004	 -1.03330E-002	  5.68211E-003
  3.67002E+002	 -1.71690E-003	  1.55426E-002	  8.41779E-003	 -1.30388E-002
  3.93216E+002	 -7.31828E-005	  9.18647E-003	  9.26740E-003	 -3.50026E-003

"Count Rate"
       0.01311	      97.27478	      48.14148	      56.53381	      48.44666
       0.02621	      43.94531	      53.25317	      44.93713	      48.14148
       0.03932	      66.37573	      64.31580	      73.62366	      43.86902
       0.05243	      57.67822	      47.22595	      52.87170	      53.93982
       0.06554	      43.33496	      38.45215	      84.30481	      51.87988
       0.07864	      45.16602	      56.38123	      61.34033	      41.50391
       0.09175	      58.28857	      53.71094	      61.03516	      55.92346
       0.10486	      49.97253	      31.50940	      39.52026	      70.80078
       0.11796	      57.90710	      71.33484	      36.62109	      57.22046
       0.13107	      50.20142	      41.50391	      49.05701	      45.39490
       0.14418	      49.51477	      34.17969	      58.67004	      37.00256
       0.15729	      45.92896	      61.41663	      59.66187	      54.01611
       0.17039	      44.63196	      43.41125	      59.20410	      62.63733
       0.18350	      40.05432	      33.95081	      85.98328	      54.09241
       0.19661	      60.04333	      43.48755	      32.50122	      62.02698
       0.20972	      48.44666	      56.07605	      44.32678	      69.73267
       0.22282	      66.75720	     103.98865	      42.72461	      83.92334
       0.23593	      59.50928	      47.07336	      35.17151	      73.24219
       0.24904	      74.23401	      39.29138	      61.72180	      56.83899
       0.26214	      71.56372	      60.04333	      55.38940	      53.25317
       0.27525	      66.37573	      37.91809	      60.19592	      84.30481
       0.28836	      58.05969	      74.53918	      45.47119	      60.80627
       0.30147	      57.52563	      43.71643	      54.24500	      60.65369
       0.31457	      48.59924	      41.42761	      53.71094	      47.53113
       0.32768	      45.85266	      61.11145	      54.85535	      59.81445
       0.34079	      57.22046	      51.65100	      44.25049	      91.40015
       0.35389	      69.73267	      59.81445	      78.27759	      72.25037
       0.36700	      90.10315	      70.41931	      48.98071	      47.91260
       0.38011	      46.99707	      39.59656	      49.74365	      89.03503
       0.39322	      33.11157	      49.36218	      48.29407	      67.13867
       0.40632	      42.41943	      56.22864	      39.90173	      90.63721
       0.41943	      40.74097	      60.11963	      31.05164	      47.98889
       0.43254	      70.19043	      36.84998	      63.01880	      45.62378
       0.44564	      49.81995	      59.89075	      57.83081	      82.16858
       0.45875	      49.51477	      51.87988	      69.27490	      68.96973
       0.47186	      74.23401	      65.15503	     122.52808	      57.06787
       0.48497	      49.59106	      29.67834	      71.18225	      56.61011
       0.49807	      37.07886	      30.36499	      46.15784	      35.17151
       0.51118	      41.19873	      30.67017	      49.74365	      66.75720
       0.52429	      44.63196	      59.73816	      72.09778	      52.71912
       0.53740	      30.74646	      40.58838	      77.13318	      35.78186
       0.55050	      27.99988	      32.88269	      25.10071	      96.51184
       0.56361	      30.67017	      46.38672	      22.50671	      71.41113
       0.57672	      42.11426	      41.96167	      41.19873	      33.11157
       0.58982	      46.46301	      84.76257	      59.89075	      78.58276
       0.60293	      55.92346	      45.01343	      35.09521	      31.89087
       0.61604	      27.84729	      48.59924	      69.27490	      59.20410
       0.62915	      24.64294	      54.62646	      59.35669	      52.79541
       0.64225	      52.56653	      42.03796	      49.81995	      51.57471
       0.65536	      42.49573	      61.41663	      58.89893	      41.12244
       0.66847	      54.47388	      35.24780	      42.03796	      61.18774
       0.68157	      60.57739	      40.05432	      63.55286	      86.97510
       0.69468	      46.53931	      52.71912	      53.63464	      44.47937
       0.70779	      46.08154	      53.63464	      41.35132	      51.72729
       0.72090	      62.94250	      61.79810	      53.93982	      51.65100
       0.73400	      53.10059	      76.59912	      58.59375	      58.36487
       0.74711	      61.34033	      54.55017	      56.30493	      51.11694
