ALV-7004/USB-FAST
Date :	"11/11/2025"
Time :	"3:57:47 PM"
Samplename : 	""
SampMemo(0) : 	""
SampMemo(1) : 	""
SampMemo(2) : 	""
SampMemo(3) : 	""
SampMemo(4) : 	""
SampMemo(5) : 	""
SampMemo(6) : 	""
SampMemo(7) : 	""
SampMemo(8) : 	""
SampMemo(9) : 	""
Temperature [K] :	     298.16000
Viscosity [cp]  :	       0.89000
Refractive Index:	       1.33200
Wavelength [nm] :	       0.00000
Angle [°]       :	       0.00000
Duration [s]    :	         1
FloatDur [ms]   :	          944
Stop TP [ms]   :	     67888
Runs            :	         1
Mode            :	"A-CH0+1  A-CH2+3 "
MeanCR0 [kHz]   :	      50.27135
MeanCR1 [kHz]   :	      53.10906
MeanCR2 [kHz]   :	      52.42771
MeanCR3 [kHz]   :	      51.06820

"Correlation"
  3.12500E-006	 -1.00000E+000	 -1.00000E+000	 -1.00000E+000	 -1.00000E+000
  6.25000E-006	 -1.00000E+000	 -1.00000E+000	 -1.00000E+000	 -1.00000E+000
  9.37500E-006	 -1.00000E+000	 -1.00000E+000	 -1.00000E+000	 -1.00000E+000
  1.25000E-005	 -1.00000E+000	 -1.00000E+000	 -1.00000E+000	 -1.00000E+000
  1.56250E-005	 -1.00000E+000	 -1.00000E+000	 -1.00000E+000	 -1.00000E+000
  1.87500E-005	 -1.00000E+000	 -1.00000E+000	 -1.00000E+000	 -1.00000E+000
  2.18750E-005	 -1.00000E+000	  2.02182E-001	  1.34390E+000	 -7.39962E-001
  2.50000E-005	  1.37591E+001	  1.46284E+001	  1.04728E+001	  2.60439E+001
  2.81250E-005	  3.83024E+000	  2.12567E+000	  2.33081E+000	  1.12218E+001
  3.12500E-005	  1.54929E+000	  1.28415E+000	  9.73811E-001	  5.24091E+000
  3.43750E-005	  1.54929E+000	  1.76502E+000	  1.09717E+000	  4.85085E+000
  3.75000E-005	  8.78428E-001	  1.76502E+000	  8.50448E-001	  4.33077E+000
  4.06250E-005	  2.07561E-001	  5.62837E-001	  7.27085E-001	  4.46079E+000
  4.37500E-005	  1.28095E+000	  1.40436E+000	  1.46726E+000	  2.90057E+000
  4.68750E-005	  1.95181E+000	 -2.78691E-001	  9.73811E-001	  3.16060E+000
  5.00000E-005	  1.41512E+000	  6.22946E-001	  7.88766E-001	  2.18546E+000
  5.62500E-005	  1.34803E+000	  9.83600E-001	  1.10269E-001	  1.47036E+000
  6.25000E-005	  2.07560E-001	  1.28415E+000	  1.03549E+000	  1.66539E+000
  6.87500E-005	  6.10081E-001	  8.63382E-001	  5.42040E-001	  1.40535E+000
  7.50000E-005	  7.44254E-001	  1.04371E+000	  9.12130E-001	  8.20264E-001
  8.12500E-005	  6.30039E-003	  2.02182E-001	  2.95314E-001	  1.01529E+000
  8.75000E-005	  2.74647E-001	  6.22946E-001	  6.03722E-001	  7.55255E-001
  9.37500E-005	  7.44254E-001	  4.42618E-001	  1.28222E+000	  1.14531E+000
  1.00000E-004	  8.78427E-001	  4.72673E-001	  7.88766E-001	  1.08030E+000
  1.12500E-004	  2.74647E-001	  5.92891E-001	  7.57925E-001	  6.90245E-001
  1.25000E-004	  7.44254E-001	  8.93436E-001	  6.65403E-001	  6.25236E-001
  1.37500E-004	  6.10080E-001	  5.32782E-001	  4.49517E-001	  9.17778E-001
  1.50000E-004	  5.76537E-001	  4.42618E-001	  6.65403E-001	  1.08030E+000
  1.62500E-004	  2.74647E-001	  4.72673E-001	  3.87836E-001	  6.90245E-001
  1.75000E-004	  5.42994E-001	  5.32782E-001	  9.42970E-001	  6.57740E-001
  1.87500E-004	  5.42994E-001	  5.02727E-001	  7.57925E-001	  5.60226E-001
  2.00000E-004	  5.76537E-001	  3.97536E-001	  6.65403E-001	  4.46460E-001
  2.25000E-004	  5.09450E-001	  3.37427E-001	  5.72880E-001	  3.81450E-001
  2.50000E-004	  5.26222E-001	  6.83054E-001	  3.26154E-001	  5.60226E-001
  2.75000E-004	  4.75907E-001	  5.32782E-001	  5.26619E-001	  7.39002E-001
  3.00000E-004	  3.24962E-001	  5.02727E-001	  6.96244E-001	  7.39002E-001
  3.25000E-004	  6.60395E-001	  5.92891E-001	  4.34097E-001	  8.20264E-001
  3.50000E-004	  4.75907E-001	  4.87700E-001	  2.64472E-001	  4.30207E-001
  3.75000E-004	  4.42363E-001	  2.47263E-001	  5.11199E-001	  6.57740E-001
  4.00000E-004	  4.59134E-001	  3.37427E-001	  4.88068E-001	  3.81450E-001
  4.50000E-004	  5.09449E-001	  7.05594E-001	  5.18908E-001	  5.35847E-001
  5.00000E-004	  6.10079E-001	  4.72672E-001	  4.49517E-001	  5.43973E-001
  5.50000E-004	  5.26221E-001	  4.50131E-001	  4.18676E-001	  6.08982E-001
  6.00000E-004	  4.25591E-001	  2.92345E-001	  4.80357E-001	  3.73323E-001
  6.50000E-004	  4.75906E-001	  4.27590E-001	  5.03488E-001	  7.47127E-001
  7.00000E-004	  4.00434E-001	  5.47808E-001	  4.34096E-001	  4.30207E-001
  7.50000E-004	  6.18465E-001	  5.10240E-001	  6.03720E-001	  4.46459E-001
  8.00000E-004	  3.96240E-001	  5.06482E-001	  5.45893E-001	  5.19593E-001
  9.00000E-004	  4.67519E-001	  5.85375E-001	  4.88066E-001	  4.13953E-001
  1.00000E-003	  4.00432E-001	  5.89132E-001	  5.42038E-001	  4.05827E-001
  1.10000E-003	  4.21397E-001	  4.20075E-001	  5.34327E-001	  4.66773E-001
  1.20000E-003	  3.96240E-001	  4.53887E-001	  5.49748E-001	  3.77385E-001
  1.30000E-003	  4.29783E-001	  5.44050E-001	  5.57458E-001	  4.42395E-001
  1.40000E-003	  3.20767E-001	  5.32780E-001	  5.07342E-001	  5.43972E-001
  1.50000E-003	  3.50118E-001	  4.76427E-001	  3.95544E-001	  4.83025E-001
  1.60000E-003	  3.94141E-001	  4.48249E-001	  4.30237E-001	  4.42392E-001
  1.80000E-003	  4.06719E-001	  5.66588E-001	  4.72643E-001	  3.85509E-001
  2.00000E-003	  4.52841E-001	  3.91897E-001	  4.39875E-001	  4.26140E-001
  2.20000E-003	  4.65420E-001	  4.80182E-001	  4.45658E-001	  5.11464E-001
  2.40000E-003	  4.67517E-001	  4.10681E-001	  4.97701E-001	  4.78960E-001
  2.60000E-003	  3.77369E-001	  4.44492E-001	  4.10962E-001	  4.64739E-001
  2.80000E-003	  4.10912E-001	  4.61398E-001	  4.43730E-001	  4.97244E-001
  3.00000E-003	  3.56405E-001	  4.03167E-001	  4.53368E-001	  4.85054E-001
  3.20000E-003	  3.50111E-001	  4.42609E-001	  4.44689E-001	  3.92615E-001
  3.60000E-003	  3.93088E-001	  4.35095E-001	  4.40834E-001	  4.12930E-001
  4.00000E-003	  3.53255E-001	  4.47305E-001	  4.25414E-001	  4.05820E-001
  4.40000E-003	  4.03570E-001	  4.36034E-001	  4.13849E-001	  3.81441E-001
  4.80000E-003	  3.75268E-001	  3.67473E-001	  3.86863E-001	  4.24103E-001
  5.20000E-003	  3.63738E-001	  4.14433E-001	  4.30233E-001	  4.68797E-001
  5.60000E-003	  3.50111E-001	  3.76865E-001	  4.52399E-001	  3.67221E-001
  6.00000E-003	  3.19712E-001	  4.45426E-001	  4.20595E-001	  4.79971E-001
  6.40000E-003	  4.03561E-001	  3.96109E-001	  3.91672E-001	  4.00223E-001
  7.20000E-003	  3.67397E-001	  3.90943E-001	  4.12393E-001	  3.84479E-001
  8.00000E-003	  3.28089E-001	  4.28042E-001	  3.78180E-001	  3.97684E-001
  8.80000E-003	  3.38047E-001	  4.09258E-001	  3.63723E-001	  3.33183E-001
  9.60000E-003	  3.11869E-001	  3.65585E-001	  3.72397E-001	  3.92605E-001
  1.04000E-002	  3.59593E-001	  3.34122E-001	  3.73361E-001	  3.42325E-001
  1.12000E-002	  3.18187E-001	  3.42575E-001	  3.50231E-001	  3.82448E-001
  1.20000E-002	  2.94077E-001	  3.26139E-001	  3.40111E-001	  3.30136E-001
  1.28000E-002	  3.00086E-001	  3.43288E-001	  3.22264E-001	  3.38498E-001
  1.44000E-002	  3.26320E-001	  3.15582E-001	  3.66837E-001	  3.13612E-001
  1.60000E-002	  2.96210E-001	  2.97267E-001	  2.83473E-001	  3.29130E-001
  1.76000E-002	  2.65286E-001	  3.02198E-001	  2.80341E-001	  3.10592E-001
  1.92000E-002	  2.51422E-001	  2.69326E-001	  3.29492E-001	  3.31923E-001
  2.08000E-002	  2.40939E-001	  3.03842E-001	  2.63957E-001	  3.17195E-001
  2.24000E-002	  2.11324E-001	  2.67683E-001	  2.43959E-001	  2.73009E-001
  2.40000E-002	  2.08179E-001	  2.87641E-001	  2.65884E-001	  2.22221E-001
  2.56000E-002	  2.27198E-001	  2.54457E-001	  2.56092E-001	  2.09110E-001
  2.88000E-002	  1.96011E-001	  2.27151E-001	  2.14893E-001	  2.48216E-001
  3.20000E-002	  1.89852E-001	  2.05407E-001	  2.13568E-001	  1.93366E-001
  3.52000E-002	  1.59450E-001	  1.81808E-001	  1.93474E-001	  1.85113E-001
  3.84000E-002	  1.58926E-001	  1.67508E-001	  1.60105E-001	  1.76479E-001
  4.16000E-002	  1.39794E-001	  1.75257E-001	  1.66610E-001	  1.67084E-001
  4.48000E-002	  1.17124E-001	  1.61285E-001	  1.45528E-001	  1.49308E-001
  4.80000E-002	  1.36149E-001	  1.50836E-001	  1.09629E-001	  1.49943E-001
  5.12000E-002	  1.14841E-001	  1.25622E-001	  1.28059E-001	  1.50476E-001
  5.76000E-002	  8.80197E-002	  1.08128E-001	  1.13845E-001	  9.53738E-002
  6.40000E-002	  7.39985E-002	  9.21598E-002	  8.17421E-002	  9.93732E-002
  7.04000E-002	  6.89105E-002	  7.92445E-002	  7.99954E-002	  8.35663E-002
  7.68000E-002	  7.16624E-002	  6.08273E-002	  5.11449E-002	  5.82371E-002
  8.32000E-002	  4.23965E-002	  6.23324E-002	  5.12654E-002	  4.51599E-002
  8.96000E-002	  3.39659E-002	  4.09269E-002	  4.62662E-002	  5.15934E-002
  9.60000E-002	  3.01000E-002	  2.63890E-002	  5.74691E-002	  4.41876E-002
  1.02400E-001	  2.17097E-002	  2.90334E-002	  2.94427E-002	  3.87026E-002
  1.15200E-001	  1.70576E-002	  2.66264E-002	  2.47449E-002	  2.14660E-002
  1.28000E-001	  1.65334E-002	  2.45717E-002	  2.97137E-002	  2.86082E-002
  1.40800E-001	  6.77035E-003	  2.23996E-002	  1.64951E-002	  1.30223E-002
  1.53600E-001	  5.36159E-003	  1.81818E-002	  6.94846E-003	  6.33535E-003
  1.66400E-001	  6.45427E-003	  1.46595E-002	  9.12747E-003	  3.54200E-003
  1.79200E-001	  8.98836E-003	  1.71251E-002	  1.75411E-002	 -1.95082E-003
  1.92000E-001	 -5.29779E-003	  9.72997E-003	  1.89006E-003	 -5.94112E-003
  2.04800E-001	  3.05098E-003	  1.25324E-002	  1.42282E-003	 -2.29157E-003
  2.30400E-001	  2.27407E-003	  6.27477E-003	  7.02014E-003	 -2.25983E-003
  2.56000E-001	  2.47068E-003	  4.35838E-003	  6.75437E-003	  4.86189E-003
  2.81600E-001	  1.09913E-003	  7.76077E-003	  1.87511E-003	  6.85210E-003
  3.07200E-001	  2.66730E-003	 -1.77340E-003	  5.44872E-003	  2.11659E-003
  3.32800E-001	 -6.44960E-003	 -9.99034E-003	 -1.04164E-003	  5.45515E-003
  3.58400E-001	  8.77691E-003	  2.19079E-003	  7.86877E-003	 -2.04242E-003
  3.84000E-001	  1.08527E-003	 -4.87134E-003	  7.69425E-003	  9.24914E-003
  4.09600E-001	 -9.34463E-004	 -2.00770E-003	  1.95679E-003	  7.38980E-003
  4.60800E-001	 -2.46057E-004	 -1.06126E-003	 -3.75871E-003	 -8.51450E-003
  5.12000E-001	  3.75551E-004	  1.13044E-003	  2.66584E-003	 -2.03381E-003
  5.63200E-001	 -9.24534E-003	 -4.16054E-003	 -8.39060E-004	 -4.15503E-003
  6.14400E-001	 -8.51146E-003	 -9.74146E-003	  5.43861E-004	 -6.61263E-003
  6.65600E-001	 -1.97527E-003	  2.83365E-003	  1.17950E-002	  7.60413E-003
  7.16800E-001	  2.73494E-003	 -2.62887E-003	  3.37777E-003	  4.87939E-003
  7.68000E-001	  1.27848E-002	 -2.75896E-003	 -1.48161E-003	  2.30162E-003
  8.19200E-001	  2.34517E-003	 -1.43670E-003	  1.27109E-003	  1.85812E-003
  9.21600E-001	  3.61205E-003	  1.56510E-003	  5.05008E-003	  4.93513E-003
  1.02400E+000	  1.33889E-003	  4.66351E-003	  2.51731E-003	 -3.69130E-003
  1.12640E+000	 -2.47618E-003	 -9.07432E-004	  1.07004E-002	 -3.73164E-003
  1.22880E+000	 -9.80139E-003	 -7.07352E-004	  4.39128E-003	 -4.51422E-003
  1.33120E+000	 -9.07270E-003	 -1.21093E-003	 -1.20800E-003	  5.26625E-004
  1.43360E+000	 -2.82416E-004	 -2.51581E-003	 -3.71028E-003	 -3.51688E-003
  1.53600E+000	  9.49110E-004	 -5.26593E-003	  1.22409E-003	  8.46504E-003
  1.63840E+000	  6.50782E-004	 -1.00342E-003	 -4.51268E-003	 -3.17983E-004
  1.84320E+000	 -1.85587E-003	 -5.16944E-003	 -1.86864E-003	 -4.45037E-003
  2.04800E+000	  1.89560E-003	 -2.71586E-003	  2.60450E-003	 -5.04684E-003
  2.25280E+000	  5.13958E-004	  4.08728E-003	  2.48359E-003	  4.78193E-003
  2.45760E+000	 -4.62563E-003	  4.01313E-003	 -2.13990E-003	 -2.65209E-003
  2.66240E+000	  4.49214E-003	  1.84877E-003	 -1.77902E-003	 -1.24748E-003
  2.86720E+000	  4.34122E-003	 -3.10664E-003	 -2.87795E-003	 -3.44231E-003
  3.07200E+000	  2.08623E-003	  1.15414E-003	 -5.65197E-003	 -1.11941E-003
  3.27680E+000	 -7.91737E-004	  2.31202E-003	  1.45942E-003	 -1.12059E-003
  3.68640E+000	  1.33721E-004	  1.11966E-002	 -5.08702E-003	  2.95146E-003
  4.09600E+000	 -6.81356E-004	  2.31870E-003	 -5.26956E-004	  9.66766E-004
  4.50560E+000	 -6.81747E-003	 -6.07323E-004	  2.24623E-003	 -3.06862E-003
  4.91520E+000	 -4.11711E-003	 -1.38698E-003	 -2.35518E-003	 -6.37654E-004
  5.32480E+000	 -3.63370E-005	 -1.07951E-003	  1.64597E-004	  5.65623E-003
  5.73440E+000	  2.76577E-003	  7.08681E-003	 -2.59399E-003	 -1.05035E-003
  6.14400E+000	  1.47398E-003	  9.98307E-004	 -3.10106E-003	  7.68693E-004
  6.55360E+000	 -8.92974E-004	 -9.11460E-004	 -1.22064E-003	 -4.37360E-004
  7.37280E+000	  8.93940E-004	  3.70422E-003	 -5.11686E-004	 -2.32972E-003
  8.19200E+000	  6.53480E-004	 -2.41047E-004	 -2.11572E-003	  2.62107E-003
  9.01120E+000	 -2.85841E-003	  4.36739E-003	  2.13778E-003	  6.10332E-004
  9.83040E+000	  4.92340E-004	 -4.09960E-004	 -2.57882E-003	 -2.17364E-003
  1.06496E+001	 -3.77744E-003	  4.73378E-003	  4.15756E-003	  1.60598E-003
  1.14688E+001	  9.55052E-004	  6.05030E-003	 -1.05237E-003	 -1.15677E-004
  1.22880E+001	 -1.83693E-003	 -1.73589E-003	  4.45994E-003	 -1.19270E-003
  1.31072E+001	 -1.01817E-003	  8.80944E-004	  1.58884E-003	  1.91372E-004
  1.47456E+001	  1.83104E-003	  1.14962E-003	  1.00928E-003	  8.00878E-004
  1.63840E+001	  2.71500E-003	 -6.72332E-004	 -2.38158E-003	 -5.88502E-004
  1.80224E+001	 -4.03109E-004	  1.52137E-003	  1.23146E-003	 -2.25871E-004
  1.96608E+001	  7.14530E-004	 -5.83522E-004	 -1.42139E-003	  2.85924E-003
  2.12992E+001	 -1.84852E-005	  7.97955E-004	  3.25230E-003	 -8.11805E-004
  2.29376E+001	  4.80376E-004	 -6.79920E-004	  3.62056E-003	 -4.73240E-004
  2.45760E+001	 -9.18412E-004	  2.15529E-003	  4.35405E-003	  5.85122E-003
  2.62144E+001	 -1.11463E-003	 -9.10908E-005	 -6.18029E-005	  8.77934E-004
  2.94912E+001	  5.04614E-004	  2.70338E-004	 -1.22047E-003	 -6.70574E-004
  3.27680E+001	 -9.47416E-005	 -4.41227E-004	  2.39623E-003	 -8.74567E-004
  3.60448E+001	 -1.97193E-003	  3.85443E-004	  1.62339E-003	  5.26098E-005
  3.93216E+001	  4.11950E-004	  5.06683E-005	 -2.91248E-003	  3.28164E-005
  4.25984E+001	 -2.27923E-004	  1.15603E-003	  4.18552E-004	  1.00951E-005
  4.58752E+001	  2.57036E-004	 -1.29688E-003	  1.30920E-003	  8.78856E-005
  4.91520E+001	  2.57891E-005	 -3.95991E-004	 -6.14818E-004	 -1.87933E-003
  5.24288E+001	  2.63162E-004	 -8.39155E-004	  4.04151E-004	 -1.27634E-003
  5.89824E+001	 -2.42669E-004	 -2.38410E-004	  3.13512E-004	  5.66282E-005
  6.55360E+001	  5.96457E-004	 -2.74956E-004	  3.74472E-005	 -1.50139E-003
  7.20896E+001	  8.54415E-005	  5.57928E-004	 -5.42241E-005	 -4.15246E-004
  7.86432E+001	 -5.89325E-004	 -8.62710E-004	  8.54697E-004	 -1.99268E-004
  8.51968E+001	 -1.07515E-003	  3.14135E-004	 -8.67897E-005	 -9.75096E-004
  9.17504E+001	 -9.01324E-004	  3.92723E-004	  6.93935E-004	 -2.11745E-005
  9.83040E+001	 -2.95883E-004	 -1.73596E-004	 -5.06363E-004	  4.09154E-004
  1.04858E+002	  1.92316E-004	  5.72869E-004	  1.29713E-004	  2.49435E-005
  1.17965E+002	  3.73002E-004	 -1.94820E-004	  3.74964E-004	 -1.44902E-004
  1.31072E+002	  4.51933E-004	  1.63647E-004	  7.50359E-004	 -5.19219E-004
  1.44179E+002	 -6.43181E-004	  1.61002E-004	 -1.01070E-004	  1.95495E-004
  1.57286E+002	  3.06863E-005	 -3.44897E-004	  5.33121E-004	 -4.78237E-004
  1.70394E+002	 -2.67256E-004	 -7.75574E-005	  1.84464E-004	  4.84547E-004
  1.83501E+002	  1.65771E-004	 -2.15454E-004	 -1.67262E-004	  5.03549E-004
  1.96608E+002	  1.14945E-004	 -4.30766E-004	  5.29367E-004	  2.52718E-004
  2.09715E+002	 -7.48688E-005	 -9.10413E-004	 -4.01095E-004	  4.57176E-004
  2.35930E+002	 -3.79130E-004	 -2.91921E-004	 -5.85592E-004	 -7.50711E-004
  2.62144E+002	  3.08147E-004	  9.30932E-005	 -5.51018E-004	  1.12264E-004
  2.88358E+002	 -3.14632E-005	  3.84700E-004	 -4.82771E-004	 -2.54003E-004
  3.14573E+002	  6.38283E-004	  1.06434E-003	  9.78014E-006	 -1.62387E-004
  3.40787E+002	 -3.05804E-004	 -5.90193E-004	 -1.55891E-004	 -4.02086E-004
  3.67002E+002	 -2.51038E-004	 -8.86893E-004	 -3.31897E-004	  6.93002E-004
  3.93216E+002	 -6.66578E-004	  2.25747E-004	 -2.86525E-004	  8.80537E-004

"Count Rate"
       0.01311	      49.89624	      53.93982	      48.29407	      46.00525
       0.02621	      51.19324	      52.64282	      48.52295	      49.51477
       0.03932	      47.14966	      51.57471	      52.49023	      53.10059
       0.05243	      41.04614	      51.34583	      44.55566	      53.40576
       0.06554	      48.82813	      48.98071	      56.99158	      55.23682
       0.07864	      46.00525	      54.77905	      54.55017	      51.34583
       0.09175	      47.91260	      61.18774	      57.37305	      46.76819
       0.10486	      48.67554	      52.56653	      47.30225	      54.24500
       0.11796	      44.40308	      52.18506	      53.17688	      48.90442
       0.13107	      54.47388	      56.07605	      48.29407	      46.53931
       0.14418	      51.65100	      54.93164	      48.21777	      49.20959
       0.15729	      51.72729	      60.88257	      52.56653	      52.64282
       0.17039	      49.28589	      54.09241	      46.31042	      54.16870
       0.18350	      52.18506	      44.78455	      50.73547	      51.04065
       0.19661	      45.47119	      52.03247	      54.85535	      51.87988
       0.20972	      53.10059	      52.79541	      51.34583	      49.36218
       0.22282	      50.20142	      57.22046	      52.64282	      54.24500
       0.23593	      48.29407	      52.71912	      50.96436	      49.13330
       0.24904	      51.57471	      51.65100	      47.98889	      50.50659
       0.26214	      53.02429	      49.20959	      47.98889	      50.20142
       0.27525	      45.92896	      48.37036	      49.81995	      49.43848
       0.28836	      50.65918	      47.07336	      53.71094	      47.07336
       0.30147	      46.15784	      51.65100	      46.99707	      49.05701
       0.31457	      47.07336	      52.03247	      51.72729	      54.93164
       0.32768	      48.14148	      55.38940	      48.67554	      51.80359
       0.34079	      48.52295	      55.99976	      50.27771	      49.59106
       0.35389	      49.66736	      53.71094	      48.52295	      53.32947
       0.36700	      49.51477	      58.97522	      50.35400	      55.61829
       0.38011	      51.80359	      57.60193	      54.01611	      50.96436
       0.39322	      51.49841	      47.37854	      50.20142	      50.73547
       0.40632	      46.23413	      45.92896	      51.95618	      48.29407
       0.41943	      48.59924	      55.61829	      43.48755	      47.91260
       0.43254	      49.05701	      53.55835	      50.73547	      52.56653
       0.44564	      55.69458	      48.90442	      48.06519	      49.13330
       0.45875	      46.69189	      54.93164	      47.30225	      49.89624
       0.47186	      51.42212	      56.99158	      57.06787	      44.25049
       0.48497	      47.76001	      51.57471	      49.81995	      42.64832
       0.49807	      47.45483	      50.65918	      47.98889	      49.59106
       0.51118	      51.42212	      52.33765	      55.00793	      46.00525
       0.52429	      48.59924	      55.69458	      56.07605	      47.22595
       0.53740	      51.19324	      52.94800	      52.41394	      54.16870
       0.55050	      47.76001	      55.31311	      51.87988	      48.98071
       0.56361	      54.47388	      53.48206	      55.77087	      49.89624
       0.57672	      49.28589	      47.53113	      53.25317	      57.67822
       0.58982	      50.81177	      47.22595	      54.01611	      47.68372
       0.60293	      47.83630	      52.18506	      56.68640	      47.76001
       0.61604	      44.09790	      52.87170	      47.98889	      53.86353
       0.62915	      46.15784	      60.80627	      55.31311	      51.80359
       0.64225	      54.47388	      55.54199	      53.93982	      52.56653
       0.65536	      45.70007	      52.33765	      55.77087	      43.94531
       0.66847	      48.59924	      51.72729	      53.40576	      50.96436
       0.68157	      50.88806	      52.94800	      52.49023	      46.38672
       0.69468	      54.55017	      49.74365	      62.25586	      49.81995
       0.70779	      55.23682	      52.10876	      52.64282	      48.29407
       0.72090	      49.13330	      48.52295	      55.84717	      53.55835
       0.73400	      49.20959	      49.89624	      53.17688	      52.49023
       0.74711	      52.49023	      50.20142	      53.40576	      57.14417
