ALV-7004/USB-FAST
Date :	"11/11/2025"
Time :	"3:55:39 PM"
Samplename : 	""
SampMemo(0) : 	""
SampMemo(1) : 	""
SampMemo(2) : 	""
SampMemo(3) : 	""
SampMemo(4) : 	""
SampMemo(5) : 	""
SampMemo(6) : 	""
SampMemo(7) : 	""
SampMemo(8) : 	""
SampMemo(9) : 	""
Temperature [K] :	     298.16000
Viscosity [cp]  :	       0.89000
Refractive Index:	       1.33200
Wavelength [nm] :	       0.00000
Angle [°]       :	       0.00000
Duration [s]    :	         1
FloatDur [ms]   :	          944
Stop TP [ms]   :	     64383
Runs            :	         1
Mode            :	"A-CH0+1  A-CH2+3 "
MeanCR0 [kHz]   :	      53.92075
MeanCR1 [kHz]   :	      53.63041
MeanCR2 [kHz]   :	      53.81478
MeanCR3 [kHz]   :	      53.02853

"Correlation"
  3.12500E-006	 -1.00000E+000	 -1.00000E+000	 -1.00000E+000	 -1.00000E+000
  6.25000E-006	 -1.00000E+000	 -1.00000E+000	 -1.00000E+000	 -1.00000E+000
  9.37500E-006	 -1.00000E+000	 -1.00000E+000	 -1.00000E+000	 -1.00000E+000
  1.25000E-005	 -1.00000E+000	 -1.00000E+000	 -1.00000E+000	 -1.00000E+000
  1.56250E-005	 -1.00000E+000	 -1.00000E+000	 -1.00000E+000	 -1.00000E+000
  1.87500E-005	 -1.00000E+000	 -1.00000E+000	 -1.00000E+000	 -1.00000E+000
  2.18750E-005	 -8.83374E-001	  8.86277E-001	  4.05030E-001	 -6.38249E-001
  2.50000E-005	  1.43946E+001	  1.20860E+001	  1.50408E+001	  2.49255E+001
  2.81250E-005	  4.24817E+000	  1.23995E+000	  1.57589E+000	  7.56144E+000
  3.12500E-005	  9.82644E-001	  2.18309E+000	  1.57589E+000	  6.71735E+000
  3.43750E-005	  1.91565E+000	  1.71152E+000	  1.81006E+000	  3.09984E+000
  3.75000E-005	  9.82644E-001	  1.00417E+000	  1.70858E-001	  4.54685E+000
  4.06250E-005	  1.66261E-001	  7.68384E-001	  8.73373E-001	  2.73809E+000
  4.37500E-005	  7.49391E-001	  5.32600E-001	  8.73373E-001	  3.34101E+000
  4.68750E-005	  9.82644E-001	  5.32600E-001	  4.05030E-001	  2.01459E+000
  5.00000E-005	  9.24331E-001	  1.00417E+000	  2.29401E-001	  2.49693E+000
  5.62500E-005	  9.24331E-001	  5.91546E-001	  1.22463E+000	  1.77342E+000
  6.25000E-005	  3.99513E-001	  7.68384E-001	  8.73373E-001	  2.13517E+000
  6.87500E-005	  8.07704E-001	  2.37869E-001	  2.29401E-001	  1.83372E+000
  7.50000E-005	  8.07704E-001	  1.29890E+000	  3.46487E-001	  1.71313E+000
  8.12500E-005	  6.91078E-001	  7.09438E-001	  6.39202E-001	  7.48462E-001
  8.75000E-005	 -8.67821E-003	  2.37869E-001	  5.22116E-001	 -9.56228E-002
  9.37500E-005	  6.91078E-001	  1.06311E+000	  4.63573E-001	  7.48462E-001
  1.00000E-004	  7.78548E-001	  7.97857E-001	  2.58673E-001	  8.08754E-001
  1.12500E-004	  8.07704E-001	  6.10304E-002	  5.80659E-001	  5.37441E-001
  1.25000E-004	  5.74452E-001	  7.97857E-001	  6.68473E-001	  6.27879E-001
  1.37500E-004	  8.07704E-001	  4.44180E-001	  3.75758E-001	  5.97733E-001
  1.50000E-004	  3.41200E-001	  2.67342E-001	  6.97744E-001	  7.48462E-001
  1.62500E-004	  8.66017E-001	  5.62073E-001	  5.51387E-001	  8.38900E-001
  1.75000E-004	  6.91078E-001	  8.86276E-001	  2.87944E-001	  4.16857E-001
  1.87500E-004	  7.49391E-001	  5.91546E-001	  8.14830E-001	  8.69046E-001
  2.00000E-004	  6.91078E-001	  5.32599E-001	  2.58672E-001	  5.22368E-001
  2.25000E-004	  8.36860E-001	  5.62072E-001	  4.63572E-001	  6.73097E-001
  2.50000E-004	  5.74452E-001	  7.38911E-001	  3.75758E-001	  5.82660E-001
  2.75000E-004	  8.51439E-001	  5.03126E-001	  7.12380E-001	  6.12805E-001
  3.00000E-004	  4.86982E-001	  6.06282E-001	  7.27015E-001	  2.96274E-001
  3.25000E-004	  7.78547E-001	  3.55761E-001	  4.48937E-001	  5.52514E-001
  3.50000E-004	  6.61921E-001	  5.62072E-001	  5.51387E-001	  6.42951E-001
  3.75000E-004	  5.16139E-001	  1.64186E-001	  3.31851E-001	  7.18316E-001
  4.00000E-004	  5.01560E-001	  4.66284E-001	  4.41618E-001	  4.62075E-001
  4.50000E-004	  5.45295E-001	  3.55760E-001	  5.66022E-001	  2.51054E-001
  5.00000E-004	  6.54631E-001	  6.21018E-001	  6.61154E-001	  6.42951E-001
  5.50000E-004	  5.89029E-001	  4.81021E-001	  3.39168E-001	  3.11346E-001
  6.00000E-004	  7.85836E-001	  6.35754E-001	  5.66022E-001	  6.20341E-001
  6.50000E-004	  2.97464E-001	  4.88389E-001	  4.78207E-001	  3.86711E-001
  7.00000E-004	  6.61921E-001	  5.76808E-001	  4.19665E-001	  5.07294E-001
  7.50000E-004	  7.05655E-001	  7.38910E-001	  4.70890E-001	  4.62075E-001
  8.00000E-004	  5.01559E-001	  5.95227E-001	  5.00160E-001	  3.90478E-001
  9.00000E-004	  5.81739E-001	  3.81548E-001	  6.28222E-001	  5.60048E-001
  1.00000E-003	  5.19781E-001	  5.54702E-001	  6.13587E-001	  5.93962E-001
  1.10000E-003	  5.52582E-001	  6.21016E-001	  5.00160E-001	  4.88452E-001
  1.20000E-003	  6.43696E-001	  6.39437E-001	  4.48935E-001	  3.90478E-001
  1.30000E-003	  5.70805E-001	  4.66283E-001	  4.45276E-001	  4.92220E-001
  1.40000E-003	  4.14089E-001	  6.91015E-001	  5.76997E-001	  5.11061E-001
  1.50000E-003	  6.91076E-001	  4.69967E-001	  3.53803E-001	  4.77147E-001
  1.60000E-003	  5.68980E-001	  5.21542E-001	  4.50762E-001	  5.09174E-001
  1.80000E-003	  5.59869E-001	  4.34965E-001	  4.30638E-001	  5.44973E-001
  2.00000E-003	  5.41646E-001	  4.07334E-001	  4.65398E-001	  5.97728E-001
  2.20000E-003	  5.90848E-001	  5.58383E-001	  4.52591E-001	  4.95986E-001
  2.40000E-003	  5.90848E-001	  5.19700E-001	  3.73925E-001	  5.41204E-001
  2.60000E-003	  5.89025E-001	  5.58414E-001	  5.09305E-001	  4.69608E-001
  2.80000E-003	  5.30712E-001	  4.58941E-001	  4.45273E-001	  6.03380E-001
  3.00000E-003	  5.19779E-001	  5.89730E-001	  4.96498E-001	  4.37578E-001
  3.20000E-003	  5.29856E-001	  4.88439E-001	  5.26679E-001	  4.51704E-001
  3.60000E-003	  5.59014E-001	  5.08702E-001	  4.04106E-001	  5.10111E-001
  4.00000E-003	  5.70859E-001	  4.66333E-001	  4.33377E-001	  4.71517E-001
  4.40000E-003	  5.38057E-001	  5.77782E-001	  4.54416E-001	  5.75145E-001
  4.80000E-003	  5.55369E-001	  5.05939E-001	  4.86431E-001	  5.07315E-001
  5.20000E-003	  4.82475E-001	  5.51071E-001	  4.76369E-001	  5.29925E-001
  5.60000E-003	  5.55369E-001	  5.00413E-001	  4.75455E-001	  4.29123E-001
  6.00000E-003	  5.88171E-001	  4.82942E-001	  4.62648E-001	  5.05431E-001
  6.40000E-003	  5.99613E-001	  5.24871E-001	  4.32023E-001	  4.97413E-001
  7.20000E-003	  5.93234E-001	  4.94935E-001	  4.86450E-001	  4.91290E-001
  8.00000E-003	  5.45396E-001	  5.19314E-001	  4.83249E-001	  5.01182E-001
  8.80000E-003	  5.82725E-001	  4.95827E-001	  4.58551E-001	  4.87051E-001
  9.60000E-003	  5.32154E-001	  5.11025E-001	  4.63582E-001	  4.71507E-001
  1.04000E-002	  5.51744E-001	  4.91682E-001	  4.84164E-001	  5.37922E-001
  1.12000E-002	  5.35343E-001	  5.08261E-001	  4.59923E-001	  5.08718E-001
  1.20000E-002	  5.33521E-001	  5.07801E-001	  4.62210E-001	  4.80456E-001
  1.28000E-002	  5.52498E-001	  5.22147E-001	  4.81258E-001	  4.95274E-001
  1.44000E-002	  5.20407E-001	  4.72407E-001	  4.58846E-001	  4.99748E-001
  1.60000E-002	  5.37038E-001	  4.76782E-001	  4.65449E-001	  4.51497E-001
  1.76000E-002	  5.63464E-001	  4.87404E-001	  4.75283E-001	  4.86589E-001
  1.92000E-002	  5.45694E-001	  4.96616E-001	  4.93578E-001	  4.94832E-001
  2.08000E-002	  5.65483E-001	  4.83921E-001	  4.60418E-001	  4.79759E-001
  2.24000E-002	  5.72286E-001	  5.27904E-001	  4.56530E-001	  4.92713E-001
  2.40000E-002	  5.55201E-001	  5.05106E-001	  4.43266E-001	  4.91064E-001
  2.56000E-002	  5.61463E-001	  5.18772E-001	  4.57006E-001	  4.72065E-001
  2.88000E-002	  5.34778E-001	  5.03688E-001	  4.76132E-001	  4.67737E-001
  3.20000E-002	  5.50300E-001	  5.14597E-001	  4.48601E-001	  4.88227E-001
  3.52000E-002	  5.56337E-001	  5.16063E-001	  4.74760E-001	  4.96117E-001
  3.84000E-002	  5.48850E-001	  4.88775E-001	  4.62038E-001	  4.84694E-001
  4.16000E-002	  5.23220E-001	  4.93956E-001	  4.64182E-001	  4.89169E-001
  4.48000E-002	  5.28490E-001	  5.16899E-001	  4.51374E-001	  4.67737E-001
  4.80000E-002	  5.39023E-001	  4.96174E-001	  4.31477E-001	  4.79690E-001
  5.12000E-002	  5.34537E-001	  4.99583E-001	  4.39658E-001	  4.72250E-001
  5.76000E-002	  5.43765E-001	  4.97885E-001	  4.52467E-001	  4.76254E-001
  6.40000E-002	  5.37985E-001	  5.05341E-001	  4.44719E-001	  4.79080E-001
  7.04000E-002	  5.42770E-001	  4.90918E-001	  4.43461E-001	  4.77225E-001
  7.68000E-002	  5.38498E-001	  5.04882E-001	  4.37142E-001	  4.57853E-001
  8.32000E-002	  5.32088E-001	  5.05140E-001	  4.44919E-001	  4.65419E-001
  8.96000E-002	  5.17480E-001	  5.10753E-001	  4.35312E-001	  4.68246E-001
  9.60000E-002	  5.27675E-001	  5.02319E-001	  4.43918E-001	  4.70807E-001
  1.02400E-001	  5.23367E-001	  4.82361E-001	  4.36753E-001	  4.62316E-001
  1.15200E-001	  5.33791E-001	  4.78963E-001	  4.36838E-001	  4.48332E-001
  1.28000E-001	  5.16901E-001	  4.83254E-001	  4.15988E-001	  4.60903E-001
  1.40800E-001	  5.20864E-001	  4.80691E-001	  4.26799E-001	  4.47390E-001
  1.53600E-001	  5.14487E-001	  4.65254E-001	  4.25684E-001	  4.41384E-001
  1.66400E-001	  5.00955E-001	  4.65426E-001	  4.21680E-001	  4.44004E-001
  1.79200E-001	  5.01583E-001	  4.66751E-001	  4.09326E-001	  4.33965E-001
  1.92000E-001	  4.80077E-001	  4.64073E-001	  4.11587E-001	  4.29873E-001
  2.04800E-001	  4.90817E-001	  4.55809E-001	  3.96501E-001	  4.29441E-001
  2.30400E-001	  4.75135E-001	  4.42715E-001	  3.86007E-001	  4.25302E-001
  2.56000E-001	  4.76345E-001	  4.36782E-001	  3.85951E-001	  4.14866E-001
  2.81600E-001	  4.65591E-001	  4.15498E-001	  3.75152E-001	  3.88578E-001
  3.07200E-001	  4.49012E-001	  4.11323E-001	  3.61220E-001	  3.89387E-001
  3.32800E-001	  4.36506E-001	  3.99573E-001	  3.45798E-001	  3.69329E-001
  3.58400E-001	  4.26122E-001	  3.95586E-001	  3.48710E-001	  3.69697E-001
  3.84000E-001	  4.17207E-001	  3.80697E-001	  3.36039E-001	  3.61114E-001
  4.09600E-001	  4.16107E-001	  3.74715E-001	  3.28085E-001	  3.52174E-001
  4.60800E-001	  3.91437E-001	  3.56636E-001	  3.07118E-001	  3.30879E-001
  5.12000E-001	  3.68691E-001	  3.36473E-001	  2.87501E-001	  3.10168E-001
  5.63200E-001	  3.59980E-001	  3.21373E-001	  2.69514E-001	  2.95404E-001
  6.14400E-001	  3.30434E-001	  3.02569E-001	  2.47724E-001	  2.77169E-001
  6.65600E-001	  3.05890E-001	  2.86735E-001	  2.33180E-001	  2.58125E-001
  7.16800E-001	  3.02198E-001	  2.61524E-001	  2.20177E-001	  2.43188E-001
  7.68000E-001	  2.76307E-001	  2.53008E-001	  2.06703E-001	  2.22422E-001
  8.19200E-001	  2.63702E-001	  2.31289E-001	  1.87999E-001	  2.10861E-001
  9.21600E-001	  2.38247E-001	  2.05286E-001	  1.64718E-001	  1.83935E-001
  1.02400E+000	  2.13450E-001	  1.77864E-001	  1.43463E-001	  1.57414E-001
  1.12640E+000	  1.89236E-001	  1.54583E-001	  1.22551E-001	  1.30674E-001
  1.22880E+000	  1.74258E-001	  1.39885E-001	  1.11588E-001	  1.09327E-001
  1.33120E+000	  1.54139E-001	  1.18409E-001	  9.08825E-002	  9.75068E-002
  1.43360E+000	  1.35542E-001	  1.12150E-001	  7.67493E-002	  8.03365E-002
  1.53600E+000	  1.20201E-001	  9.77622E-002	  6.56175E-002	  6.67012E-002
  1.63840E+000	  1.09325E-001	  8.13059E-002	  5.74799E-002	  6.07592E-002
  1.84320E+000	  8.33042E-002	  6.54963E-002	  4.83234E-002	  5.19971E-002
  2.04800E+000	  5.91450E-002	  4.88180E-002	  3.75916E-002	  4.18441E-002
  2.25280E+000	  3.90311E-002	  3.62390E-002	  3.75321E-002	  3.42064E-002
  2.45760E+000	  2.84904E-002	  2.43317E-002	  3.83588E-002	  2.82672E-002
  2.66240E+000	  2.29408E-002	  1.12829E-002	  3.82164E-002	  2.42547E-002
  2.86720E+000	  1.23291E-002	  4.39527E-003	  2.97571E-002	  2.37472E-002
  3.07200E+000	  5.71383E-003	  1.58206E-003	  2.53713E-002	  2.75961E-002
  3.27680E+000	 -5.88511E-004	 -4.49024E-003	  2.06134E-002	  2.79342E-002
  3.68640E+000	  3.17034E-003	 -9.58899E-003	  1.44014E-002	  1.91988E-002
  4.09600E+000	  9.56596E-003	 -7.58001E-003	  3.93460E-003	  1.57677E-002
  4.50560E+000	  1.06993E-002	 -4.73083E-003	 -6.51815E-004	  5.18331E-003
  4.91520E+000	  7.96609E-003	 -6.46537E-003	  5.69518E-003	 -1.02392E-002
  5.32480E+000	  6.60327E-003	 -6.44550E-003	  1.19550E-002	 -1.50895E-002
  5.73440E+000	  2.82472E-003	 -1.51890E-002	  9.62225E-003	 -1.41097E-002
  6.14400E+000	  2.97769E-004	 -1.22399E-002	  1.03101E-002	 -2.34513E-002
  6.55360E+000	 -1.21360E-002	 -1.64281E-003	  7.28551E-003	 -2.49010E-002
  7.37280E+000	 -1.29518E-002	  1.32795E-003	  1.27680E-002	 -1.51535E-002
  8.19200E+000	  4.37821E-003	 -1.29704E-002	  1.50700E-002	 -1.10692E-002
  9.01120E+000	  1.33465E-002	 -8.07748E-003	  1.28962E-002	 -1.09979E-002
  9.83040E+000	  1.89409E-002	 -1.11582E-002	  1.47190E-002	 -1.32747E-002
  1.06496E+001	 -3.48987E-003	 -3.72554E-003	  4.58836E-003	 -4.15091E-003
  1.14688E+001	 -5.46710E-003	  1.64495E-002	  1.87474E-003	  1.68758E-004
  1.22880E+001	 -1.41830E-002	  2.10518E-002	  1.03662E-002	 -9.14252E-003
  1.31072E+001	 -1.14791E-002	  3.07483E-002	  1.82052E-002	 -7.52059E-003
  1.47456E+001	  1.77590E-003	  9.11305E-003	  1.16611E-002	 -2.50215E-002
  1.63840E+001	 -9.68599E-004	 -1.95539E-002	 -1.90206E-004	 -1.63046E-002
  1.80224E+001	  8.42398E-003	 -1.89530E-002	 -3.85552E-003	 -8.38550E-003
  1.96608E+001	  1.95515E-002	  5.68516E-003	 -1.08265E-002	 -1.24134E-002
  2.12992E+001	  3.18183E-002	 -3.22627E-003	 -6.01883E-003	  5.27040E-003
  2.29376E+001	 -1.31580E-002	 -5.04245E-002	 -1.71704E-002	  1.37131E-002
  2.45760E+001	 -2.14155E-002	 -2.90819E-002	 -2.37343E-002	  9.32830E-003
  2.62144E+001	  1.75574E-003	  4.60949E-004	 -5.86148E-003	  1.54520E-002
  2.94912E+001	 -4.35395E-003	 -6.52302E-005	 -5.78690E-003	  4.04943E-002
  3.27680E+001	  3.63116E-003	 -9.16017E-003	 -1.15085E-003	  6.34107E-003
  3.60448E+001	 -4.08285E-003	 -3.18880E-002	 -1.33686E-002	  1.23471E-002
  3.93216E+001	 -1.22068E-003	  1.11565E-002	 -1.30302E-002	  8.71331E-004
  4.25984E+001	  1.77351E-002	 -6.94257E-003	  1.94780E-002	 -1.23687E-002
  4.58752E+001	  1.86756E-002	  2.84068E-002	 -6.79362E-003	 -9.66197E-003
  4.91520E+001	 -8.75462E-003	 -5.47785E-003	  5.98382E-003	 -7.60316E-003
  5.24288E+001	 -2.06101E-002	 -9.51516E-003	  3.96909E-003	 -1.65704E-003
  5.89824E+001	  1.09030E-003	  1.55844E-003	 -5.13030E-003	 -2.16524E-002
  6.55360E+001	 -2.11630E-003	 -9.97158E-004	 -6.08872E-003	 -1.46054E-002
  7.20896E+001	 -2.94411E-002	  1.24551E-003	  2.36658E-002	 -1.61512E-002
  7.86432E+001	  3.27911E-003	 -2.44335E-003	  2.95126E-003	  1.41215E-002
  8.51968E+001	  1.11471E-003	  2.86973E-002	  5.38805E-003	  8.29710E-003
  9.17504E+001	 -1.57586E-002	  2.47553E-004	  2.87084E-003	 -2.10928E-002
  9.83040E+001	 -3.20298E-003	  4.25744E-003	 -1.21519E-002	 -1.58042E-002
  1.04858E+002	  1.84212E-002	  1.44695E-002	 -3.19563E-003	  5.95786E-003
  1.17965E+002	  5.10045E-003	 -7.14560E-003	 -1.75014E-002	  1.46522E-002
  1.31072E+002	 -5.95247E-003	  6.50997E-003	 -1.68318E-002	 -9.11313E-003
  1.44179E+002	  5.13693E-003	 -6.72444E-003	  1.27635E-002	 -1.21100E-003
  1.57286E+002	  7.67245E-003	 -9.41592E-003	  7.60797E-003	  6.85541E-004
  1.70394E+002	 -1.44881E-003	 -3.36076E-003	  5.27964E-004	 -4.24651E-004
  1.83501E+002	  1.84763E-003	 -1.44383E-002	 -5.22060E-004	  2.88671E-003
  1.96608E+002	 -7.78194E-003	 -7.09796E-003	 -4.30403E-003	  7.46391E-003
  2.09715E+002	  1.02679E-002	  2.42092E-003	 -3.93002E-003	  5.93658E-003
  2.35930E+002	 -5.77966E-003	  1.38627E-002	  6.62464E-003	 -3.68357E-003
  2.62144E+002	  2.81223E-004	 -7.91434E-003	 -3.11034E-003	 -1.78945E-002
  2.88358E+002	  2.70181E-003	 -1.06470E-002	 -9.55475E-003	 -9.21738E-003
  3.14573E+002	 -2.92664E-003	  1.38623E-003	  1.34606E-002	  6.18622E-003
  3.40787E+002	  3.09574E-003	  8.09286E-003	 -7.63388E-003	  1.82401E-003
  3.67002E+002	 -1.29796E-002	  9.14530E-004	 -1.53064E-002	 -1.66453E-002
  3.93216E+002	 -3.85417E-004	  2.79078E-003	  1.78922E-003	 -6.21832E-003

"Count Rate"
       0.01311	      28.53394	      72.17407	      62.10327	      47.60742
       0.02621	      22.27783	      28.76282	      49.36218	      41.12244
       0.03932	      58.67004	      50.35400	      44.70825	      55.23682
       0.05243	      63.55286	      58.36487	      59.89075	      77.36206
       0.06554	      48.90442	      45.85266	      80.94788	      41.27502
       0.07864	      41.50391	      43.86902	      56.15234	      46.08154
       0.09175	      52.03247	      53.48206	      66.22314	      45.16602
       0.10486	      65.76538	      71.86890	      75.68359	      55.38940
       0.11796	      38.75732	      60.50110	      51.65100	      31.43311
       0.13107	      73.16589	      53.86353	      67.97791	      61.26404
       0.14418	      49.89624	      44.40308	      73.08960	      64.16321
       0.15729	      48.21777	      37.84180	      48.06519	      62.78992
       0.17039	      52.64282	      75.14954	      51.65100	      58.36487
       0.18350	      42.80090	      88.34839	      57.98340	      57.37305
       0.19661	      42.26685	      37.84180	      53.32947	      79.19312
       0.20972	      36.23962	      45.62378	      46.92078	      46.99707
       0.22282	      41.96167	      52.94800	      32.80640	      64.77356
       0.23593	      41.19873	      26.39771	      51.04065	      47.76001
       0.24904	      49.97253	      46.23413	      59.66187	      33.34045
       0.26214	      48.59924	      20.59937	      55.84717	      44.40308
       0.27525	      70.49561	      68.66455	      30.05981	      49.05701
       0.28836	      69.35120	      51.72729	      47.68372	      37.84180
       0.30147	      60.95886	      25.17700	      49.51477	      76.82800
       0.31457	      42.03796	      57.37305	      33.41675	      64.23950
       0.32768	      52.33765	      46.61560	      56.22864	      53.40576
       0.34079	      28.61023	      24.10889	      85.44922	      63.17139
       0.35389	      48.37036	      55.16052	      41.04614	      45.62378
       0.36700	      59.89075	      40.35950	      47.68372	      46.92078
       0.38011	      31.35681	      65.07874	      50.96436	      51.57471
       0.39322	      60.57739	      51.80359	      57.52563	      41.19873
       0.40632	     103.14941	      51.95618	      46.08154	      66.83350
       0.41943	      69.88525	      41.88538	      40.35950	      53.25317
       0.43254	      59.12781	      71.18225	      46.31042	      43.33496
       0.44564	      66.14685	      77.66724	      27.61841	      53.02429
       0.45875	      65.76538	      39.44397	      37.15515	      35.01892
       0.47186	      70.26672	      26.47400	      61.26404	      43.79272
       0.48497	      38.45215	      53.78723	      81.02417	      36.54480
       0.49807	      50.58289	      54.09241	      54.32129	      50.65918
       0.51118	      68.05420	      74.00513	      50.81177	      38.29956
       0.52429	      58.21228	      80.49011	      35.78186	      60.72998
       0.53740	      48.90442	      58.89893	      53.32947	      54.01611
       0.55050	      45.47119	      43.18237	      55.77087	      43.10608
       0.56361	      57.06787	      69.65637	      72.93701	      26.24512
       0.57672	      52.18506	      53.02429	      54.70276	      57.75452
       0.58982	      54.55017	      42.49573	      50.58289	      31.43311
       0.60293	      36.08704	      46.61560	      39.82544	      47.30225
       0.61604	     110.32104	      51.26953	      31.50940	      62.78992
       0.62915	      43.41125	      55.92346	      48.29407	      44.70825
       0.64225	      65.46021	      63.32397	      76.14136	      70.95337
       0.65536	      40.20691	      61.87439	      46.53931	      69.04602
       0.66847	      60.95886	      59.73816	      63.24768	      37.91809
       0.68157	      49.97253	      41.96167	      50.43030	      60.11963
       0.69468	      63.62915	      42.57202	      41.27502	      54.93164
       0.70779	      59.58557	      47.37854	      43.10608	      40.58838
       0.72090	      75.60730	      55.84717	      38.90991	      62.94250
       0.73400	      60.19592	      75.75989	      37.07886	      52.03247
       0.74711	      48.98071	      60.72998	      56.83899	      32.88269
