ALV-7004/USB-FAST
Date :	"11/11/2025"
Time :	"3:52:42 PM"
Samplename : 	""
SampMemo(0) : 	""
SampMemo(1) : 	""
SampMemo(2) : 	""
SampMemo(3) : 	""
SampMemo(4) : 	""
SampMemo(5) : 	""
SampMemo(6) : 	""
SampMemo(7) : 	""
SampMemo(8) : 	""
SampMemo(9) : 	""
Temperature [K] :	     298.16000
Viscosity [cp]  :	       0.89000
Refractive Index:	       1.33200
Wavelength [nm] :	       0.00000
Angle [°]       :	       0.00000
Duration [s]    :	         1
FloatDur [ms]   :	          944
Stop TP [ms]   :	     58008
Runs            :	         1
Mode            :	"A-CH0+1  A-CH2+3 "
MeanCR0 [kHz]   :	      59.36305
MeanCR1 [kHz]   :	      61.90830
MeanCR2 [kHz]   :	      61.39967
MeanCR3 [kHz]   :	      58.83641

"Correlation"
  3.12500E-006	 -1.00000E+000	 -1.00000E+000	 -1.00000E+000	 -1.00000E+000
  6.25000E-006	 -1.00000E+000	 -1.00000E+000	 -1.00000E+000	 -1.00000E+000
  9.37500E-006	 -1.00000E+000	 -1.00000E+000	 -1.00000E+000	 -1.00000E+000
  1.25000E-005	 -1.00000E+000	 -1.00000E+000	 -1.00000E+000	 -1.00000E+000
  1.56250E-005	 -1.00000E+000	 -1.00000E+000	 -1.00000E+000	 -1.00000E+000
  1.87500E-005	 -1.00000E+000	 -1.00000E+000	 -1.00000E+000	 -1.00000E+000
  2.18750E-005	 -9.03778E-001	 -1.15272E-001	  7.08949E-001	 -8.04095E-001
  2.50000E-005	  1.10278E+001	  1.13862E+001	  1.00632E+001	  2.59369E+001
  2.81250E-005	  2.56022E+000	  1.21182E+000	  1.69834E+000	  7.81572E+000
  3.12500E-005	  1.50178E+000	  1.03487E+000	  9.78783E-001	  4.77919E+000
  3.43750E-005	  1.40555E+000	  1.03487E+000	  7.08949E-001	  3.01605E+000
  3.75000E-005	  5.39555E-001	  1.21182E+000	  7.98893E-001	  3.89762E+000
  4.06250E-005	  1.11689E+000	  1.12335E+000	  2.59225E-001	  2.82015E+000
  4.37500E-005	  1.40555E+000	  1.12335E+000	  7.08949E-001	  3.40786E+000
  4.68750E-005	  1.21311E+000	  3.27092E-001	  1.15867E+000	  1.84062E+000
  5.00000E-005	  8.76332E-001	  5.92510E-001	  1.02375E+000	  1.93857E+000
  5.62500E-005	  1.35744E+000	  9.46402E-001	  8.43866E-001	  1.84062E+000
  6.25000E-005	  4.43333E-001	  8.13692E-001	  7.53921E-001	  6.16215E-001
  6.87500E-005	  8.76332E-001	  7.69456E-001	  1.20364E+000	  1.35086E+000
  7.50000E-005	  7.80110E-001	  5.92510E-001	  1.38353E+000	  1.00802E+000
  8.12500E-005	  7.31999E-001	  7.69456E-001	  8.43866E-001	  1.44881E+000
  8.75000E-005	  1.11689E+000	  1.21182E+000	  1.11370E+000	  6.65191E-001
  9.37500E-005	  9.72554E-001	  1.05910E-001	  5.29059E-001	  3.71334E-001
  1.00000E-004	  5.63610E-001	  2.60737E-001	  7.08948E-001	  1.17944E+000
  1.12500E-004	  2.26833E-001	  7.03101E-001	  8.88838E-001	  1.05700E+000
  1.25000E-004	  3.47110E-001	  6.58865E-001	  1.69281E-001	  6.65191E-001
  1.37500E-004	  6.59832E-001	  6.14628E-001	  2.36739E-001	  8.85584E-001
  1.50000E-004	  1.14094E+000	  2.82855E-001	  4.16628E-001	  6.40703E-001
  1.62500E-004	  3.23055E-001	  6.80983E-001	  3.49170E-001	  5.67239E-001
  1.75000E-004	  7.31999E-001	  7.91574E-001	  4.39114E-001	  3.71334E-001
  1.87500E-004	  3.23055E-001	  7.69456E-001	  3.94142E-001	  6.16215E-001
  2.00000E-004	  2.26832E-001	  6.58864E-001	  2.70468E-001	  4.44798E-001
  2.25000E-004	  2.74943E-001	  3.60269E-001	  5.29059E-001	  6.77435E-001
  2.50000E-004	  3.83193E-001	  7.91574E-001	  5.40302E-001	  6.28459E-001
  2.75000E-004	  5.75638E-001	  4.04505E-001	  4.61600E-001	  3.59090E-001
  3.00000E-004	  4.31304E-001	  5.26155E-001	  5.85274E-001	  5.79482E-001
  3.25000E-004	  5.87665E-001	  5.81451E-001	  4.27871E-001	  2.97869E-001
  3.50000E-004	  4.67388E-001	  5.04037E-001	  4.05385E-001	  7.14167E-001
  3.75000E-004	  5.63610E-001	  7.36278E-001	  6.07760E-001	  4.69286E-001
  4.00000E-004	  4.55359E-001	  4.59800E-001	  5.34680E-001	  5.12140E-001
  4.50000E-004	  4.31304E-001	  3.82387E-001	  5.17815E-001	  4.99895E-001
  5.00000E-004	  6.29762E-001	  5.09566E-001	  4.22249E-001	  4.69285E-001
  5.50000E-004	  6.05706E-001	  5.75921E-001	  4.89707E-001	  4.63163E-001
  6.00000E-004	  5.63609E-001	  4.76389E-001	  3.77277E-001	  4.57041E-001
  6.50000E-004	  5.51581E-001	  6.80982E-001	  3.37926E-001	  4.69285E-001
  7.00000E-004	  3.89207E-001	  6.09098E-001	  3.99763E-001	  5.12140E-001
  7.50000E-004	  3.11026E-001	  5.59332E-001	  3.82898E-001	  6.03970E-001
  8.00000E-004	  5.90670E-001	  4.62564E-001	  3.74465E-001	  5.18260E-001
  9.00000E-004	  4.16268E-001	  3.63032E-001	  4.58788E-001	  4.57040E-001
  1.00000E-003	  4.49344E-001	  5.15094E-001	  4.39112E-001	  4.81528E-001
  1.10000E-003	  6.02698E-001	  5.42742E-001	  5.51543E-001	  5.36626E-001
  1.20000E-003	  4.79413E-001	  4.73623E-001	  4.70031E-001	  5.76419E-001
  1.30000E-003	  4.67386E-001	  3.68561E-001	  4.50355E-001	  5.61114E-001
  1.40000E-003	  4.22282E-001	  4.90211E-001	  4.95328E-001	  5.24382E-001
  1.50000E-003	  2.86969E-001	  4.51505E-001	  5.26246E-001	  5.09077E-001
  1.60000E-003	  4.29797E-001	  4.86087E-001	  5.51540E-001	  4.67751E-001
  1.80000E-003	  4.26790E-001	  4.36321E-001	  4.30678E-001	  4.20306E-001
  2.00000E-003	  4.05741E-001	  4.72263E-001	  4.29272E-001	  4.96831E-001
  2.20000E-003	  3.89203E-001	  3.98996E-001	  4.99541E-001	  4.52446E-001
  2.40000E-003	  5.04970E-001	  4.08672E-001	  4.85487E-001	  4.90709E-001
  2.60000E-003	  4.50845E-001	  4.77793E-001	  4.01165E-001	  3.88165E-001
  2.80000E-003	  5.26018E-001	  3.83789E-001	  4.44731E-001	  3.48372E-001
  3.00000E-003	  4.05741E-001	  3.68583E-001	  3.95543E-001	  4.47855E-001
  3.20000E-003	  3.88471E-001	  4.43944E-001	  3.96241E-001	  4.18031E-001
  3.60000E-003	  3.74940E-001	  4.32884E-001	  4.17322E-001	  4.06552E-001
  4.00000E-003	  3.71933E-001	  3.72749E-001	  4.12403E-001	  4.78486E-001
  4.40000E-003	  3.45622E-001	  3.65837E-001	  4.13808E-001	  3.43035E-001
  4.80000E-003	  4.76425E-001	  4.48757E-001	  4.14511E-001	  4.48641E-001
  5.20000E-003	  3.92230E-001	  4.21800E-001	  4.46835E-001	  3.22373E-001
  5.60000E-003	  3.82457E-001	  4.26639E-001	  4.25051E-001	  4.51702E-001
  6.00000E-003	  4.23803E-001	  3.67196E-001	  4.49645E-001	  4.11143E-001
  6.40000E-003	  4.06153E-001	  4.01127E-001	  4.11339E-001	  3.95471E-001
  7.20000E-003	  4.22691E-001	  4.07002E-001	  3.86043E-001	  4.38683E-001
  8.00000E-003	  3.82097E-001	  3.94906E-001	  3.88151E-001	  3.59096E-001
  8.80000E-003	  4.11766E-001	  3.63455E-001	  3.45287E-001	  3.87411E-001
  9.60000E-003	  3.94476E-001	  3.60344E-001	  3.83232E-001	  4.01185E-001
  1.04000E-002	  3.86958E-001	  3.36842E-001	  3.47395E-001	  3.77870E-001
  1.12000E-002	  3.60296E-001	  3.59284E-001	  3.51963E-001	  3.83609E-001
  1.20000E-002	  4.03522E-001	  3.67233E-001	  3.39666E-001	  3.44198E-001
  1.28000E-002	  3.58095E-001	  3.71157E-001	  3.23532E-001	  3.57022E-001
  1.44000E-002	  3.89858E-001	  3.57159E-001	  3.27748E-001	  3.55300E-001
  1.60000E-002	  3.56028E-001	  3.69751E-001	  3.39167E-001	  3.28133E-001
  1.76000E-002	  3.62042E-001	  3.22572E-001	  3.61829E-001	  3.49752E-001
  1.92000E-002	  3.38173E-001	  3.22895E-001	  3.24586E-001	  3.17419E-001
  2.08000E-002	  3.42871E-001	  3.35856E-001	  3.11937E-001	  3.33849E-001
  2.24000E-002	  3.18979E-001	  3.00947E-001	  2.99991E-001	  2.91568E-001
  2.40000E-002	  3.00373E-001	  3.23218E-001	  2.91559E-001	  2.85829E-001
  2.56000E-002	  3.02145E-001	  3.03727E-001	  2.85354E-001	  3.09778E-001
  2.88000E-002	  3.01393E-001	  2.78579E-001	  3.00462E-001	  2.65966E-001
  3.20000E-002	  2.82387E-001	  2.96619E-001	  2.66095E-001	  2.74288E-001
  3.52000E-002	  2.67445E-001	  2.64450E-001	  2.70290E-001	  2.74384E-001
  3.84000E-002	  2.70381E-001	  2.37488E-001	  2.55885E-001	  2.72566E-001
  4.16000E-002	  2.40308E-001	  2.24936E-001	  2.40447E-001	  2.36216E-001
  4.48000E-002	  2.47450E-001	  2.33837E-001	  2.32014E-001	  2.29806E-001
  4.80000E-002	  2.19445E-001	  2.24093E-001	  2.22879E-001	  2.08835E-001
  5.12000E-002	  2.11344E-001	  2.06470E-001	  2.15561E-001	  1.97107E-001
  5.76000E-002	  1.93715E-001	  1.89226E-001	  1.76076E-001	  1.61116E-001
  6.40000E-002	  1.77501E-001	  1.91412E-001	  1.76778E-001	  1.76518E-001
  7.04000E-002	  1.78702E-001	  1.50184E-001	  1.55916E-001	  1.56614E-001
  7.68000E-002	  1.50994E-001	  1.49901E-001	  1.39773E-001	  1.35232E-001
  8.32000E-002	  1.42440E-001	  1.43682E-001	  1.39226E-001	  1.30948E-001
  8.96000E-002	  1.34524E-001	  1.15833E-001	  1.25635E-001	  1.11048E-001
  9.60000E-002	  1.30187E-001	  1.02374E-001	  1.03455E-001	  9.71006E-002
  1.02400E-001	  1.15350E-001	  1.07108E-001	  1.00577E-001	  8.96967E-002
  1.15200E-001	  9.21170E-002	  7.88223E-002	  7.73188E-002	  8.01814E-002
  1.28000E-001	  9.13843E-002	  7.32931E-002	  7.41157E-002	  7.26379E-002
  1.40800E-001	  7.07956E-002	  6.19293E-002	  5.87021E-002	  6.11566E-002
  1.53600E-001	  6.84963E-002	  4.50442E-002	  5.07998E-002	  5.22636E-002
  1.66400E-001	  4.82092E-002	  4.59630E-002	  4.63597E-002	  3.91457E-002
  1.79200E-001	  3.79727E-002	  3.02094E-002	  3.57303E-002	  3.42315E-002
  1.92000E-001	  3.20818E-002	  4.11299E-002	  2.72092E-002	  3.58184E-002
  2.04800E-001	  2.67495E-002	  3.12226E-002	  2.77565E-002	  2.54789E-002
  2.30400E-001	  3.13848E-002	  2.59296E-002	  2.65811E-002	  2.58660E-002
  2.56000E-001	  3.25117E-002	  1.37299E-002	  2.17236E-002	  1.14992E-002
  2.81600E-001	  2.44023E-002	  8.70628E-003	  1.63296E-002	  1.45331E-002
  3.07200E-001	  2.16241E-002	 -2.94813E-003	  1.33854E-002	  5.05701E-003
  3.32800E-001	  9.43982E-003	 -3.40211E-003	  8.65050E-003	  1.23310E-002
  3.58400E-001	  9.72371E-003	 -4.40735E-003	  1.22429E-002	  2.04659E-002
  3.84000E-001	  8.83686E-003	 -1.21481E-002	  1.25570E-002	  1.45501E-002
  4.09600E-001	  5.89712E-003	 -6.21095E-003	  5.56283E-003	  7.71969E-003
  4.60800E-001	 -4.14512E-003	 -3.34688E-003	  4.17076E-003	  4.28304E-005
  5.12000E-001	 -3.12712E-003	  2.28509E-004	  6.84241E-003	 -5.94083E-003
  5.63200E-001	 -4.90378E-003	 -1.89795E-003	  4.81483E-003	 -9.49499E-003
  6.14400E-001	  5.80452E-004	  8.17960E-004	 -2.72802E-003	 -1.25944E-002
  6.65600E-001	 -4.70359E-003	 -1.57629E-003	 -6.75034E-003	 -7.22736E-003
  7.16800E-001	 -1.06875E-002	 -5.17966E-003	 -9.35983E-003	  1.47283E-003
  7.68000E-001	 -7.78190E-003	 -5.78846E-003	 -5.23024E-003	  5.00264E-003
  8.19200E-001	 -9.01266E-003	 -1.02238E-002	  1.20231E-003	 -6.13079E-004
  9.21600E-001	  6.75791E-004	 -5.19217E-003	 -8.84278E-003	 -1.91265E-003
  1.02400E+000	  9.74250E-004	  2.29163E-003	 -1.06601E-002	 -4.22720E-003
  1.12640E+000	  2.13275E-003	  5.65881E-003	  1.84047E-003	 -1.02207E-002
  1.22880E+000	  1.67935E-003	  2.30524E-003	  5.91293E-003	 -9.18761E-003
  1.33120E+000	 -2.25543E-004	  2.96173E-003	 -6.16901E-003	 -8.65293E-004
  1.43360E+000	 -1.34254E-003	  3.78177E-003	 -2.88970E-003	  5.75090E-003
  1.53600E+000	  4.14528E-003	  3.61401E-003	 -5.13373E-003	  8.51569E-003
  1.63840E+000	  4.49584E-003	  7.00214E-003	 -4.05039E-003	  1.01631E-002
  1.84320E+000	  6.79845E-004	  1.40625E-004	 -1.82502E-003	  1.41457E-003
  2.04800E+000	  4.28189E-003	 -1.68783E-003	 -1.26296E-003	 -2.07224E-003
  2.25280E+000	  2.62011E-003	  8.45487E-003	  4.56672E-003	 -6.15272E-003
  2.45760E+000	 -4.43157E-004	  2.83801E-003	  7.17596E-003	 -4.94192E-003
  2.66240E+000	  3.53539E-003	 -1.49363E-003	 -1.65758E-003	 -3.68783E-003
  2.86720E+000	  8.01704E-004	 -4.88547E-003	  6.20372E-003	 -6.02519E-003
  3.07200E+000	 -4.56711E-003	 -4.25179E-003	  2.47855E-003	  8.03645E-003
  3.27680E+000	 -2.40057E-003	  2.17048E-003	 -5.50611E-003	  5.74144E-003
  3.68640E+000	  2.66695E-003	 -1.65995E-003	 -2.10614E-004	  4.71260E-003
  4.09600E+000	 -2.00608E-003	  2.20232E-003	 -3.81150E-003	  2.09959E-003
  4.50560E+000	 -4.67095E-003	  2.39041E-003	 -4.56067E-003	 -4.21521E-003
  4.91520E+000	 -1.65139E-003	 -2.91653E-003	  3.14118E-003	  1.66576E-004
  5.32480E+000	  1.81411E-003	  2.95573E-004	 -3.17372E-003	 -3.27471E-003
  5.73440E+000	 -6.10949E-003	  1.90034E-003	 -7.08378E-003	  6.36666E-003
  6.14400E+000	 -3.70570E-003	 -3.10136E-005	  1.31024E-003	  5.42190E-003
  6.55360E+000	 -3.31409E-003	 -8.38224E-005	  7.66027E-003	 -1.99164E-003
  7.37280E+000	 -2.44234E-003	  1.07623E-003	  3.39493E-003	  2.24092E-003
  8.19200E+000	  1.97417E-003	 -3.28643E-003	  3.03296E-003	 -2.26825E-003
  9.01120E+000	 -5.15294E-003	 -4.86067E-003	 -6.55084E-004	  2.66907E-004
  9.83040E+000	  3.00665E-004	  4.04049E-003	 -8.29584E-003	  3.92366E-003
  1.06496E+001	  7.57561E-004	 -3.28982E-004	  2.40641E-003	 -3.48363E-003
  1.14688E+001	 -6.81005E-004	  1.91535E-003	  2.67326E-003	 -2.00337E-003
  1.22880E+001	 -9.28718E-005	  5.44015E-003	 -1.05282E-003	 -2.60703E-003
  1.31072E+001	  4.12472E-004	  5.11411E-003	 -9.03136E-005	  3.85914E-004
  1.47456E+001	  3.18109E-003	  3.49860E-003	 -2.29444E-003	  3.10254E-004
  1.63840E+001	  8.91981E-004	 -3.60948E-003	 -1.92967E-003	 -2.73004E-003
  1.80224E+001	  3.88841E-004	 -1.00251E-003	  3.80599E-003	  4.42951E-004
  1.96608E+001	 -1.11328E-003	 -2.94771E-003	  1.45087E-003	 -1.86517E-003
  2.12992E+001	  3.83656E-003	 -9.40958E-005	  3.82656E-007	  8.47112E-004
  2.29376E+001	  2.22676E-003	 -1.56108E-003	 -1.91977E-003	 -8.15030E-004
  2.45760E+001	  1.72980E-003	  3.34034E-003	  7.05641E-004	 -6.43880E-004
  2.62144E+001	 -4.92760E-004	  2.56613E-003	 -8.98326E-004	 -6.80633E-005
  2.94912E+001	 -7.73177E-004	 -6.62925E-004	 -6.09430E-004	  5.57388E-004
  3.27680E+001	  2.63898E-004	 -1.91203E-003	  4.05282E-004	  2.04233E-004
  3.60448E+001	 -1.60116E-004	 -2.55892E-003	  1.12485E-003	 -1.94425E-004
  3.93216E+001	  7.90021E-004	 -2.14772E-004	  2.87024E-004	 -4.83566E-004
  4.25984E+001	  1.48740E-003	  1.60462E-006	  1.94163E-003	  1.09426E-003
  4.58752E+001	  5.62930E-004	 -4.66415E-004	  3.24271E-003	  1.20462E-003
  4.91520E+001	  6.94132E-004	 -5.20905E-003	 -1.98886E-004	  1.98382E-003
  5.24288E+001	 -7.84080E-004	 -2.68870E-003	  1.36999E-004	  8.53455E-004
  5.89824E+001	  1.29050E-003	  6.07555E-004	 -2.55042E-004	 -4.71871E-004
  6.55360E+001	 -9.72668E-004	 -1.80641E-003	  1.02113E-003	  2.90798E-004
  7.20896E+001	 -3.14412E-004	 -2.19573E-004	  1.36580E-003	 -1.06269E-003
  7.86432E+001	  3.31465E-004	 -1.41680E-003	  7.17833E-004	 -4.44715E-004
  8.51968E+001	 -4.90425E-004	 -8.38809E-004	  2.36067E-003	 -4.50174E-004
  9.17504E+001	  5.03911E-004	 -5.87900E-004	  8.09884E-004	 -3.67763E-004
  9.83040E+001	  6.35293E-005	  1.31407E-003	 -2.07125E-003	  1.04491E-003
  1.04858E+002	 -2.80467E-004	  1.16988E-003	  2.67615E-004	  1.79814E-004
  1.17965E+002	  4.57194E-004	  8.25833E-004	  4.47590E-004	 -5.44224E-004
  1.31072E+002	  4.28370E-004	  8.01776E-004	 -1.60963E-004	  8.63890E-005
  1.44179E+002	 -9.32015E-004	 -1.54792E-004	 -1.94313E-004	  3.41247E-004
  1.57286E+002	 -1.50430E-004	 -4.42397E-004	  1.01839E-003	  1.06022E-004
  1.70394E+002	  3.08459E-005	 -1.38629E-003	 -4.20630E-004	 -3.92714E-004
  1.83501E+002	 -7.36362E-004	 -1.14773E-003	 -7.79423E-004	  1.06089E-003
  1.96608E+002	  1.42234E-004	 -8.17229E-005	 -5.82094E-004	 -7.07566E-004
  2.09715E+002	  4.11649E-005	  3.34410E-005	 -1.69904E-003	 -1.46388E-004
  2.35930E+002	  1.62254E-004	 -2.91351E-004	 -1.01380E-003	  5.46353E-004
  2.62144E+002	 -3.89215E-004	 -6.79327E-005	 -8.47500E-004	 -4.12397E-004
  2.88358E+002	 -4.99931E-005	  3.95859E-004	 -1.49990E-003	 -5.26575E-004
  3.14573E+002	 -2.05385E-004	  8.17859E-004	 -8.66162E-004	 -7.92208E-004
  3.40787E+002	  1.09715E-004	 -5.52011E-004	 -6.57868E-004	 -3.81955E-004
  3.67002E+002	 -8.19007E-005	 -6.09937E-004	  2.89447E-004	 -7.33308E-004
  3.93216E+002	  7.35234E-004	  1.88533E-004	 -2.63978E-004	  1.25637E-003

"Count Rate"
       0.01311	      47.30225	      62.25586	      54.47388	      54.85535
       0.02621	      62.33215	      60.95886	      69.58008	      52.41394
       0.03932	      54.85535	      51.87988	      60.04333	      57.90710
       0.05243	      58.97522	      54.32129	      58.05969	      44.25049
       0.06554	      61.34033	      57.90710	      55.69458	      57.90710
       0.07864	      61.34033	      67.59644	      57.83081	      65.76538
       0.09175	      56.83899	      64.46838	      55.46570	      53.93982
       0.10486	      55.99976	      68.05420	      63.17139	      50.65918
       0.11796	      69.88525	      65.23132	      57.83081	      65.46021
       0.13107	      55.84717	      62.86621	      61.03516	      57.83081
       0.14418	      48.52295	      45.54749	      55.69458	      67.13867
       0.15729	      66.45203	      58.21228	      61.64551	      50.58289
       0.17039	      56.45752	      55.31311	      64.92615	      65.46021
       0.18350	      65.53650	      65.07874	      53.25317	      62.25586
       0.19661	      66.07056	      67.97791	      57.29675	      65.00244
       0.20972	      64.92615	      68.28308	      68.51196	      56.99158
       0.22282	      59.05151	      64.16321	      61.79810	      60.57739
       0.23593	      64.77356	      67.82532	      57.75452	      57.14417
       0.24904	      64.46838	      68.43567	      64.23950	      61.95068
       0.26214	      55.61829	      52.33765	      62.10327	      64.69727
       0.27525	      61.34033	      53.25317	      54.85535	      59.66187
       0.28836	      60.34851	      64.46838	      62.63733	      56.83899
       0.30147	      57.22046	      59.89075	      58.28857	      63.55286
       0.31457	      59.12781	      67.06238	      62.17957	      55.08423
       0.32768	      58.67004	      58.82263	      60.19592	      62.02698
       0.34079	      57.60193	      57.67822	      59.73816	      57.67822
       0.35389	      58.44116	      63.17139	      56.83899	      56.99158
       0.36700	      54.01611	      58.44116	      62.02698	      59.81445
       0.38011	      61.56921	      59.35669	      61.34033	      55.46570
       0.39322	      55.92346	      59.12781	      64.46838	      55.00793
       0.40632	      54.62646	      57.29675	      59.58557	      63.93433
       0.41943	      57.29675	      60.65369	      53.93982	      62.78992
       0.43254	      58.36487	      59.58557	      52.94800	      56.83899
       0.44564	      56.99158	      61.34033	      56.45752	      55.38940
       0.45875	      63.17139	      59.89075	      55.77087	      57.22046
       0.47186	      55.23682	      55.23682	      57.83081	      64.31580
       0.48497	      61.79810	      63.78174	      62.48474	      50.04883
       0.49807	      55.16052	      63.40027	      54.62646	      56.22864
       0.51118	      57.67822	      64.54468	      53.93982	      55.31311
       0.52429	      55.77087	      59.81445	      55.31311	      55.61829
       0.53740	      61.41663	      59.81445	      57.75452	      58.28857
       0.55050	      56.22864	      64.16321	      53.78723	      56.30493
       0.56361	      60.57739	      65.00244	      60.57739	      61.49292
       0.57672	      56.53381	      53.63464	      60.42480	      58.13599
       0.58982	      57.37305	      56.91528	      52.64282	      51.65100
       0.60293	      57.75452	      65.91797	      59.81445	      63.70544
       0.61604	      54.16870	      66.52832	      65.68909	      54.01611
       0.62915	      64.69727	      56.91528	      63.01880	      56.53381
       0.64225	      55.84717	      63.78174	      67.44385	      56.53381
       0.65536	      64.01062	      61.34033	      62.94250	      68.05420
       0.66847	      64.54468	      59.50928	      53.78723	      54.32129
       0.68157	      61.79810	      59.28040	      66.22314	      54.62646
       0.69468	      58.89893	      55.77087	      61.56921	      54.39758
       0.70779	      60.27222	      59.96704	      65.07874	      53.48206
       0.72090	      55.08423	      62.48474	      62.86621	      58.28857
       0.73400	      57.90710	      57.83081	      63.40027	      53.40576
       0.74711	      47.83630	      69.50378	      63.01880	      60.34851
