ALV-7004/USB-FAST
Date :	"11/11/2025"
Time :	"3:53:21 PM"
Samplename : 	""
SampMemo(0) : 	""
SampMemo(1) : 	""
SampMemo(2) : 	""
SampMemo(3) : 	""
SampMemo(4) : 	""
SampMemo(5) : 	""
SampMemo(6) : 	""
SampMemo(7) : 	""
SampMemo(8) : 	""
SampMemo(9) : 	""
Temperature [K] :	     298.16000
Viscosity [cp]  :	       0.89000
Refractive Index:	       1.33200
Wavelength [nm] :	       0.00000
Angle [°]       :	       0.00000
Duration [s]    :	         1
FloatDur [ms]   :	          944
Stop TP [ms]   :	     58144
Runs            :	         1
Mode            :	"A-CH0+1  A-CH2+3 "
MeanCR0 [kHz]   :	      58.18579
MeanCR1 [kHz]   :	      59.01125
MeanCR2 [kHz]   :	      58.07877
MeanCR3 [kHz]   :	      56.97780

"Correlation"
  3.12500E-006	 -1.00000E+000	 -1.00000E+000	 -1.00000E+000	 -1.00000E+000
  6.25000E-006	 -1.00000E+000	 -1.00000E+000	 -1.00000E+000	 -1.00000E+000
  9.37500E-006	 -1.00000E+000	 -1.00000E+000	 -1.00000E+000	 -1.00000E+000
  1.25000E-005	 -1.00000E+000	 -1.00000E+000	 -1.00000E+000	 -1.00000E+000
  1.56250E-005	 -1.00000E+000	 -1.00000E+000	 -1.00000E+000	 -1.00000E+000
  1.87500E-005	 -1.00000E+000	 -1.00000E+000	 -1.00000E+000	 -1.00000E+000
  2.18750E-005	 -1.00000E+000	  1.68474E-001	  9.09969E-001	 -1.00000E+000
  2.50000E-005	  1.30217E+001	  1.27296E+001	  1.15656E+001	  2.63651E+001
  2.81250E-005	  3.60714E+000	  2.11593E+000	  1.91522E+000	  8.81802E+000
  3.12500E-005	  1.90450E+000	  1.14220E+000	  1.01049E+000	  3.38678E+000
  3.43750E-005	  8.02794E-001	  1.14220E+000	  8.09445E-001	  3.59567E+000
  3.75000E-005	  1.10326E+000	  1.33695E+000	  1.21154E+000	  4.11791E+000
  4.06250E-005	  1.70419E+000	  7.11015E-002	  4.07346E-001	  3.70012E+000
  4.37500E-005	  1.20342E+000	  5.57966E-001	  1.31207E+000	  2.76009E+000
  4.68750E-005	  1.10326E+000	  5.57966E-001	  1.31207E+000	  2.76009E+000
  5.00000E-005	  8.52872E-001	  5.09279E-001	  1.06076E+000	  2.29008E+000
  5.62500E-005	  8.02794E-001	  7.04025E-001	  8.09444E-001	  2.13341E+000
  6.25000E-005	  8.52872E-001	  8.98771E-001	  6.58657E-001	  1.29783E+000
  6.87500E-005	  1.51785E-001	  1.23958E+000	  8.09444E-001	  1.55895E+000
  7.50000E-005	  4.52251E-001	  2.65847E-001	  6.58657E-001	  1.08894E+000
  8.12500E-005	  1.55396E+000	  3.14534E-001	  3.06821E-001	  1.19339E+000
  8.75000E-005	  7.02639E-001	  4.11906E-001	  2.56559E-001	  1.14116E+000
  9.37500E-005	  9.53027E-001	  6.55339E-001	  1.56034E-001	  6.71153E-001
  1.00000E-004	  7.52716E-001	  8.98771E-001	  2.56559E-001	  6.97264E-001
  1.12500E-004	  9.02949E-001	  3.14533E-001	  8.34575E-001	  8.80046E-001
  1.25000E-004	  3.02018E-001	  5.82309E-001	  5.07870E-001	  9.06158E-001
  1.37500E-004	  6.02484E-001	  4.84936E-001	  5.83264E-001	  9.06158E-001
  1.50000E-004	  4.77290E-001	  1.92817E-001	  6.33526E-001	  5.40594E-001
  1.62500E-004	  7.27678E-001	  6.55338E-001	  6.33526E-001	  1.01061E+000
  1.75000E-004	  4.77290E-001	  5.09279E-001	  6.08395E-001	  7.23376E-001
  1.87500E-004	  3.77134E-001	  8.01398E-001	  4.57608E-001	  4.62258E-001
  2.00000E-004	  4.77289E-001	  4.36249E-001	  5.20436E-001	  8.66990E-001
  2.25000E-004	  5.89964E-001	  6.18823E-001	  5.70698E-001	  4.62258E-001
  2.50000E-004	  4.39731E-001	  7.52711E-001	  4.82739E-001	  5.14482E-001
  2.75000E-004	  5.39886E-001	  3.75391E-001	  6.20960E-001	  2.40308E-001
  3.00000E-004	  5.39886E-001	  6.79681E-001	  6.71222E-001	  6.97264E-001
  3.25000E-004	  6.27522E-001	  5.33622E-001	  4.57608E-001	  7.23376E-001
  3.50000E-004	  5.02328E-001	  3.99734E-001	  4.19911E-001	  6.58096E-001
  3.75000E-004	  6.15003E-001	  6.91853E-001	  5.70698E-001	  5.27537E-001
  4.00000E-004	  5.77444E-001	  4.78849E-001	  6.52373E-001	  5.92816E-001
  4.50000E-004	  3.70874E-001	  4.05820E-001	  3.38234E-001	  4.94897E-001
  5.00000E-004	  6.90118E-001	  4.66678E-001	  5.20435E-001	  6.58095E-001
  5.50000E-004	  4.83548E-001	  6.12737E-001	  2.81689E-001	  5.07953E-001
  6.00000E-004	  5.14847E-001	  6.06651E-001	  4.76455E-001	  4.36146E-001
  6.50000E-004	  3.95913E-001	  5.21450E-001	  5.64414E-001	  5.53649E-001
  7.00000E-004	  5.39886E-001	  4.91021E-001	  6.33525E-001	  4.81841E-001
  7.50000E-004	  5.02327E-001	  5.09278E-001	  4.13627E-001	  4.88369E-001
  8.00000E-004	  5.05456E-001	  5.27534E-001	  5.11009E-001	  4.29617E-001
  9.00000E-004	  5.05456E-001	  6.03607E-001	  5.01585E-001	  5.56911E-001
  1.00000E-003	  5.71183E-001	  4.08861E-001	  4.35616E-001	  3.87185E-001
  1.10000E-003	  4.67898E-001	  5.00148E-001	  5.01585E-001	  3.93713E-001
  1.20000E-003	  5.05456E-001	  4.69719E-001	  3.97919E-001	  3.83921E-001
  1.30000E-003	  5.43014E-001	  4.81891E-001	  4.85878E-001	  4.13297E-001
  1.40000E-003	  3.36444E-001	  4.36247E-001	  6.05251E-001	  4.19825E-001
  1.50000E-003	  5.11716E-001	  4.91020E-001	  4.70171E-001	  5.79759E-001
  1.60000E-003	  4.42857E-001	  4.87974E-001	  4.07341E-001	  5.17741E-001
  1.80000E-003	  4.14688E-001	  3.93644E-001	  5.23572E-001	  4.73678E-001
  2.00000E-003	  3.70870E-001	  5.01667E-001	  4.63886E-001	  4.70414E-001
  2.20000E-003	  3.97474E-001	  4.74281E-001	  4.35614E-001	  4.29614E-001
  2.40000E-003	  5.02324E-001	  3.93644E-001	  4.90588E-001	  4.03502E-001
  2.60000E-003	  4.69460E-001	  4.78845E-001	  5.48703E-001	  5.16109E-001
  2.80000E-003	  4.63201E-001	  4.28638E-001	  4.01058E-001	  4.54094E-001
  3.00000E-003	  4.72590E-001	  4.31681E-001	  4.41896E-001	  4.16558E-001
  3.20000E-003	  4.58501E-001	  4.81149E-001	  4.19116E-001	  4.15738E-001
  3.60000E-003	  4.09206E-001	  4.44634E-001	  4.60740E-001	  4.50825E-001
  4.00000E-003	  4.58501E-001	  4.57566E-001	  3.89273E-001	  4.32057E-001
  4.40000E-003	  4.14683E-001	  4.32462E-001	  3.79849E-001	  4.13290E-001
  4.80000E-003	  3.76343E-001	  3.91383E-001	  4.10478E-001	  3.72490E-001
  5.20000E-003	  3.77908E-001	  4.24855E-001	  3.98697E-001	  4.81016E-001
  5.60000E-003	  4.59283E-001	  4.14965E-001	  4.50530E-001	  4.66329E-001
  6.00000E-003	  4.13118E-001	  4.46916E-001	  3.80635E-001	  4.44297E-001
  6.40000E-003	  4.11961E-001	  3.92920E-001	  4.32091E-001	  4.49183E-001
  7.20000E-003	  4.21350E-001	  4.22183E-001	  4.18740E-001	  4.27152E-001
  8.00000E-003	  4.40912E-001	  4.06207E-001	  4.10494E-001	  4.42247E-001
  8.80000E-003	  4.11178E-001	  4.40060E-001	  4.03059E-001	  3.93288E-001
  9.60000E-003	  3.81836E-001	  4.15336E-001	  3.93241E-001	  3.78601E-001
  1.04000E-002	  3.90834E-001	  4.25986E-001	  3.89707E-001	  3.99408E-001
  1.12000E-002	  3.90834E-001	  3.93275E-001	  4.06593E-001	  4.06752E-001
  1.20000E-002	  3.98659E-001	  3.94036E-001	  3.50046E-001	  3.98184E-001
  1.28000E-002	  3.90254E-001	  3.74643E-001	  3.59895E-001	  3.76134E-001
  1.44000E-002	  3.74188E-001	  3.83582E-001	  3.86990E-001	  3.99185E-001
  1.60000E-002	  3.56387E-001	  3.39079E-001	  3.32602E-001	  3.84906E-001
  1.76000E-002	  3.23524E-001	  3.41551E-001	  3.52801E-001	  3.50227E-001
  1.92000E-002	  3.91598E-001	  3.59048E-001	  3.38272E-001	  3.62467E-001
  2.08000E-002	  3.52084E-001	  3.33920E-001	  3.10808E-001	  3.29216E-001
  2.24000E-002	  3.55214E-001	  3.20607E-001	  3.08059E-001	  3.21260E-001
  2.40000E-002	  3.27045E-001	  3.54459E-001	  3.10808E-001	  3.05553E-001
  2.56000E-002	  3.25762E-001	  3.23305E-001	  3.10720E-001	  3.26475E-001
  2.88000E-002	  3.03266E-001	  2.88692E-001	  2.91672E-001	  2.87512E-001
  3.20000E-002	  2.92801E-001	  2.83652E-001	  2.85978E-001	  3.01180E-001
  3.52000E-002	  2.50745E-001	  3.01910E-001	  2.30800E-001	  2.70298E-001
  3.84000E-002	  2.56417E-001	  2.69768E-001	  2.63102E-001	  2.65606E-001
  4.16000E-002	  2.43778E-001	  2.57501E-001	  2.42484E-001	  2.38883E-001
  4.48000E-002	  2.14534E-001	  2.42477E-001	  2.22531E-001	  2.36866E-001
  4.80000E-002	  2.34877E-001	  2.21820E-001	  2.19706E-001	  2.24014E-001
  5.12000E-002	  2.17931E-001	  2.10163E-001	  2.15657E-001	  2.11067E-001
  5.76000E-002	  1.92328E-001	  1.95972E-001	  1.67469E-001	  1.92351E-001
  6.40000E-002	  1.54720E-001	  1.68346E-001	  1.74245E-001	  1.77641E-001
  7.04000E-002	  1.44695E-001	  1.51303E-001	  1.49436E-001	  1.48776E-001
  7.68000E-002	  1.54378E-001	  1.39559E-001	  1.27048E-001	  1.57293E-001
  8.32000E-002	  1.31602E-001	  1.30308E-001	  1.32477E-001	  1.34140E-001
  8.96000E-002	  1.08000E-001	  9.27452E-002	  1.07577E-001	  1.31386E-001
  9.60000E-002	  1.19347E-001	  1.02893E-001	  1.03846E-001	  1.01369E-001
  1.02400E-001	  1.07959E-001	  9.42712E-002	  8.53684E-002	  1.05697E-001
  1.15200E-001	  9.42932E-002	  6.63810E-002	  6.31975E-002	  7.63973E-002
  1.28000E-001	  7.94931E-002	  6.49351E-002	  5.82729E-002	  7.65995E-002
  1.40800E-001	  5.41676E-002	  5.03580E-002	  4.43467E-002	  4.59075E-002
  1.53600E-001	  6.01590E-002	  4.40614E-002	  4.20364E-002	  3.69812E-002
  1.66400E-001	  3.95926E-002	  3.70516E-002	  3.75247E-002	  3.86328E-002
  1.79200E-001	  4.26984E-002	  2.01026E-002	  3.22145E-002	  2.33558E-002
  1.92000E-001	  3.22318E-002	  2.58701E-002	  3.27112E-002	  2.18510E-002
  2.04800E-001	  2.62613E-002	  1.57784E-002	  2.55623E-002	  1.57089E-002
  2.30400E-001	  1.60816E-002	  1.40298E-002	  1.72012E-002	  8.95668E-003
  2.56000E-001	  1.12270E-002	  7.63598E-003	  1.29653E-002	  1.04549E-002
  2.81600E-001	  2.77127E-003	  6.94558E-003	  1.74037E-002	  3.12839E-003
  3.07200E-001	 -1.03136E-003	  1.13921E-002	  1.22105E-002	  2.54269E-003
  3.32800E-001	  3.73740E-003	  3.07305E-003	  9.74261E-003	  6.69933E-003
  3.58400E-001	  3.56633E-003	  5.21444E-005	  1.01048E-002	  2.59769E-003
  3.84000E-001	  1.01690E-002	 -8.39208E-003	  1.20813E-002	  3.83484E-003
  4.09600E-001	  7.28032E-003	 -8.68740E-003	  7.71971E-003	  1.18127E-002
  4.60800E-001	  4.21070E-003	 -1.27631E-002	  1.02694E-002	  1.29297E-002
  5.12000E-001	  2.00308E-003	 -7.69383E-003	  9.61819E-003	  5.09655E-003
  5.63200E-001	 -1.61794E-003	 -3.17789E-003	  2.60827E-003	  8.47780E-003
  6.14400E-001	 -9.53254E-003	 -7.25947E-003	 -9.63708E-003	 -3.20020E-003
  6.65600E-001	 -7.53338E-003	 -1.68485E-003	 -3.81233E-003	 -4.89813E-003
  7.16800E-001	 -5.92547E-003	  8.29665E-003	  5.35427E-003	 -1.04796E-002
  7.68000E-001	 -3.48583E-003	  6.74401E-003	 -2.91357E-004	 -8.44040E-003
  8.19200E-001	  2.51702E-003	  8.88765E-003	 -1.11975E-003	 -4.01683E-003
  9.21600E-001	  4.05999E-003	  6.54306E-005	 -6.52520E-003	 -7.47908E-004
  1.02400E+000	  3.45972E-003	  1.01264E-003	  1.90289E-003	 -3.20746E-004
  1.12640E+000	 -1.88904E-003	  5.03487E-003	  2.60522E-003	  6.27423E-003
  1.22880E+000	  8.28814E-003	  4.56163E-003	  2.40048E-003	 -4.60118E-004
  1.33120E+000	  1.26147E-003	  2.43937E-003	  8.17582E-003	  2.75686E-003
  1.43360E+000	  2.68800E-003	 -1.92984E-003	  1.10524E-002	 -7.22177E-005
  1.53600E+000	  8.84542E-003	  6.44638E-003	  1.02503E-002	  6.05954E-003
  1.63840E+000	  1.19818E-004	  2.88995E-003	 -1.27526E-003	  2.63073E-003
  1.84320E+000	 -1.31815E-003	  4.07694E-004	 -6.05131E-003	 -2.18058E-003
  2.04800E+000	  3.90215E-003	  4.79565E-003	  3.20555E-003	 -1.50542E-003
  2.25280E+000	 -3.23954E-003	  5.61261E-003	 -3.19906E-003	  6.97313E-003
  2.45760E+000	 -2.84937E-003	 -7.69411E-003	  2.11931E-003	 -1.79739E-003
  2.66240E+000	 -7.08689E-003	 -6.95176E-003	 -1.83029E-003	  4.33439E-003
  2.86720E+000	  1.88385E-003	  8.26047E-003	 -7.98390E-003	  5.98172E-003
  3.07200E+000	 -2.12773E-003	  7.26039E-003	 -4.17549E-003	  2.98461E-003
  3.27680E+000	 -3.69691E-003	  5.09247E-003	 -3.99384E-003	  2.95975E-003
  3.68640E+000	 -3.05200E-004	  2.32414E-003	 -1.28418E-003	  2.49632E-003
  4.09600E+000	  5.14227E-003	 -9.68562E-004	 -7.46697E-004	  2.54117E-003
  4.50560E+000	 -1.34727E-003	 -7.58215E-004	  8.50760E-003	  5.29981E-003
  4.91520E+000	 -8.64779E-004	  3.74118E-003	 -1.10654E-003	  3.33978E-003
  5.32480E+000	 -1.22001E-003	  1.74626E-003	 -2.85494E-003	  4.03858E-003
  5.73440E+000	 -2.24486E-003	  3.58692E-004	  4.09938E-003	  3.15195E-003
  6.14400E+000	  2.61241E-003	 -3.28240E-004	 -2.65020E-003	 -1.42270E-004
  6.55360E+000	  1.85721E-003	 -2.23588E-004	 -8.05606E-004	  3.16237E-003
  7.37280E+000	  6.75261E-004	 -4.26774E-003	 -2.49157E-003	  1.15189E-003
  8.19200E+000	  1.53091E-003	 -5.86939E-003	 -2.63272E-003	 -1.68057E-003
  9.01120E+000	  4.99943E-004	  1.33228E-003	 -2.04059E-003	  4.89691E-003
  9.83040E+000	 -1.28988E-003	 -1.16484E-003	 -3.66058E-004	 -1.44665E-003
  1.06496E+001	  1.37498E-003	 -4.34231E-004	  1.62022E-003	  4.54659E-003
  1.14688E+001	 -4.03158E-004	  2.69030E-003	  3.47448E-003	  3.67647E-003
  1.22880E+001	 -4.86880E-004	  5.20285E-003	 -1.45396E-003	  2.23683E-003
  1.31072E+001	  2.07764E-003	 -2.17735E-003	  2.33571E-004	  1.53679E-003
  1.47456E+001	 -3.71012E-004	 -2.44704E-004	  2.62361E-003	 -1.40929E-004
  1.63840E+001	  7.68704E-004	  8.52695E-004	  1.01869E-003	 -8.71573E-005
  1.80224E+001	  4.50960E-004	  3.48179E-003	 -1.43248E-003	  1.61422E-003
  1.96608E+001	 -1.36726E-003	  1.24773E-003	  4.89114E-003	  1.38723E-004
  2.12992E+001	  1.00382E-003	 -1.52464E-003	  1.08502E-004	 -8.05381E-004
  2.29376E+001	  3.19124E-003	 -3.04958E-003	  3.63008E-003	 -2.23679E-003
  2.45760E+001	 -5.37553E-004	 -3.87881E-003	 -2.91224E-003	 -1.70215E-003
  2.62144E+001	 -2.44153E-004	  9.21086E-004	 -6.26740E-004	  1.48892E-004
  2.94912E+001	 -1.85526E-003	  1.66109E-003	 -4.86463E-004	 -2.22655E-004
  3.27680E+001	  2.21188E-004	 -3.75372E-004	  1.40239E-003	 -5.45734E-004
  3.60448E+001	 -5.52872E-006	  4.07294E-004	  9.20302E-004	 -1.09778E-003
  3.93216E+001	 -3.01797E-003	  2.88505E-003	  1.76593E-004	  1.53930E-004
  4.25984E+001	 -7.83025E-004	  5.37558E-004	 -1.82333E-003	 -8.24490E-004
  4.58752E+001	  2.01552E-003	 -1.57177E-003	  1.42512E-003	  8.88145E-004
  4.91520E+001	  1.68815E-003	  5.01114E-004	  1.52406E-003	 -3.46198E-004
  5.24288E+001	  4.39190E-004	 -6.09235E-004	  4.82784E-004	 -5.08696E-004
  5.89824E+001	 -9.55891E-004	  1.27899E-003	  1.14764E-003	  2.88687E-003
  6.55360E+001	 -5.80386E-005	  1.09944E-006	 -2.01947E-003	  2.25920E-003
  7.20896E+001	  1.29200E-003	  3.76108E-004	  6.59696E-004	 -1.19963E-003
  7.86432E+001	 -2.75156E-004	 -2.39251E-003	 -3.46505E-004	  8.40185E-004
  8.51968E+001	 -3.07766E-003	 -1.31695E-004	 -4.23544E-004	 -1.84677E-004
  9.17504E+001	 -3.86138E-004	  9.74454E-004	 -1.45602E-003	 -1.85125E-003
  9.83040E+001	 -6.99227E-006	  6.85426E-004	 -2.19185E-003	 -9.41948E-004
  1.04858E+002	 -1.28420E-003	 -1.15249E-003	 -8.05156E-004	  1.10293E-003
  1.17965E+002	  2.06940E-004	  9.94469E-004	 -1.21102E-003	 -6.91870E-005
  1.31072E+002	  6.91619E-004	  1.66627E-005	 -4.17250E-004	 -1.69584E-003
  1.44179E+002	 -3.99741E-004	 -8.52382E-004	 -1.39408E-003	 -1.25903E-003
  1.57286E+002	 -2.52883E-004	 -9.97170E-005	  6.29716E-004	 -4.22863E-004
  1.70394E+002	 -1.13683E-003	 -9.97006E-004	 -5.16765E-004	  1.62195E-003
  1.83501E+002	  8.07933E-004	 -5.31198E-004	  1.35640E-004	 -1.06005E-003
  1.96608E+002	  4.35099E-004	 -1.18076E-003	  1.71060E-004	 -2.92588E-003
  2.09715E+002	  1.27157E-004	 -7.66964E-005	  2.09269E-003	 -1.23433E-003
  2.35930E+002	 -2.13666E-003	  2.25922E-004	  9.24669E-004	 -1.45203E-003
  2.62144E+002	  8.85045E-005	  1.38267E-004	  1.01982E-003	 -2.34071E-003
  2.88358E+002	  3.30639E-004	 -2.55374E-004	 -8.46395E-004	 -4.98906E-004
  3.14573E+002	  1.19754E-003	  1.91386E-004	  3.46795E-004	 -2.25616E-004
  3.40787E+002	  5.05880E-005	  2.87418E-004	 -1.59511E-003	 -1.23831E-003
  3.67002E+002	 -7.30041E-004	  1.16680E-003	 -1.87779E-004	 -5.63337E-004
  3.93216E+002	  5.08533E-005	  5.33209E-004	 -3.40094E-004	  1.01502E-003

"Count Rate"
       0.01311	      60.42480	      62.17957	      60.88257	      61.34033
       0.02621	      59.73816	      56.22864	      59.89075	      59.28040
       0.03932	      55.69458	      53.02429	      54.62646	      55.46570
       0.05243	      56.15234	      53.25317	      60.50110	      58.82263
       0.06554	      55.99976	      58.97522	      58.74634	      54.24500
       0.07864	      56.83899	      54.85535	      56.99158	      58.21228
       0.09175	      60.34851	      54.62646	      58.67004	      59.58557
       0.10486	      53.93982	      59.28040	      58.67004	      62.94250
       0.11796	      54.70276	      60.95886	      51.42212	      59.50928
       0.13107	      57.52563	      62.48474	      58.67004	      53.02429
       0.14418	      64.62097	      57.98340	      56.91528	      47.14966
       0.15729	      59.73816	      52.94800	      56.38123	      57.75452
       0.17039	      51.72729	      57.98340	      58.21228	      60.80627
       0.18350	      49.20959	      63.40027	      53.55835	      55.54199
       0.19661	      57.37305	      68.58826	      54.93164	      49.59106
       0.20972	      60.42480	      58.67004	      55.46570	      58.28857
       0.22282	      56.22864	      58.67004	      58.74634	      54.32129
       0.23593	      46.99707	      71.25854	      54.16870	      53.78723
       0.24904	      58.74634	      58.59375	      57.06787	      54.24500
       0.26214	      59.58557	      58.82263	      57.06787	      56.07605
       0.27525	      58.97522	      55.77087	      58.67004	      64.16321
       0.28836	      59.50928	      57.14417	      53.48206	      64.01062
       0.30147	      56.91528	      56.68640	      60.34851	      48.52295
       0.31457	      57.90710	      55.92346	      52.56653	      56.53381
       0.32768	      54.62646	      61.79810	      54.55017	      62.48474
       0.34079	      58.13599	      54.77905	      51.87988	      61.11145
       0.35389	      49.51477	      64.46838	      51.04065	      49.36218
       0.36700	      53.32947	      56.99158	      56.30493	      53.25317
       0.38011	      62.10327	      54.01611	      51.87988	      57.52563
       0.39322	      53.71094	      54.93164	      53.93982	      54.39758
       0.40632	      62.63733	      56.15234	      58.74634	      59.58557
       0.41943	      59.20410	      55.31311	      58.97522	      58.05969
       0.43254	      51.19324	      53.02429	      54.93164	      52.64282
       0.44564	      58.67004	      61.11145	      44.55566	      52.64282
       0.45875	      51.57471	      57.67822	      59.81445	      53.78723
       0.47186	      55.99976	      56.38123	      61.79810	      57.44934
       0.48497	      47.60742	      53.32947	      68.20679	      53.48206
       0.49807	      56.30493	      62.02698	      52.49023	      60.19592
       0.51118	      49.89624	      54.24500	      64.46838	      55.61829
       0.52429	      63.55286	      54.01611	      60.34851	      49.51477
       0.53740	      51.04065	      59.66187	      59.05151	      42.19055
       0.55050	      53.78723	      62.17957	      61.95068	      58.51746
       0.56361	      53.32947	      59.50928	      57.98340	      52.26135
       0.57672	      63.47656	      59.35669	      48.44666	      54.32129
       0.58982	      70.34302	      62.94250	      57.14417	      58.97522
       0.60293	      69.19861	      59.50928	      48.82813	      46.84448
       0.61604	      59.28040	      58.89893	      59.05151	      57.75452
       0.62915	      55.54199	      59.89075	      56.38123	      50.04883
       0.64225	      58.59375	      52.79541	      53.86353	      48.67554
       0.65536	      56.99158	      59.50928	      50.96436	      58.28857
       0.66847	      59.28040	      57.44934	      59.35669	      58.21228
       0.68157	      55.84717	      52.49023	      56.22864	      51.04065
       0.69468	      52.26135	      57.44934	      57.60193	      54.16870
       0.70779	      62.71362	      47.98889	      62.48474	      53.55835
       0.72090	      53.55835	      57.90710	      66.29944	      64.54468
       0.73400	      62.40845	      55.92346	      62.02698	      55.61829
       0.74711	      55.31311	      59.96704	      59.28040	      52.18506
