ALV-7004/USB-FAST
Date :	"11/11/2025"
Time :	"3:58:00 PM"
Samplename : 	""
SampMemo(0) : 	""
SampMemo(1) : 	""
SampMemo(2) : 	""
SampMemo(3) : 	""
SampMemo(4) : 	""
SampMemo(5) : 	""
SampMemo(6) : 	""
SampMemo(7) : 	""
SampMemo(8) : 	""
SampMemo(9) : 	""
Temperature [K] :	     298.16000
Viscosity [cp]  :	       0.89000
Refractive Index:	       1.33200
Wavelength [nm] :	       0.00000
Angle [°]       :	       0.00000
Duration [s]    :	         1
FloatDur [ms]   :	          944
Stop TP [ms]   :	     67948
Runs            :	         1
Mode            :	"A-CH0+1  A-CH2+3 "
MeanCR0 [kHz]   :	      52.26135
MeanCR1 [kHz]   :	      54.22592
MeanCR2 [kHz]   :	      54.93482
MeanCR3 [kHz]   :	      53.55941

"Correlation"
  3.12500E-006	 -1.00000E+000	 -1.00000E+000	 -1.00000E+000	 -1.00000E+000
  6.25000E-006	 -1.00000E+000	 -1.00000E+000	 -1.00000E+000	 -1.00000E+000
  9.37500E-006	 -1.00000E+000	 -1.00000E+000	 -1.00000E+000	 -1.00000E+000
  1.25000E-005	 -1.00000E+000	 -1.00000E+000	 -1.00000E+000	 -1.00000E+000
  1.56250E-005	 -1.00000E+000	 -1.00000E+000	 -1.00000E+000	 -1.00000E+000
  1.87500E-005	 -1.00000E+000	 -1.00000E+000	 -1.00000E+000	 -1.00000E+000
  2.18750E-005	 -1.00000E+000	  3.83805E-001	  1.24720E+000	 -7.63590E-001
  2.50000E-005	  1.46429E+001	  1.16849E+001	  1.34945E+001	  2.72510E+001
  2.81250E-005	  3.46940E+000	  1.76761E+000	  3.38204E+000	  8.21999E+000
  3.12500E-005	  2.22790E+000	  1.30634E+000	  1.13484E+000	  4.55564E+000
  3.43750E-005	  1.35885E+000	  6.14439E-001	  1.02248E+000	  3.61000E+000
  3.75000E-005	  1.11055E+000	  1.07571E+000	  9.10122E-001	  3.72820E+000
  4.06250E-005	  1.11055E+000	  4.99122E-001	  1.13484E+000	  2.90077E+000
  4.37500E-005	  1.23470E+000	  9.60390E-001	  1.13484E+000	  2.42795E+000
  4.68750E-005	  4.89798E-001	  1.53698E+000	  3.48321E-001	  2.30974E+000
  5.00000E-005	  1.04847E+000	  7.87415E-001	  9.66302E-001	  2.30974E+000
  5.62500E-005	  2.41499E-001	  6.14439E-001	  3.48321E-001	  1.60051E+000
  6.25000E-005	  4.89798E-001	  3.26146E-001	  3.48321E-001	  1.71872E+000
  6.87500E-005	  6.76023E-001	  1.07571E+000	  1.30338E+000	  1.06859E+000
  7.50000E-005	  9.86398E-001	  7.29756E-001	  5.73041E-001	  1.71872E+000
  8.12500E-005	  4.89798E-001	  7.87415E-001	  4.04501E-001	  1.54141E+000
  8.75000E-005	  1.60715E+000	  6.14439E-001	  7.97762E-001	  1.65961E+000
  9.37500E-005	  1.11055E+000	  8.45073E-001	  6.29221E-001	  8.32178E-001
  1.00000E-004	  9.86398E-001	  4.41463E-001	  1.16293E+000	  5.66216E-001
  1.12500E-004	  9.86398E-001	  9.02732E-001	  8.53941E-001	  4.77563E-001
  1.25000E-004	  1.20366E+000	  2.97317E-001	  6.01131E-001	  5.66216E-001
  1.37500E-004	  7.07060E-001	  5.27951E-001	  4.60681E-001	  7.43524E-001
  1.50000E-004	  6.44985E-001	  2.10829E-001	  7.13491E-001	  5.07114E-001
  1.62500E-004	  2.10461E-001	  7.87414E-001	  9.10121E-001	  6.54870E-001
  1.75000E-004	  6.76023E-001	  7.29756E-001	  4.04501E-001	  1.52499E-001
  1.87500E-004	  6.13948E-001	  4.12634E-001	  6.29221E-001	  5.07114E-001
  2.00000E-004	  6.76023E-001	  6.14439E-001	  6.71356E-001	  5.80992E-001
  2.25000E-004	  6.29466E-001	  7.87414E-001	  5.58996E-001	  8.17402E-001
  2.50000E-004	  3.34611E-001	  2.10829E-001	  6.57311E-001	  6.69645E-001
  2.75000E-004	  4.43242E-001	  4.99122E-001	  5.30906E-001	  6.69645E-001
  3.00000E-004	  2.25979E-001	  4.41463E-001	  6.99446E-001	  7.13972E-001
  3.25000E-004	  2.41498E-001	  5.13536E-001	  2.50006E-001	  8.32177E-001
  3.50000E-004	  6.13948E-001	  2.68487E-001	  5.16861E-001	  4.77562E-001
  3.75000E-004	  2.88054E-001	  8.16243E-001	  3.76411E-001	  5.95767E-001
  4.00000E-004	  5.20835E-001	  6.07231E-001	  4.32590E-001	  4.55398E-001
  4.50000E-004	  4.35482E-001	  6.14438E-001	  3.06185E-001	  4.25847E-001
  5.00000E-004	  3.57888E-001	  6.79304E-001	  4.60680E-001	  5.51440E-001
  5.50000E-004	  4.97557E-001	  4.99121E-001	  6.15175E-001	  3.44581E-001
  6.00000E-004	  5.05316E-001	  5.42365E-001	  2.85118E-001	  5.80991E-001
  6.50000E-004	  4.27722E-001	  4.84706E-001	  5.58995E-001	  3.96296E-001
  7.00000E-004	  3.96685E-001	  4.63084E-001	  4.25568E-001	  5.88379E-001
  7.50000E-004	  3.65647E-001	  3.62182E-001	  5.23883E-001	  3.88908E-001
  8.00000E-004	  4.70398E-001	  4.12660E-001	  4.88769E-001	  5.07112E-001
  9.00000E-004	  4.97555E-001	  5.49601E-001	  5.09836E-001	  4.33234E-001
  1.00000E-003	  5.51871E-001	  5.45997E-001	  4.78235E-001	  3.88907E-001
  1.10000E-003	  4.70398E-001	  3.80226E-001	  3.55342E-001	  3.15029E-001
  1.20000E-003	  4.16082E-001	  5.96449E-001	  3.62364E-001	  5.36663E-001
  1.30000E-003	  4.54879E-001	  5.56808E-001	  6.43264E-001	  3.29804E-001
  1.40000E-003	  6.48863E-001	  4.12660E-001	  4.78235E-001	  4.55397E-001
  1.50000E-003	  4.82037E-001	  3.91037E-001	  4.08010E-001	  3.40886E-001
  1.60000E-003	  3.96710E-001	  4.07279E-001	  3.88696E-001	  4.83099E-001
  1.80000E-003	  4.70425E-001	  4.99176E-001	  4.32587E-001	  4.42466E-001
  2.00000E-003	  3.83130E-001	  4.18063E-001	  5.02811E-001	  4.59089E-001
  2.20000E-003	  4.27748E-001	  4.82930E-001	  5.20368E-001	  4.40619E-001
  2.40000E-003	  4.35507E-001	  4.01846E-001	  4.74721E-001	  2.61465E-001
  2.60000E-003	  4.08349E-001	  4.75722E-001	  3.64117E-001	  4.09221E-001
  2.80000E-003	  4.29687E-001	  4.46892E-001	  4.43120E-001	  3.63047E-001
  3.00000E-003	  3.75371E-001	  4.91939E-001	  4.62432E-001	  4.40648E-001
  3.20000E-003	  3.99643E-001	  4.53222E-001	  5.20362E-001	  4.16632E-001
  3.60000E-003	  4.10313E-001	  4.53222E-001	  4.63305E-001	  4.39719E-001
  4.00000E-003	  3.97703E-001	  4.36105E-001	  4.71205E-001	  4.58189E-001
  4.40000E-003	  3.55025E-001	  4.14482E-001	  4.85250E-001	  4.39719E-001
  4.80000E-003	  4.23863E-001	  4.47817E-001	  4.37876E-001	  4.27714E-001
  5.20000E-003	  3.56938E-001	  4.31572E-001	  4.31731E-001	  3.88004E-001
  5.60000E-003	  3.81186E-001	  3.90129E-001	  3.51849E-001	  3.63070E-001
  6.00000E-003	  2.96802E-001	  4.24364E-001	  4.27342E-001	  3.62146E-001
  6.40000E-003	  3.45802E-001	  4.32041E-001	  4.38744E-001	  3.67678E-001
  7.20000E-003	  3.94299E-001	  4.04562E-001	  3.72030E-001	  3.62599E-001
  8.00000E-003	  3.55016E-001	  3.60866E-001	  4.25577E-001	  3.80607E-001
  8.80000E-003	  3.82659E-001	  4.20779E-001	  4.06704E-001	  3.71372E-001
  9.60000E-003	  3.74415E-001	  4.14472E-001	  4.09776E-001	  3.64907E-001
  1.04000E-002	  3.13793E-001	  3.37442E-001	  3.58863E-001	  3.92639E-001
  1.12000E-002	  3.43834E-001	  4.29788E-001	  4.01876E-001	  3.80634E-001
  1.20000E-002	  3.78752E-001	  3.99129E-001	  3.75980E-001	  4.17112E-001
  1.28000E-002	  3.50418E-001	  3.70109E-001	  3.70914E-001	  3.58709E-001
  1.44000E-002	  3.28109E-001	  3.80921E-001	  3.66086E-001	  3.52475E-001
  1.60000E-002	  3.03133E-001	  3.22585E-001	  3.28341E-001	  3.25925E-001
  1.76000E-002	  2.93433E-001	  3.46009E-001	  3.60819E-001	  3.37007E-001
  1.92000E-002	  3.23987E-001	  3.24386E-001	  3.11662E-001	  3.22231E-001
  2.08000E-002	  3.16469E-001	  3.00061E-001	  3.40849E-001	  2.83905E-001
  2.24000E-002	  2.86643E-001	  2.78213E-001	  3.23732E-001	  2.91293E-001
  2.40000E-002	  2.57519E-001	  3.16954E-001	  2.80281E-001	  2.91524E-001
  2.56000E-002	  2.84842E-001	  2.88477E-001	  3.01912E-001	  2.92117E-001
  2.88000E-002	  2.72137E-001	  2.87351E-001	  2.87318E-001	  2.71569E-001
  3.20000E-002	  2.16145E-001	  2.53677E-001	  2.63178E-001	  2.52868E-001
  3.52000E-002	  2.36126E-001	  2.55029E-001	  2.40903E-001	  2.31050E-001
  3.84000E-002	  2.10689E-001	  2.18629E-001	  2.50120E-001	  2.10362E-001
  4.16000E-002	  1.91167E-001	  2.07142E-001	  2.33442E-001	  2.14287E-001
  4.48000E-002	  1.85735E-001	  1.84754E-001	  2.01841E-001	  1.92238E-001
  4.80000E-002	  1.81612E-001	  1.93313E-001	  2.06010E-001	  1.89814E-001
  5.12000E-002	  1.71833E-001	  1.82901E-001	  1.89373E-001	  1.87997E-001
  5.76000E-002	  1.55486E-001	  1.40500E-001	  1.67810E-001	  1.63119E-001
  6.40000E-002	  1.50696E-001	  1.53226E-001	  1.58734E-001	  1.53746E-001
  7.04000E-002	  1.15347E-001	  1.24001E-001	  1.21150E-001	  1.27022E-001
  7.68000E-002	  1.10943E-001	  1.08889E-001	  1.19977E-001	  1.09995E-001
  8.32000E-002	  8.51954E-002	  9.18270E-002	  1.17727E-001	  1.05435E-001
  8.96000E-002	  8.99250E-002	  8.94620E-002	  1.04779E-001	  9.61205E-002
  9.60000E-002	  7.79798E-002	  7.47091E-002	  9.67134E-002	  9.39272E-002
  1.02400E-001	  6.34668E-002	  7.39158E-002	  9.36741E-002	  7.68462E-002
  1.15200E-001	  5.04199E-002	  7.43873E-002	  7.90289E-002	  6.73224E-002
  1.28000E-001	  5.06625E-002	  6.48913E-002	  5.31758E-002	  4.65848E-002
  1.40800E-001	  4.66995E-002	  5.13121E-002	  4.20635E-002	  4.94213E-002
  1.53600E-001	  3.53176E-002	  4.26756E-002	  4.61315E-002	  4.66877E-002
  1.66400E-001	  2.61611E-002	  3.00613E-002	  4.08288E-002	  3.72011E-002
  1.79200E-001	  2.47058E-002	  2.95343E-002	  2.89131E-002	  2.97266E-002
  1.92000E-001	  2.01882E-002	  2.31792E-002	  3.67531E-002	  2.29821E-002
  2.04800E-001	  1.03216E-002	  1.82240E-002	  3.25058E-002	  2.00535E-002
  2.30400E-001	  1.16647E-002	  1.41758E-002	  2.45264E-002	  2.29829E-002
  2.56000E-001	  1.39084E-002	  1.38206E-002	  1.90509E-002	  1.85007E-002
  2.81600E-001	  3.09926E-003	  1.55049E-002	  1.90116E-002	  1.91068E-002
  3.07200E-001	  1.64911E-002	  2.70268E-003	  1.61867E-002	  1.35508E-002
  3.32800E-001	  2.57420E-003	  4.26599E-003	  2.67044E-003	  5.64809E-003
  3.58400E-001	 -3.33873E-003	  1.05417E-002	  3.15880E-003	  2.96746E-003
  3.84000E-001	  1.03776E-003	  3.20418E-003	  9.37477E-003	 -1.80002E-003
  4.09600E-001	 -3.99890E-003	  7.19459E-003	  1.11052E-003	 -2.09583E-003
  4.60800E-001	 -7.03613E-003	 -6.77310E-005	 -1.03082E-002	 -1.11244E-003
  5.12000E-001	 -1.48902E-002	  2.12252E-003	 -1.64026E-003	 -1.43343E-003
  5.63200E-001	 -7.11992E-003	  1.61443E-003	  4.77847E-004	  4.09455E-003
  6.14400E-001	 -4.85806E-003	  4.72735E-003	 -1.19383E-003	 -1.11966E-003
  6.65600E-001	  1.29479E-003	 -2.30552E-003	 -4.19596E-003	 -6.84658E-003
  7.16800E-001	  2.32851E-003	 -5.26848E-004	 -5.78151E-003	 -1.26091E-002
  7.68000E-001	  3.31682E-003	 -5.59594E-003	 -7.61560E-003	 -1.12037E-002
  8.19200E-001	 -2.63781E-003	 -6.25429E-004	 -5.81410E-003	 -6.33553E-003
  9.21600E-001	  3.46734E-003	 -3.92100E-003	 -2.65882E-005	 -3.92262E-003
  1.02400E+000	  1.37604E-002	  3.70630E-003	  4.72843E-005	 -3.78760E-003
  1.12640E+000	  7.79394E-003	  1.47974E-003	  6.98302E-004	  2.27610E-003
  1.22880E+000	  1.01947E-002	  5.72738E-003	  1.15681E-003	 -2.95990E-003
  1.33120E+000	  5.78240E-003	  1.06754E-003	 -4.56806E-003	 -6.85047E-005
  1.43360E+000	  2.40914E-004	 -5.12615E-003	  3.34065E-004	 -2.75480E-003
  1.53600E+000	 -5.41215E-003	 -1.61188E-003	 -2.43747E-003	  3.96715E-003
  1.63840E+000	 -4.47102E-003	  1.89881E-003	 -3.61576E-003	 -3.54258E-003
  1.84320E+000	  1.62448E-003	 -5.47378E-003	  1.21441E-004	 -5.83632E-004
  2.04800E+000	 -1.81911E-003	 -8.81115E-003	  3.34192E-003	  5.42195E-003
  2.25280E+000	  3.54731E-003	 -8.94432E-004	  6.48095E-003	  3.40927E-003
  2.45760E+000	  2.65110E-004	  4.04486E-003	 -3.08294E-004	  3.84282E-004
  2.66240E+000	 -4.28295E-003	  1.02149E-002	  7.57435E-004	 -8.79902E-003
  2.86720E+000	  3.50364E-003	  1.22238E-003	  1.82668E-003	 -3.72809E-003
  3.07200E+000	 -7.29383E-004	  6.01942E-003	  2.38063E-003	 -1.16558E-003
  3.27680E+000	  3.94157E-003	  1.22058E-003	  1.63778E-003	 -1.50115E-003
  3.68640E+000	 -1.42625E-003	 -9.21544E-004	 -5.85627E-003	 -6.01540E-004
  4.09600E+000	 -2.15910E-003	  5.18123E-003	  4.33268E-003	 -1.46229E-003
  4.50560E+000	 -2.44376E-004	  4.03144E-003	 -1.57882E-003	  3.35326E-004
  4.91520E+000	  1.47324E-003	 -3.56136E-003	 -2.34771E-003	  5.35555E-004
  5.32480E+000	 -6.54741E-004	  6.04465E-003	 -1.71341E-003	  1.83326E-003
  5.73440E+000	  1.21557E-003	 -8.83402E-003	  1.39486E-003	 -1.55333E-004
  6.14400E+000	 -5.34390E-003	 -4.28755E-003	  3.16489E-003	 -4.96780E-004
  6.55360E+000	 -6.88198E-004	 -1.08728E-003	 -8.67158E-005	 -2.91440E-003
  7.37280E+000	 -4.13616E-003	  2.32037E-003	  1.80003E-003	  1.71266E-003
  8.19200E+000	 -6.83573E-004	 -6.95382E-004	  4.00156E-004	 -4.74103E-003
  9.01120E+000	 -3.68753E-003	 -1.34070E-003	 -9.32416E-005	 -4.21564E-004
  9.83040E+000	 -1.99502E-003	  4.20001E-003	  2.03405E-004	 -3.19276E-003
  1.06496E+001	  3.95737E-003	 -3.90279E-004	  4.35633E-003	 -3.18023E-004
  1.14688E+001	  7.96182E-004	 -4.20470E-004	 -1.86845E-003	  6.62322E-004
  1.22880E+001	  3.95102E-004	  6.43741E-003	  4.06821E-003	  1.02545E-004
  1.31072E+001	  3.47201E-003	  3.97687E-004	  4.81286E-004	  2.83172E-004
  1.47456E+001	 -2.20780E-003	  8.29747E-004	 -2.05069E-003	 -2.12533E-003
  1.63840E+001	 -1.95094E-004	  1.18689E-003	 -1.83714E-003	  8.53720E-004
  1.80224E+001	 -4.16934E-004	 -9.97269E-004	 -1.35988E-003	 -1.11719E-003
  1.96608E+001	 -2.34408E-003	 -4.51460E-003	  2.82440E-003	  1.13414E-003
  2.12992E+001	  2.81943E-003	 -3.94100E-004	 -1.66784E-003	 -8.67861E-004
  2.29376E+001	  3.20755E-004	 -2.07399E-004	  2.69431E-003	  2.59289E-003
  2.45760E+001	 -7.36955E-005	  3.77756E-004	 -1.12803E-003	  2.16455E-003
  2.62144E+001	 -7.25464E-004	 -2.38110E-003	 -4.05124E-004	  1.48734E-003
  2.94912E+001	 -4.94438E-004	 -2.26285E-003	  1.83550E-003	  1.39666E-003
  3.27680E+001	 -1.76141E-003	  2.08520E-004	  1.54313E-003	  4.80148E-004
  3.60448E+001	 -2.07391E-003	  1.37495E-004	  3.73094E-004	  6.03436E-004
  3.93216E+001	  3.91186E-004	 -2.91699E-004	 -2.45170E-003	 -2.17485E-003
  4.25984E+001	 -8.00899E-004	  1.49954E-003	  2.38251E-004	 -7.08536E-004
  4.58752E+001	 -2.14399E-003	 -2.41450E-003	 -2.91844E-004	 -8.09760E-004
  4.91520E+001	 -1.45413E-003	 -3.28133E-003	  2.37056E-004	  2.10133E-003
  5.24288E+001	 -1.46511E-003	 -1.88109E-005	  1.71361E-003	  6.70772E-004
  5.89824E+001	 -8.61291E-004	  8.31031E-004	 -9.04874E-004	 -3.71438E-004
  6.55360E+001	  1.33975E-003	 -1.73705E-003	 -1.19223E-003	 -3.11650E-004
  7.20896E+001	 -1.93129E-003	  8.80052E-004	  1.30047E-003	 -1.08639E-003
  7.86432E+001	  1.30518E-003	 -4.27950E-004	  1.36252E-003	 -1.34375E-003
  8.51968E+001	  7.11120E-004	  2.64752E-004	  1.06475E-003	  5.61833E-004
  9.17504E+001	 -1.36819E-003	 -5.37115E-004	 -1.12767E-003	 -1.70154E-003
  9.83040E+001	 -5.61608E-004	  2.04115E-005	 -5.96836E-004	 -5.58830E-004
  1.04858E+002	  7.28860E-004	 -4.09961E-004	  1.23500E-004	 -3.07976E-004
  1.17965E+002	  3.69077E-004	 -4.30520E-006	 -7.28967E-004	 -1.02182E-004
  1.31072E+002	  6.81080E-004	  1.98432E-004	 -2.05928E-004	 -1.05967E-004
  1.44179E+002	 -5.79006E-005	 -9.46723E-004	  4.62043E-004	  3.27272E-004
  1.57286E+002	  1.41021E-004	  3.05003E-004	  9.29232E-004	  6.35100E-004
  1.70394E+002	 -1.82827E-004	  4.11777E-004	  2.83854E-004	  8.76149E-004
  1.83501E+002	 -1.84287E-004	  6.69571E-004	 -5.97033E-005	  9.60716E-005
  1.96608E+002	  6.91670E-005	 -7.11454E-004	  6.40509E-004	  4.05652E-004
  2.09715E+002	  5.34845E-004	 -1.26063E-004	  2.89099E-004	  2.11399E-004
  2.35930E+002	 -4.20005E-004	  1.14496E-004	 -4.96337E-004	 -6.55098E-004
  2.62144E+002	 -1.36273E-004	 -3.31660E-004	  1.63781E-004	 -4.57237E-005
  2.88358E+002	 -4.69806E-004	  8.98965E-004	  2.56865E-004	  1.74973E-004
  3.14573E+002	  3.56131E-004	 -3.59670E-004	 -1.40783E-005	  3.26946E-004
  3.40787E+002	 -2.75247E-004	 -8.35015E-005	  1.07298E-003	 -4.12306E-004
  3.67002E+002	  2.51230E-005	 -6.64252E-004	 -1.86406E-006	  5.31976E-004
  3.93216E+002	 -3.20183E-004	  4.20200E-004	 -9.25089E-004	 -3.41304E-004

"Count Rate"
       0.01311	      43.56384	      56.15234	      48.29407	      55.31311
       0.02621	      46.84448	      48.75183	      50.27771	      52.79541
       0.03932	      53.10059	      51.19324	      50.27771	      63.01880
       0.05243	      47.37854	      45.08972	      58.74634	      50.96436
       0.06554	      57.60193	      58.05969	      52.03247	      50.50659
       0.07864	      50.73547	      52.94800	      55.84717	      47.37854
       0.09175	      49.13330	      51.95618	      54.39758	      46.61560
       0.10486	      51.04065	      59.35669	      60.42480	      57.06787
       0.11796	      45.92896	      55.31311	      53.17688	      48.06519
       0.13107	      55.99976	      52.26135	      56.07605	      53.71094
       0.14418	      54.16870	      53.40576	      48.29407	      47.53113
       0.15729	      57.14417	      49.66736	      50.73547	      51.57471
       0.17039	      54.09241	      52.64282	      51.87988	      53.71094
       0.18350	      52.10876	      55.84717	      50.65918	      51.72729
       0.19661	      54.85535	      58.28857	      54.09241	      45.62378
       0.20972	      52.33765	      54.55017	      52.10876	      56.91528
       0.22282	      51.04065	      56.30493	      55.92346	      50.35400
       0.23593	      44.78455	      51.65100	      54.77905	      54.55017
       0.24904	      45.62378	      54.39758	      48.75183	      47.98889
       0.26214	      54.62646	      48.14148	      52.41394	      51.04065
       0.27525	      54.85535	      58.44116	      62.56104	      54.32129
       0.28836	      51.04065	      50.81177	      49.74365	      54.39758
       0.30147	      56.15234	      56.15234	      57.90710	      55.46570
       0.31457	      52.26135	      60.88257	      52.03247	      49.36218
       0.32768	      49.36218	      55.16052	      51.87988	      56.15234
       0.34079	      58.36487	      53.78723	      47.30225	      51.72729
       0.35389	      50.43030	      44.17419	      53.78723	      60.57739
       0.36700	      54.16870	      51.57471	      51.80359	      45.92896
       0.38011	      46.53931	      51.65100	      51.72729	      52.71912
       0.39322	      51.95618	      52.87170	      46.69189	      47.30225
       0.40632	      51.65100	      53.32947	      50.50659	      45.92896
       0.41943	      53.32947	      39.67285	      60.04333	      47.60742
       0.43254	      45.70007	      47.07336	      60.27222	      53.93982
       0.44564	      53.93982	      57.37305	      59.43298	      56.91528
       0.45875	      48.29407	      60.04333	      56.22864	      57.22046
       0.47186	      53.17688	      53.71094	      52.49023	      50.43030
       0.48497	      48.67554	      58.59375	      51.57471	      54.77905
       0.49807	      50.12512	      54.09241	      59.12781	      54.55017
       0.51118	      56.76270	      55.31311	      53.17688	      59.81445
       0.52429	      52.41394	      48.90442	      55.84717	      48.98071
       0.53740	      48.90442	      52.71912	      59.89075	      53.55835
       0.55050	      48.90442	      51.26953	      51.95618	      55.16052
       0.56361	      43.79272	      54.77905	      55.08423	      49.97253
       0.57672	      58.51746	      51.19324	      59.81445	      51.49841
       0.58982	      50.12512	      54.09241	      54.09241	      49.81995
       0.60293	      49.97253	      50.43030	      52.87170	      56.99158
       0.61604	      55.08423	      52.33765	      55.77087	      51.34583
       0.62915	      54.77905	      56.68640	      59.05151	      54.70276
       0.64225	      46.46301	      54.85535	      51.42212	      55.23682
       0.65536	      47.53113	      46.23413	      55.00793	      52.41394
       0.66847	      48.59924	      56.53381	      50.04883	      53.78723
       0.68157	      51.42212	      55.92346	      56.45752	      51.42212
       0.69468	      56.83899	      52.10876	      54.01611	      55.38940
       0.70779	      52.03247	      50.58289	      57.98340	      45.08972
       0.72090	      48.98071	      55.31311	      55.77087	      52.41394
       0.73400	      52.94800	      55.99976	      59.73816	      57.37305
       0.74711	      52.87170	      51.72729	      49.97253	      55.99976
