ALV-7004/USB-FAST
Date :	"11/11/2025"
Time :	"3:58:55 PM"
Samplename : 	""
SampMemo(0) : 	""
SampMemo(1) : 	""
SampMemo(2) : 	""
SampMemo(3) : 	""
SampMemo(4) : 	""
SampMemo(5) : 	""
SampMemo(6) : 	""
SampMemo(7) : 	""
SampMemo(8) : 	""
SampMemo(9) : 	""
Temperature [K] :	     298.16000
Viscosity [cp]  :	       0.89000
Refractive Index:	       1.33200
Wavelength [nm] :	       0.00000
Angle [°]       :	       0.00000
Duration [s]    :	         1
FloatDur [ms]   :	          944
Stop TP [ms]   :	     68185
Runs            :	         1
Mode            :	"A-CH0+1  A-CH2+3 "
MeanCR0 [kHz]   :	      55.77088
MeanCR1 [kHz]   :	      58.73256
MeanCR2 [kHz]   :	      59.79432
MeanCR3 [kHz]   :	      56.04214

"Correlation"
  3.12500E-006	 -1.00000E+000	 -1.00000E+000	 -1.00000E+000	 -1.00000E+000
  6.25000E-006	 -1.00000E+000	 -1.00000E+000	 -1.00000E+000	 -1.00000E+000
  9.37500E-006	 -1.00000E+000	 -1.00000E+000	 -1.00000E+000	 -1.00000E+000
  1.25000E-005	 -1.00000E+000	 -1.00000E+000	 -1.00000E+000	 -1.00000E+000
  1.56250E-005	 -1.00000E+000	 -1.00000E+000	 -1.00000E+000	 -1.00000E+000
  1.87500E-005	 -1.00000E+000	 -1.00000E+000	 -1.00000E+000	 -1.00000E+000
  2.18750E-005	 -7.81967E-001	  9.65982E-001	  2.32887E-001	 -5.68145E-001
  2.50000E-005	  1.33902E+001	  1.40398E+001	  1.11392E+001	  2.71785E+001
  2.81250E-005	  4.23280E+000	  1.45748E+000	  2.12964E+000	  7.96099E+000
  3.12500E-005	  1.83443E+000	  1.75238E+000	  2.32887E-001	  5.80172E+000
  3.43750E-005	  2.05246E+000	  5.72786E-001	  1.08642E+000	  3.53448E+000
  3.75000E-005	  1.39837E+000	  7.69384E-001	  1.65545E+000	  3.42652E+000
  4.06250E-005	  7.44266E-001	  9.65982E-001	  8.96749E-001	  3.64244E+000
  4.37500E-005	  1.50738E+000	  2.77889E-001	  7.07075E-001	  2.77873E+000
  4.68750E-005	  1.39837E+000	  1.65408E+000	  7.07075E-001	  3.10262E+000
  5.00000E-005	  1.01681E+000	  9.65982E-001	  6.12237E-001	  2.56280E+000
  5.62500E-005	  1.99183E-001	  4.74487E-001	  4.69981E-001	  2.29290E+000
  6.25000E-005	  5.26232E-001	  3.76188E-001	  2.32887E-001	  1.69909E+000
  6.87500E-005	  9.62299E-001	  5.23636E-001	  8.01912E-001	  1.15928E+000
  7.50000E-005	  5.26232E-001	  7.69384E-001	  5.64818E-001	  1.21326E+000
  8.12500E-005	  4.71724E-001	  5.72786E-001	  3.27725E-001	  1.59113E+000
  8.75000E-005	  5.80741E-001	  6.71085E-001	  7.54493E-001	  9.97330E-001
  9.37500E-005	  6.89757E-001	  6.71085E-001	  5.17399E-001	  6.19457E-001
  1.00000E-004	  5.80740E-001	  3.02463E-001	  5.64818E-001	  8.62375E-001
  1.12500E-004	  3.89961E-001	  6.71085E-001	  6.59656E-001	  9.70339E-001
  1.25000E-004	  5.53486E-001	  5.48211E-001	  3.98852E-001	  7.81402E-001
  1.37500E-004	  4.98978E-001	  5.97360E-001	  6.59656E-001	  3.49547E-001
  1.50000E-004	  6.35249E-001	  4.74487E-001	  6.83365E-001	  6.19456E-001
  1.62500E-004	  2.26437E-001	  3.51613E-001	  5.64818E-001	  7.81402E-001
  1.75000E-004	  4.98978E-001	  2.04164E-001	  4.46271E-001	  5.38484E-001
  1.87500E-004	  2.53691E-001	  2.77888E-001	  4.69981E-001	  6.46447E-001
  2.00000E-004	  4.44469E-001	  3.39325E-001	  5.88527E-001	  5.24988E-001
  2.25000E-004	  2.53690E-001	  7.07947E-001	  5.05544E-001	  3.63042E-001
  2.50000E-004	  5.67113E-001	  4.49911E-001	  2.92160E-001	  4.03529E-001
  2.75000E-004	  7.17011E-001	  6.09648E-001	  3.51433E-001	  5.38483E-001
  3.00000E-004	  4.98978E-001	  3.76187E-001	  6.24091E-001	  6.32952E-001
  3.25000E-004	  6.62503E-001	  2.53313E-001	  5.17399E-001	  5.78970E-001
  3.50000E-004	  4.85351E-001	  5.60498E-001	  3.63288E-001	  5.38483E-001
  3.75000E-004	  2.40063E-001	  4.37624E-001	  5.41108E-001	  7.00429E-001
  4.00000E-004	  3.35452E-001	  4.68342E-001	  4.99616E-001	  6.59942E-001
  4.50000E-004	  5.53485E-001	  3.51612E-001	  6.65582E-001	  5.65474E-001
  5.00000E-004	  5.26231E-001	  3.82330E-001	  6.59654E-001	  5.31735E-001
  5.50000E-004	  4.30842E-001	  5.72785E-001	  5.70744E-001	  2.61826E-001
  6.00000E-004	  4.24028E-001	  6.71084E-001	  5.94454E-001	  4.57510E-001
  6.50000E-004	  4.17215E-001	  3.39324E-001	  5.35180E-001	  6.39699E-001
  7.00000E-004	  2.60503E-001	  4.13049E-001	  3.98852E-001	  4.30519E-001
  7.50000E-004	  4.98977E-001	  4.49911E-001	  4.22561E-001	  3.96780E-001
  8.00000E-004	  4.34247E-001	  5.02131E-001	  4.16658E-001	  4.64256E-001
  9.00000E-004	  6.04585E-001	  5.05203E-001	  5.02605E-001	  5.55351E-001
  1.00000E-003	  4.68315E-001	  5.23634E-001	  4.90724E-001	  4.44013E-001
  1.10000E-003	  3.89959E-001	  4.99059E-001	  3.72177E-001	  4.30518E-001
  1.20000E-003	  4.30841E-001	  5.35921E-001	  4.22560E-001	  5.89089E-001
  1.30000E-003	  4.47874E-001	  4.62197E-001	  5.97416E-001	  4.33892E-001
  1.40000E-003	  4.78535E-001	  4.99059E-001	  5.88525E-001	  4.50761E-001
  1.50000E-003	  3.96773E-001	  3.66970E-001	  4.19596E-001	  5.04743E-001
  1.60000E-003	  4.51279E-001	  3.47025E-001	  4.78893E-001	  5.33418E-001
  1.80000E-003	  4.39355E-001	  4.11535E-001	  4.83339E-001	  4.03524E-001
  2.00000E-003	  4.47872E-001	  4.00783E-001	  4.81857E-001	  4.76062E-001
  2.20000E-003	  4.51279E-001	  4.14607E-001	  4.71484E-001	  5.13175E-001
  2.40000E-003	  4.49575E-001	  3.63920E-001	  4.41847E-001	  4.11959E-001
  2.60000E-003	  4.35948E-001	  4.22286E-001	  4.15148E-001	  4.15333E-001
  2.80000E-003	  5.10897E-001	  3.94639E-001	  5.35176E-001	  4.81123E-001
  3.00000E-003	  4.61499E-001	  4.79116E-001	  4.19594E-001	  4.35576E-001
  3.20000E-003	  4.01051E-001	  4.00829E-001	  4.06277E-001	  4.11111E-001
  3.60000E-003	  3.97644E-001	  4.10813E-001	  4.71479E-001	  4.00146E-001
  4.00000E-003	  4.15530E-001	  4.15421E-001	  4.70738E-001	  4.27980E-001
  4.40000E-003	  3.84017E-001	  4.27735E-001	  3.77381E-001	  4.66779E-001
  4.80000E-003	  4.01051E-001	  4.18493E-001	  4.24801E-001	  4.27980E-001
  5.20000E-003	  3.98496E-001	  3.56309E-001	  4.60365E-001	  3.80746E-001
  5.60000E-003	  3.71241E-001	  3.94710E-001	  3.89236E-001	  3.63034E-001
  6.00000E-003	  3.65279E-001	  3.70902E-001	  4.22553E-001	  4.06920E-001
  6.40000E-003	  3.94254E-001	  3.78622E-001	  3.97006E-001	  4.40704E-001
  7.20000E-003	  3.66148E-001	  3.75934E-001	  3.80706E-001	  3.95577E-001
  8.00000E-003	  3.53346E-001	  4.25088E-001	  4.09602E-001	  3.70271E-001
  8.80000E-003	  4.00615E-001	  3.60933E-001	  3.77001E-001	  3.79550E-001
  9.60000E-003	  3.60586E-001	  3.88198E-001	  3.69592E-001	  4.19616E-001
  1.04000E-002	  3.44404E-001	  3.68229E-001	  4.13702E-001	  3.65632E-001
  1.12000E-002	  4.07855E-001	  3.82028E-001	  3.81101E-001	  3.58884E-001
  1.20000E-002	  3.49088E-001	  3.71276E-001	  3.85176E-001	  3.77441E-001
  1.28000E-002	  3.72117E-001	  3.66148E-001	  3.66079E-001	  3.53064E-001
  1.44000E-002	  3.20375E-001	  3.47331E-001	  3.82379E-001	  3.52220E-001
  1.60000E-002	  3.39752E-001	  3.59043E-001	  3.31440E-001	  3.51166E-001
  1.76000E-002	  3.74034E-001	  2.98368E-001	  3.68857E-001	  3.43523E-001
  1.92000E-002	  3.10581E-001	  3.30050E-001	  3.52371E-001	  3.71781E-001
  2.08000E-002	  3.17795E-001	  3.07969E-001	  3.22202E-001	  3.47108E-001
  2.24000E-002	  2.93096E-001	  2.97408E-001	  3.29426E-001	  3.01347E-001
  2.40000E-002	  2.67119E-001	  2.97001E-001	  3.13681E-001	  3.03034E-001
  2.56000E-002	  2.86099E-001	  2.87267E-001	  3.06098E-001	  2.99772E-001
  2.88000E-002	  2.73854E-001	  2.76633E-001	  2.91464E-001	  2.95132E-001
  3.20000E-002	  2.44574E-001	  2.79705E-001	  2.76553E-001	  2.63157E-001
  3.52000E-002	  2.52240E-001	  2.31435E-001	  2.66642E-001	  2.64106E-001
  3.84000E-002	  2.37310E-001	  2.28554E-001	  2.59418E-001	  2.30445E-001
  4.16000E-002	  2.22215E-001	  2.26058E-001	  2.26076E-001	  2.33925E-001
  4.48000E-002	  2.14974E-001	  1.96796E-001	  2.31726E-001	  2.28922E-001
  4.80000E-002	  1.88014E-001	  2.10408E-001	  2.15054E-001	  2.03932E-001
  5.12000E-002	  1.84821E-001	  1.78671E-001	  2.09468E-001	  1.96457E-001
  5.76000E-002	  1.75725E-001	  1.85152E-001	  1.83739E-001	  1.74259E-001
  6.40000E-002	  1.61274E-001	  1.57746E-001	  1.72398E-001	  1.57440E-001
  7.04000E-002	  1.39775E-001	  1.42577E-001	  1.48872E-001	  1.47242E-001
  7.68000E-002	  1.43342E-001	  1.25103E-001	  1.50122E-001	  1.31719E-001
  8.32000E-002	  1.10707E-001	  1.00208E-001	  1.22634E-001	  1.20753E-001
  8.96000E-002	  1.06874E-001	  1.06728E-001	  1.11122E-001	  1.09554E-001
  9.60000E-002	  1.05330E-001	  8.82934E-002	  1.05028E-001	  9.47710E-002
  1.02400E-001	  9.04770E-002	  9.23480E-002	  1.00257E-001	  9.22771E-002
  1.15200E-001	  6.82458E-002	  7.09295E-002	  8.67592E-002	  8.13872E-002
  1.28000E-001	  6.65215E-002	  6.49565E-002	  6.39480E-002	  5.93176E-002
  1.40800E-001	  6.17091E-002	  4.58559E-002	  5.13086E-002	  5.41495E-002
  1.53600E-001	  4.00377E-002	  5.36054E-002	  4.34109E-002	  4.57383E-002
  1.66400E-001	  4.09300E-002	  4.60668E-002	  3.62081E-002	  4.03329E-002
  1.79200E-001	  2.87104E-002	  3.26433E-002	  2.81666E-002	  2.92723E-002
  1.92000E-001	  1.90731E-002	  2.67148E-002	  2.44559E-002	  3.13690E-002
  2.04800E-001	  2.40352E-002	  2.57449E-002	  2.14726E-002	  2.12333E-002
  2.30400E-001	  1.42293E-002	  1.76950E-002	  2.22768E-002	  2.59116E-002
  2.56000E-001	  4.77232E-003	  1.52523E-002	  1.81960E-002	  1.75390E-002
  2.81600E-001	  8.68717E-003	  1.71984E-002	  2.34629E-002	  6.03567E-003
  3.07200E-001	  1.32826E-002	  1.60773E-002	  1.99131E-002	  1.39334E-002
  3.32800E-001	  1.28046E-002	  3.02825E-003	  1.96800E-002	 -1.91484E-003
  3.58400E-001	  8.35164E-003	 -3.70961E-003	  1.51701E-002	  8.83227E-003
  3.84000E-001	  1.33948E-002	  1.39690E-004	  8.68811E-003	  5.70172E-003
  4.09600E-001	  1.05266E-002	  1.13702E-003	  7.14591E-003	  4.10703E-003
  4.60800E-001	  1.06316E-002	  1.80412E-003	  7.34436E-003	  8.90326E-003
  5.12000E-001	  1.19327E-002	 -2.50973E-003	  5.66947E-003	  1.61728E-002
  5.63200E-001	  1.07161E-002	 -6.17463E-003	  4.70628E-004	  1.16156E-002
  6.14400E-001	  6.32064E-003	 -5.66990E-003	  4.91494E-003	  9.06747E-003
  6.65600E-001	  2.67771E-003	 -1.21337E-002	  4.09677E-003	  5.56432E-003
  7.16800E-001	 -4.89446E-004	 -8.57739E-003	  1.13106E-003	  1.11967E-002
  7.68000E-001	 -7.94803E-003	 -1.53046E-003	  4.08734E-004	  1.04758E-002
  8.19200E-001	 -5.44334E-003	 -5.46526E-003	  2.14842E-003	  8.95679E-003
  9.21600E-001	 -7.78010E-003	 -2.18425E-003	 -1.38124E-004	  1.92118E-003
  1.02400E+000	 -3.45018E-003	  1.03062E-003	  5.10109E-003	  1.38888E-003
  1.12640E+000	  4.98360E-003	  2.38980E-003	  1.18749E-002	 -3.18240E-003
  1.22880E+000	  2.97989E-003	 -2.43378E-003	  8.20646E-003	 -1.07532E-003
  1.33120E+000	  9.69156E-003	 -3.47111E-003	  5.14310E-003	 -2.65037E-003
  1.43360E+000	  3.97731E-003	 -2.67435E-003	  5.40849E-003	  3.98259E-004
  1.53600E+000	  4.65095E-003	 -1.00558E-003	 -7.11864E-003	 -1.15001E-003
  1.63840E+000	  2.48017E-003	 -2.20007E-003	 -5.01890E-003	 -1.77107E-003
  1.84320E+000	  1.16555E-003	 -6.88975E-003	 -1.80927E-003	  2.61236E-003
  2.04800E+000	  4.85606E-003	 -6.93829E-003	  5.72355E-003	  9.60778E-003
  2.25280E+000	  2.37124E-003	 -2.91103E-003	 -5.49893E-004	  7.55749E-004
  2.45760E+000	 -7.00529E-003	 -5.45772E-003	  6.22058E-003	  2.94294E-004
  2.66240E+000	  1.15015E-003	 -1.06130E-003	  9.03366E-004	  5.22509E-003
  2.86720E+000	  4.20819E-003	  7.84453E-003	  4.78380E-004	  5.64219E-003
  3.07200E+000	 -6.21314E-003	  1.05438E-002	  2.32573E-003	  3.24453E-003
  3.27680E+000	 -3.66096E-004	  3.64467E-003	 -5.61993E-003	 -1.82554E-003
  3.68640E+000	 -4.07910E-003	 -2.93211E-003	 -2.80564E-003	 -9.61334E-004
  4.09600E+000	  3.65522E-003	  3.58789E-003	 -2.55252E-003	  3.33699E-003
  4.50560E+000	  2.65267E-003	  3.34292E-003	 -7.11113E-003	 -1.01319E-003
  4.91520E+000	  1.91484E-003	 -1.64584E-003	  1.37165E-003	  5.82650E-003
  5.32480E+000	  4.07682E-003	  2.04224E-003	 -5.95346E-003	  3.58994E-003
  5.73440E+000	 -3.29813E-003	  3.15905E-003	 -4.62531E-003	 -3.97331E-004
  6.14400E+000	 -2.10689E-004	  2.16568E-003	  1.65682E-003	  2.38652E-003
  6.55360E+000	  2.07323E-003	  1.39124E-003	 -8.17362E-004	 -2.61518E-003
  7.37280E+000	  1.56899E-003	 -6.69207E-004	 -1.88991E-003	 -1.11180E-003
  8.19200E+000	 -1.83182E-003	 -3.81051E-003	 -1.54667E-003	  2.81728E-003
  9.01120E+000	  1.66527E-003	 -3.08780E-003	  1.79370E-003	  2.77472E-003
  9.83040E+000	 -7.60278E-004	  7.15299E-004	  1.06770E-003	  3.18707E-003
  1.06496E+001	 -1.55838E-003	  1.73391E-003	  2.98793E-003	  1.39732E-003
  1.14688E+001	  1.28203E-004	 -4.00823E-003	  1.85685E-003	 -2.82023E-003
  1.22880E+001	 -3.48031E-003	  1.51647E-003	  5.64003E-003	  1.98363E-003
  1.31072E+001	  1.35564E-004	 -1.63812E-003	  2.03363E-003	  3.01008E-004
  1.47456E+001	 -3.22210E-003	 -1.56313E-003	  3.48068E-004	  3.26698E-003
  1.63840E+001	 -2.56180E-003	 -2.81334E-003	 -2.34166E-003	  4.27700E-003
  1.80224E+001	 -3.75222E-003	  1.53530E-003	 -7.08301E-004	  6.10311E-003
  1.96608E+001	 -3.77284E-003	  1.01602E-003	 -1.25506E-003	  7.40251E-003
  2.12992E+001	  4.39726E-004	 -1.71519E-003	  2.52334E-003	  1.30881E-003
  2.29376E+001	 -8.78999E-004	  2.86761E-003	 -1.73814E-004	 -1.88807E-004
  2.45760E+001	 -1.34122E-003	 -1.28810E-003	 -3.56638E-004	 -1.64609E-003
  2.62144E+001	  1.25744E-003	 -7.65564E-004	  2.17966E-003	 -1.32807E-003
  2.94912E+001	  1.13754E-003	  4.20060E-004	 -2.51745E-004	  2.44858E-003
  3.27680E+001	  5.59910E-004	  1.48444E-004	  1.38283E-004	  1.35159E-003
  3.60448E+001	 -2.83061E-004	 -1.10705E-003	 -1.84094E-003	  7.86687E-004
  3.93216E+001	  5.51849E-004	  6.25400E-004	 -1.86473E-004	  1.82130E-003
  4.25984E+001	  5.91265E-004	 -2.37438E-003	  2.59398E-003	  1.00140E-003
  4.58752E+001	 -3.42178E-003	  1.80197E-004	 -2.98450E-004	 -1.48311E-003
  4.91520E+001	  1.86553E-004	  6.04452E-005	 -1.30945E-003	  1.89176E-003
  5.24288E+001	  1.21347E-003	  7.29840E-004	  5.34525E-004	 -4.36129E-004
  5.89824E+001	  1.47462E-003	  2.24422E-007	  4.91400E-004	 -9.74619E-005
  6.55360E+001	 -8.67117E-005	 -4.35455E-004	  7.58127E-004	  9.50439E-004
  7.20896E+001	 -1.46486E-003	  3.02989E-004	  6.54101E-004	  7.65147E-004
  7.86432E+001	  7.72024E-004	 -1.88325E-004	  1.16823E-003	  9.88724E-004
  8.51968E+001	  1.34685E-003	  2.97236E-004	 -5.53374E-004	  1.63719E-004
  9.17504E+001	  1.64769E-003	  1.30427E-003	 -8.71042E-004	 -1.36016E-003
  9.83040E+001	  1.51424E-003	  1.57390E-003	 -1.13937E-003	 -6.78015E-004
  1.04858E+002	 -2.96173E-005	 -7.93150E-005	 -8.20841E-005	 -2.22794E-003
  1.17965E+002	 -1.99961E-003	 -5.21950E-004	 -1.56256E-003	  6.35375E-004
  1.31072E+002	  1.23327E-003	  4.05208E-004	 -7.03652E-004	 -7.76061E-004
  1.44179E+002	  2.07104E-004	  4.69128E-004	  1.76698E-004	  9.58159E-004
  1.57286E+002	 -1.43238E-003	  7.16219E-004	 -5.84195E-004	  9.60290E-004
  1.70394E+002	  7.46721E-004	 -1.06356E-003	  9.53236E-004	 -2.20647E-003
  1.83501E+002	 -3.77563E-004	 -4.09999E-004	 -5.77868E-006	 -1.12605E-003
  1.96608E+002	 -9.19723E-004	  4.31730E-004	 -9.49704E-004	 -5.70885E-004
  2.09715E+002	  1.06238E-004	 -1.22576E-003	  1.64494E-004	 -1.21633E-004
  2.35930E+002	 -7.39806E-004	  3.38495E-004	  1.77740E-004	  4.58429E-004
  2.62144E+002	 -1.04929E-003	 -6.72754E-004	  1.37392E-004	  7.18587E-004
  2.88358E+002	  6.30553E-004	  6.93348E-004	 -7.82598E-004	  2.99676E-004
  3.14573E+002	 -1.13932E-003	 -1.02620E-003	  7.31373E-005	  8.38593E-004
  3.40787E+002	 -1.15376E-004	  5.55099E-004	  4.84587E-005	 -7.72025E-004
  3.67002E+002	  1.00165E-003	 -8.60876E-004	 -7.12311E-004	 -3.19560E-003
  3.93216E+002	 -1.21744E-003	  6.49082E-004	  1.82904E-004	 -1.22327E-003

"Count Rate"
       0.01311	      54.39758	      60.19592	      61.11145	      63.09509
       0.02621	      57.67822	      65.53650	      58.21228	      54.93164
       0.03932	      48.75183	      60.50110	      56.68640	      53.25317
       0.05243	      53.02429	      57.37305	      61.26404	      54.24500
       0.06554	      61.41663	      65.30762	      52.18506	      47.30225
       0.07864	      59.89075	      58.36487	      48.37036	      46.15784
       0.09175	      56.45752	      55.69458	      62.78992	      56.99158
       0.10486	      56.22864	      57.83081	      57.52563	      52.87170
       0.11796	      52.87170	      55.00793	      59.66187	      55.16052
       0.13107	      54.70276	      59.28040	      56.38123	      56.22864
       0.14418	      53.10059	      55.77087	      55.92346	      49.43848
       0.15729	      54.62646	      61.41663	      59.81445	      55.00793
       0.17039	      57.83081	      56.76270	      55.61829	      51.04065
       0.18350	      53.55835	      55.16052	      60.19592	      59.28040
       0.19661	      57.67822	      61.79810	      61.64551	      58.13599
       0.20972	      52.94800	      57.22046	      60.72998	      61.26404
       0.22282	      50.12512	      53.93982	      55.61829	      50.43030
       0.23593	      59.35669	      50.27771	      56.76270	      58.13599
       0.24904	      50.65918	      59.43298	      59.28040	      57.98340
       0.26214	      51.34583	      62.86621	      62.25586	      60.27222
       0.27525	      64.23950	      62.71362	      51.11694	      64.39209
       0.28836	      55.23682	      60.65369	      53.78723	      63.32397
       0.30147	      49.81995	      65.15503	      57.75452	      62.02698
       0.31457	      54.55017	      51.04065	      58.59375	      55.92346
       0.32768	      53.55835	      57.60193	      52.87170	      60.11963
       0.34079	      52.79541	      52.03247	      66.22314	      52.10876
       0.35389	      55.77087	      65.07874	      57.83081	      55.00793
       0.36700	      59.05151	      60.50110	      56.53381	      48.59924
       0.38011	      53.17688	      57.90710	      68.35938	      42.03796
       0.39322	      44.63196	      57.67822	      61.26404	      56.91528
       0.40632	      56.15234	      55.99976	      71.33484	      56.61011
       0.41943	      56.53381	      66.98608	      73.69995	      61.11145
       0.43254	      41.96167	      53.55835	      58.36487	      60.88257
       0.44564	      68.05420	      62.33215	      61.56921	      57.60193
       0.45875	      54.93164	      57.90710	      54.62646	      51.04065
       0.47186	      55.99976	      50.58289	      62.56104	      58.28857
       0.48497	      49.13330	      60.04333	      62.40845	      66.90979
       0.49807	      64.54468	      58.44116	      58.13599	      53.25317
       0.51118	      62.94250	      54.24500	      65.91797	      62.94250
       0.52429	      52.18506	      55.46570	      54.77905	      60.57739
       0.53740	      54.62646	      55.54199	      49.43848	      48.90442
       0.55050	      59.05151	      61.87439	      65.07874	      60.27222
       0.56361	      57.60193	      51.80359	      63.85803	      61.64551
       0.57672	      58.13599	      51.04065	      55.16052	      56.76270
       0.58982	      54.77905	      53.10059	      59.50928	      58.51746
       0.60293	      53.93982	      60.34851	      57.37305	      51.04065
       0.61604	      59.20410	      54.62646	      63.01880	      51.42212
       0.62915	      58.05969	      52.41394	      59.43298	      59.05151
       0.64225	      60.95886	      59.35669	      54.70276	      50.20142
       0.65536	      59.50928	      54.32129	      60.72998	      49.81995
       0.66847	      51.57471	      55.16052	      61.11145	      49.74365
       0.68157	      49.51477	      62.63733	      61.79810	      50.88806
       0.69468	      56.07605	      61.56921	      56.83899	      52.26135
       0.70779	      55.54199	      58.51746	      51.65100	      60.42480
       0.72090	      62.56104	      49.51477	      58.44116	      50.35400
       0.73400	      51.65100	      56.15234	      63.24768	      56.07605
       0.74711	      52.49023	      51.65100	      59.20410	      56.76270
