ALV-7004/USB-FAST
Date :	"11/11/2025"
Time :	"3:54:28 PM"
Samplename : 	""
SampMemo(0) : 	""
SampMemo(1) : 	""
SampMemo(2) : 	""
SampMemo(3) : 	""
SampMemo(4) : 	""
SampMemo(5) : 	""
SampMemo(6) : 	""
SampMemo(7) : 	""
SampMemo(8) : 	""
SampMemo(9) : 	""
Temperature [K] :	     298.16000
Viscosity [cp]  :	       0.89000
Refractive Index:	       1.33200
Wavelength [nm] :	       0.00000
Angle [°]       :	       0.00000
Duration [s]    :	         1
FloatDur [ms]   :	          944
Stop TP [ms]   :	     60676
Runs            :	         1
Mode            :	"A-CH0+1  A-CH2+3 "
MeanCR0 [kHz]   :	      51.20383
MeanCR1 [kHz]   :	      53.58484
MeanCR2 [kHz]   :	      54.85959
MeanCR3 [kHz]   :	      53.18006

"Correlation"
  3.12500E-006	 -1.00000E+000	 -1.00000E+000	 -1.00000E+000	 -1.00000E+000
  6.25000E-006	 -1.00000E+000	 -1.00000E+000	 -1.00000E+000	 -1.00000E+000
  9.37500E-006	 -1.00000E+000	 -1.00000E+000	 -1.00000E+000	 -1.00000E+000
  1.25000E-005	 -1.00000E+000	 -1.00000E+000	 -1.00000E+000	 -1.00000E+000
  1.56250E-005	 -1.00000E+000	 -1.00000E+000	 -1.00000E+000	 -1.00000E+000
  1.87500E-005	 -1.00000E+000	 -1.00000E+000	 -1.00000E+000	 -1.00000E+000
  2.18750E-005	 -6.12007E-001	  8.89486E-001	  9.15364E-001	 -4.00513E-001
  2.50000E-005	  1.29677E+001	  1.23445E+001	  1.26329E+001	  2.92142E+001
  2.81250E-005	  2.10394E+000	  2.18851E+000	  2.49272E+000	  7.27292E+000
  3.12500E-005	  8.10634E-001	  1.12567E+000	  6.90027E-001	  5.35456E+000
  3.43750E-005	  1.06930E+000	  6.53300E-001	  1.47871E+000	  3.43621E+000
  3.75000E-005	  4.22641E-001	  1.47995E+000	  1.02803E+000	  4.39538E+000
  4.06250E-005	  1.32796E+000	  6.53300E-001	  1.40165E-002	  2.83672E+000
  4.37500E-005	  1.19863E+000	  7.71393E-001	  6.90027E-001	  2.71682E+000
  4.68750E-005	  1.19863E+000	  5.35207E-001	  8.02696E-001	  1.51785E+000
  5.00000E-005	  6.16637E-001	  1.71614E+000	  1.53504E+000	  1.99744E+000
  5.62500E-005	  6.81303E-001	  1.30281E+000	  9.15364E-001	  2.41708E+000
  6.25000E-005	  8.75299E-001	  7.71393E-001	  9.71699E-001	  1.21810E+000
  6.87500E-005	  9.39965E-001	  1.06662E+000	  4.08356E-001	  1.63774E+000
  7.50000E-005	  1.06930E+000	  4.76161E-001	  5.21025E-001	  1.39795E+000
  8.12500E-005	  2.28644E-001	  6.53300E-001	  7.46362E-001	  6.78564E-001
  8.75000E-005	  4.22641E-001	  5.35207E-001	  6.33693E-001	  9.18359E-001
  9.37500E-005	  2.93310E-001	  5.35207E-001	  6.33693E-001	  1.15815E+000
  1.00000E-004	  3.90308E-001	  5.35207E-001	  4.36523E-001	  1.36797E+000
  1.12500E-004	  3.57975E-001	  3.28544E-001	  1.16887E+000	  7.08538E-001
  1.25000E-004	  4.54973E-001	  8.89485E-001	  6.05526E-001	  6.18615E-001
  1.37500E-004	  3.46477E-002	  5.35207E-001	  4.64690E-001	  6.48590E-001
  1.50000E-004	  5.84304E-001	  5.94253E-001	  4.36523E-001	  7.98461E-001
  1.62500E-004	  2.28644E-001	  5.35207E-001	  1.54852E-001	  5.28692E-001
  1.75000E-004	  4.87306E-001	  6.23777E-001	  4.92857E-001	  4.98718E-001
  1.87500E-004	  3.25642E-001	  6.53300E-001	  8.30863E-001	  9.48333E-001
  2.00000E-004	  7.62134E-001	  6.82823E-001	  2.95687E-001	  9.18358E-001
  2.25000E-004	  6.48969E-001	  5.05683E-001	  4.92857E-001	  3.63833E-001
  2.50000E-004	  6.48969E-001	  7.56631E-001	  5.49191E-001	  3.78820E-001
  2.75000E-004	  4.71139E-001	  7.41869E-001	  7.18194E-001	  4.08794E-001
  3.00000E-004	  2.44810E-001	  3.13783E-001	  5.63275E-001	  5.58666E-001
  3.25000E-004	  5.68138E-001	  6.97584E-001	  5.91442E-001	  7.38512E-001
  3.50000E-004	  3.74141E-001	  4.76160E-001	  6.05525E-001	  6.48589E-001
  3.75000E-004	  3.90308E-001	  2.99021E-001	  7.74528E-001	  3.18871E-001
  4.00000E-004	  6.16636E-001	  5.42587E-001	  5.98483E-001	  5.06210E-001
  4.50000E-004	  3.82224E-001	  4.24494E-001	  4.50606E-001	  5.66159E-001
  5.00000E-004	  3.49891E-001	  5.86872E-001	  4.08355E-001	  6.56082E-001
  5.50000E-004	  5.84303E-001	  4.46636E-001	  4.50606E-001	  4.98717E-001
  6.00000E-004	  5.27721E-001	  6.60680E-001	  4.08355E-001	  4.38768E-001
  6.50000E-004	  4.30723E-001	  5.05683E-001	  4.57648E-001	  4.76236E-001
  7.00000E-004	  4.30723E-001	  4.54017E-001	  6.05525E-001	  4.98717E-001
  7.50000E-004	  4.71139E-001	  5.05683E-001	  3.94272E-001	  3.86313E-001
  8.00000E-004	  4.75179E-001	  4.90920E-001	  4.36549E-001	  3.90059E-001
  9.00000E-004	  2.93308E-001	  5.20443E-001	  4.75279E-001	  5.84892E-001
  1.00000E-003	  3.57973E-001	  5.75799E-001	  4.82321E-001	  4.68741E-001
  1.10000E-003	  4.63054E-001	  5.97941E-001	  5.52740E-001	  4.91222E-001
  1.20000E-003	  5.03470E-001	  4.94610E-001	  6.05554E-001	  6.37347E-001
  1.30000E-003	  3.62015E-001	  5.83180E-001	  3.48525E-001	  4.87475E-001
  1.40000E-003	  5.27720E-001	  5.46276E-001	  4.71758E-001	  4.46260E-001
  1.50000E-003	  3.62015E-001	  6.42226E-001	  3.94297E-001	  5.69905E-001
  1.60000E-003	  4.65073E-001	  5.55499E-001	  5.08755E-001	  4.51878E-001
  1.80000E-003	  4.50927E-001	  5.05679E-001	  5.05234E-001	  5.02460E-001
  2.00000E-003	  4.08491E-001	  4.94608E-001	  4.61221E-001	  5.26814E-001
  2.20000E-003	  4.71135E-001	  5.22286E-001	  5.17528E-001	  4.48131E-001
  2.40000E-003	  4.71135E-001	  5.14905E-001	  5.96749E-001	  5.79269E-001
  2.60000E-003	  5.80258E-001	  5.14905E-001	  5.17528E-001	  4.16284E-001
  2.80000E-003	  4.79218E-001	  5.99784E-001	  5.22809E-001	  5.17447E-001
  3.00000E-003	  3.96366E-001	  5.09369E-001	  5.96749E-001	  4.83726E-001
  3.20000E-003	  4.56985E-001	  5.32429E-001	  4.81462E-001	  4.46253E-001
  3.60000E-003	  4.06465E-001	  5.30614E-001	  5.14911E-001	  4.61240E-001
  4.00000E-003	  4.55974E-001	  4.93710E-001	  4.57695E-001	  4.94961E-001
  4.40000E-003	  4.60016E-001	  5.33382E-001	  4.49773E-001	  4.94961E-001
  4.80000E-003	  4.05455E-001	  4.14365E-001	  4.39210E-001	  4.75291E-001
  5.20000E-003	  4.27683E-001	  4.94632E-001	  5.38678E-001	  5.23062E-001
  5.60000E-003	  4.82244E-001	  4.66954E-001	  4.81433E-001	  4.74383E-001
  6.00000E-003	  4.93359E-001	  4.89097E-001	  4.43583E-001	  4.92181E-001
  6.40000E-003	  4.51953E-001	  5.28328E-001	  4.57273E-001	  4.98787E-001
  7.20000E-003	  4.86812E-001	  4.72509E-001	  4.73558E-001	  4.52887E-001
  8.00000E-003	  4.95400E-001	  4.85425E-001	  5.18011E-001	  4.82863E-001
  8.80000E-003	  4.77213E-001	  5.40322E-001	  4.75319E-001	  4.55229E-001
  9.60000E-003	  4.11566E-001	  5.02033E-001	  5.21092E-001	  4.77242E-001
  1.04000E-002	  4.37332E-001	  4.82658E-001	  4.85002E-001	  4.86610E-001
  1.12000E-002	  4.95431E-001	  5.52316E-001	  4.80600E-001	  4.90825E-001
  1.20000E-002	  4.26217E-001	  4.84503E-001	  5.10500E-001	  4.69748E-001
  1.28000E-002	  4.19407E-001	  4.84512E-001	  4.72026E-001	  4.62556E-001
  1.44000E-002	  4.96452E-001	  4.73440E-001	  4.85450E-001	  4.81028E-001
  1.60000E-002	  4.21175E-001	  4.59111E-001	  4.77719E-001	  4.73066E-001
  1.76000E-002	  4.30269E-001	  5.07317E-001	  4.76619E-001	  4.99998E-001
  1.92000E-002	  4.30239E-001	  5.03627E-001	  4.76619E-001	  4.83106E-001
  2.08000E-002	  4.27208E-001	  4.67184E-001	  4.70457E-001	  4.75378E-001
  2.24000E-002	  4.31250E-001	  5.00167E-001	  4.97085E-001	  4.86619E-001
  2.40000E-002	  4.12052E-001	  5.01782E-001	  4.62535E-001	  4.56672E-001
  2.56000E-002	  4.36887E-001	  4.82599E-001	  4.69345E-001	  4.67610E-001
  2.88000E-002	  4.19077E-001	  4.88366E-001	  4.64394E-001	  4.73670E-001
  3.20000E-002	  4.55075E-001	  4.71297E-001	  4.84310E-001	  4.70157E-001
  3.52000E-002	  4.32213E-001	  4.74641E-001	  4.57462E-001	  4.53295E-001
  3.84000E-002	  4.25140E-001	  4.86175E-001	  4.82879E-001	  4.83272E-001
  4.16000E-002	  4.45350E-001	  4.78303E-001	  4.61615E-001	  4.47997E-001
  4.48000E-002	  4.05786E-001	  4.75765E-001	  4.71518E-001	  4.77124E-001
  4.80000E-002	  4.25645E-001	  4.77726E-001	  4.49622E-001	  4.62839E-001
  5.12000E-002	  4.16738E-001	  4.89530E-001	  4.48031E-001	  4.59626E-001
  5.76000E-002	  4.00161E-001	  4.62193E-001	  4.36919E-001	  4.50315E-001
  6.40000E-002	  4.07993E-001	  4.72459E-001	  4.37909E-001	  4.63900E-001
  7.04000E-002	  4.14343E-001	  4.46680E-001	  4.41485E-001	  4.39366E-001
  7.68000E-002	  3.81218E-001	  4.56887E-001	  4.40109E-001	  4.42645E-001
  8.32000E-002	  3.89239E-001	  4.21563E-001	  4.45831E-001	  4.52043E-001
  8.96000E-002	  3.98995E-001	  4.65106E-001	  4.28062E-001	  4.35736E-001
  9.60000E-002	  3.87976E-001	  4.20583E-001	  4.17802E-001	  4.25608E-001
  1.02400E-001	  3.82648E-001	  4.26098E-001	  4.25074E-001	  4.09658E-001
  1.15200E-001	  3.70240E-001	  4.27338E-001	  4.10688E-001	  4.18825E-001
  1.28000E-001	  3.63322E-001	  4.23704E-001	  3.94596E-001	  3.93734E-001
  1.40800E-001	  3.35576E-001	  4.08190E-001	  3.90058E-001	  3.88876E-001
  1.53600E-001	  3.30281E-001	  3.89328E-001	  3.72260E-001	  3.82378E-001
  1.66400E-001	  3.17239E-001	  3.80534E-001	  3.65741E-001	  3.63054E-001
  1.79200E-001	  3.08462E-001	  3.72109E-001	  3.56003E-001	  3.50875E-001
  1.92000E-001	  2.97497E-001	  3.57920E-001	  3.41589E-001	  3.42355E-001
  2.04800E-001	  2.81026E-001	  3.52302E-001	  3.31106E-001	  3.29568E-001
  2.30400E-001	  2.65962E-001	  3.35041E-001	  3.21945E-001	  3.16975E-001
  2.56000E-001	  2.31999E-001	  3.10453E-001	  2.98598E-001	  3.04093E-001
  2.81600E-001	  2.10980E-001	  2.85780E-001	  2.80910E-001	  2.78087E-001
  3.07200E-001	  1.96908E-001	  2.67557E-001	  2.66034E-001	  2.60954E-001
  3.32800E-001	  1.79456E-001	  2.54907E-001	  2.49761E-001	  2.40276E-001
  3.58400E-001	  1.60077E-001	  2.41972E-001	  2.26825E-001	  2.26731E-001
  3.84000E-001	  1.41164E-001	  2.20943E-001	  2.15258E-001	  2.06307E-001
  4.09600E-001	  1.32520E-001	  2.01285E-001	  1.97941E-001	  1.93498E-001
  4.60800E-001	  1.09980E-001	  1.83485E-001	  1.70542E-001	  1.69282E-001
  5.12000E-001	  9.35949E-002	  1.67913E-001	  1.48688E-001	  1.50088E-001
  5.63200E-001	  8.00778E-002	  1.48644E-001	  1.29765E-001	  1.29866E-001
  6.14400E-001	  6.27685E-002	  1.32565E-001	  1.13106E-001	  1.08433E-001
  6.65600E-001	  4.90533E-002	  1.18034E-001	  9.68175E-002	  9.99258E-002
  7.16800E-001	  4.55794E-002	  1.03288E-001	  8.85906E-002	  8.49768E-002
  7.68000E-001	  4.19837E-002	  9.19555E-002	  8.30956E-002	  7.42275E-002
  8.19200E-001	  3.84475E-002	  8.19338E-002	  7.63914E-002	  6.45817E-002
  9.21600E-001	  3.37759E-002	  6.31673E-002	  6.79078E-002	  4.26299E-002
  1.02400E+000	  3.14091E-002	  4.59979E-002	  6.00714E-002	  3.17645E-002
  1.12640E+000	  2.63542E-002	  3.19338E-002	  5.21425E-002	  1.44073E-002
  1.22880E+000	  2.86557E-002	  2.07890E-002	  4.84671E-002	  4.38579E-003
  1.33120E+000	  2.51953E-002	  1.51286E-002	  4.57662E-002	  1.73766E-003
  1.43360E+000	  1.81865E-002	  1.02094E-002	  4.69000E-002	 -2.19246E-003
  1.53600E+000	  1.52568E-002	  9.46428E-003	  4.13812E-002	 -6.77968E-003
  1.63840E+000	  1.18017E-002	  1.24436E-002	  3.89523E-002	 -3.66263E-003
  1.84320E+000	  1.66979E-002	  1.28031E-002	  2.76892E-002	  9.83649E-004
  2.04800E+000	  1.50667E-002	  1.58100E-002	  1.64490E-002	  6.20941E-004
  2.25280E+000	  7.80778E-003	  1.96285E-002	  1.59495E-002	  1.77431E-003
  2.45760E+000	 -2.55246E-004	  1.82988E-002	  5.53835E-003	  2.60059E-004
  2.66240E+000	  2.16482E-003	  1.07264E-002	  1.55411E-003	  1.44242E-003
  2.86720E+000	 -1.60704E-003	  4.20095E-003	 -1.10026E-003	 -2.58380E-003
  3.07200E+000	 -6.70930E-003	 -7.44903E-003	  1.25144E-003	 -5.06918E-003
  3.27680E+000	 -1.37878E-003	 -1.74726E-002	  4.39896E-004	 -1.22634E-002
  3.68640E+000	  1.76454E-002	 -1.77240E-002	 -4.31177E-003	 -5.67025E-003
  4.09600E+000	  2.18746E-002	 -1.59922E-002	  7.58709E-003	  2.31042E-003
  4.50560E+000	  1.09049E-002	  3.13524E-003	  6.83722E-003	 -1.50148E-003
  4.91520E+000	  4.98199E-003	 -5.67765E-004	  7.91658E-003	 -1.55713E-002
  5.32480E+000	  1.41760E-002	  8.52761E-004	  1.25279E-002	 -2.10303E-002
  5.73440E+000	  4.85040E-003	 -1.49172E-002	  1.64201E-002	 -2.11439E-002
  6.14400E+000	  1.13805E-002	 -1.74092E-002	  6.85557E-003	 -1.73078E-002
  6.55360E+000	  1.37443E-002	 -2.83447E-002	 -6.88753E-003	 -9.36517E-003
  7.37280E+000	  1.88333E-002	 -1.04708E-002	 -4.78850E-003	 -3.50595E-004
  8.19200E+000	 -4.36539E-003	  5.60758E-003	 -1.54983E-004	  9.59967E-004
  9.01120E+000	 -3.50005E-003	 -7.51682E-003	 -5.11193E-003	  1.36027E-003
  9.83040E+000	 -9.63834E-003	 -1.96384E-003	  4.26595E-004	  4.56497E-003
  1.06496E+001	 -5.43152E-003	 -2.93532E-003	  5.49096E-003	  5.40336E-003
  1.14688E+001	 -8.79916E-003	 -8.33008E-003	 -1.34349E-003	  1.35380E-002
  1.22880E+001	 -7.29996E-003	 -1.11092E-002	 -1.39291E-002	  1.23116E-002
  1.31072E+001	  1.12786E-002	 -1.76953E-002	 -1.81931E-002	  1.46100E-002
  1.47456E+001	 -1.85868E-003	 -2.39349E-002	 -3.52723E-003	  1.03572E-002
  1.63840E+001	 -2.19874E-003	 -4.95204E-003	 -1.78561E-003	 -7.27706E-003
  1.80224E+001	  5.43582E-003	  1.33321E-003	 -1.08854E-002	 -7.55711E-003
  1.96608E+001	  3.52984E-003	  2.33268E-003	  1.22859E-002	  4.70951E-003
  2.12992E+001	  2.12817E-003	  1.03951E-002	 -1.75915E-003	  7.99204E-005
  2.29376E+001	  8.71250E-003	 -2.08976E-003	 -1.46684E-003	  3.54600E-004
  2.45760E+001	  5.48780E-003	 -1.44798E-002	  5.07894E-003	  2.84419E-003
  2.62144E+001	  5.25099E-003	  4.61728E-003	 -1.43214E-002	  4.53643E-003
  2.94912E+001	 -4.19125E-004	 -1.39908E-005	  1.03040E-002	  6.21598E-004
  3.27680E+001	 -8.88555E-003	 -1.49001E-002	 -1.00309E-002	  8.22517E-003
  3.60448E+001	 -1.87887E-003	 -3.24914E-004	 -5.01401E-003	  2.61977E-003
  3.93216E+001	 -1.79989E-003	  2.22305E-004	  1.00107E-002	  5.52970E-003
  4.25984E+001	  2.90268E-003	 -1.82078E-003	 -1.18919E-002	 -5.77376E-003
  4.58752E+001	 -2.67621E-003	  6.79132E-004	 -1.19889E-002	  5.49956E-003
  4.91520E+001	  7.28482E-004	  4.37603E-003	  1.96597E-002	 -1.22892E-003
  5.24288E+001	  4.34440E-005	  3.56678E-003	 -8.65019E-004	 -7.24957E-004
  5.89824E+001	  1.77179E-003	 -6.97295E-003	  7.89948E-004	 -2.09800E-003
  6.55360E+001	 -1.43634E-003	  2.40125E-003	 -7.12623E-004	 -1.63970E-003
  7.20896E+001	 -3.52045E-003	  1.46913E-002	  1.14842E-003	 -4.56716E-003
  7.86432E+001	 -1.53380E-003	 -1.44341E-003	  3.72106E-003	  5.72587E-003
  8.51968E+001	  5.89960E-004	 -1.11225E-002	 -6.12489E-003	  3.29607E-004
  9.17504E+001	 -8.46415E-003	  2.85461E-003	 -1.15173E-002	  3.28880E-003
  9.83040E+001	  2.21273E-003	  1.50323E-002	  5.21749E-003	 -1.83344E-003
  1.04858E+002	  4.16382E-003	  4.32505E-003	  3.84258E-003	 -1.89687E-003
  1.17965E+002	 -5.22162E-003	 -1.26518E-003	  9.61516E-004	  3.04977E-003
  1.31072E+002	 -4.79998E-003	 -2.00367E-003	 -7.31360E-003	  3.56562E-003
  1.44179E+002	  3.99890E-004	 -1.42018E-003	 -5.65800E-003	 -2.54027E-004
  1.57286E+002	 -5.97620E-004	 -3.37880E-003	 -2.30617E-003	 -1.49489E-003
  1.70394E+002	 -5.87134E-003	  3.29566E-003	  3.74905E-003	  3.12600E-003
  1.83501E+002	 -8.88285E-003	 -7.30073E-003	  4.79210E-003	  2.84560E-003
  1.96608E+002	 -2.90409E-003	  5.63733E-003	  3.12090E-003	 -6.89921E-004
  2.09715E+002	 -4.49355E-003	  1.61701E-003	  3.07792E-003	  6.92967E-004
  2.35930E+002	  1.48761E-003	  3.19308E-004	  4.03663E-003	  1.41298E-003
  2.62144E+002	  8.66114E-003	 -3.19911E-003	  4.23661E-004	  3.67505E-003
  2.88358E+002	  2.50380E-003	  3.53453E-003	  1.24382E-004	 -1.25900E-003
  3.14573E+002	  2.17106E-003	  4.10683E-003	 -2.05443E-003	 -4.17946E-003
  3.40787E+002	 -5.14652E-004	 -2.79669E-004	 -1.18370E-003	  7.09785E-004
  3.67002E+002	  1.61253E-003	  5.31898E-004	 -1.88775E-003	  5.14965E-003
  3.93216E+002	 -1.98352E-003	  7.92153E-003	  2.87633E-004	  1.39080E-003

"Count Rate"
       0.01311	      57.67822	      46.23413	      32.50122	      52.71912
       0.02621	      48.29407	      71.25854	      46.84448	      55.16052
       0.03932	      35.40039	      51.04065	      39.52026	      42.34314
       0.05243	      54.62646	      39.13879	      59.05151	      35.47668
       0.06554	      71.56372	      61.79810	      57.98340	      50.73547
       0.07864	      42.64832	      49.13330	      39.67285	      44.25049
       0.09175	      53.02429	      61.26404	      54.93164	      54.62646
       0.10486	      51.26953	      50.65918	      66.29944	      60.80627
       0.11796	      44.32678	      62.86621	      56.22864	      51.19324
       0.13107	      58.44116	      43.41125	      46.23413	      56.68640
       0.14418	      50.43030	      48.44666	      39.44397	      47.91260
       0.15729	      44.32678	      53.48206	      55.46570	      49.13330
       0.17039	      33.41675	      40.43579	      54.39758	      57.98340
       0.18350	      51.95618	      74.15771	      56.91528	      38.60474
       0.19661	      61.03516	      29.60205	      48.82813	      50.12512
       0.20972	      48.75183	      62.17957	      68.58826	      64.84985
       0.22282	      43.71643	      35.55298	      61.87439	      38.68103
       0.23593	      42.64832	      36.08704	      38.14697	      59.50928
       0.24904	      39.74915	      54.39758	      43.71643	      46.08154
       0.26214	      39.82544	      62.10327	      49.89624	      43.33496
       0.27525	      36.16333	      40.96985	      44.93713	      43.02979
       0.28836	      61.03516	      59.12781	      55.61829	      57.14417
       0.30147	      63.55286	      55.38940	      64.92615	      49.59106
       0.31457	      52.03247	      64.08691	      48.98071	      47.53113
       0.32768	      58.05969	      44.09790	      47.98889	      51.49841
       0.34079	      55.23682	      48.06519	      51.19324	      47.60742
       0.35389	      53.71094	      48.67554	      44.86084	      48.59924
       0.36700	      62.10327	      42.87720	      64.92615	      51.95618
       0.38011	      53.48206	      64.23950	      58.05969	      54.93164
       0.39322	      43.48755	      48.14148	      66.68091	      45.01343
       0.40632	      49.36218	      67.21497	      60.65369	      42.03796
       0.41943	      57.44934	      52.10876	      62.78992	      41.27502
       0.43254	      55.99976	      47.14966	      56.22864	      45.85266
       0.44564	      52.33765	      58.21228	      46.15784	      47.30225
       0.45875	      64.54468	      55.38940	      51.04065	      51.72729
       0.47186	      55.31311	      44.93713	      49.74365	      59.58557
       0.48497	      41.73279	      61.56921	      46.69189	      63.93433
       0.49807	      40.74097	      58.67004	      49.74365	      50.81177
       0.51118	      41.58020	      43.33496	      72.25037	      47.53113
       0.52429	      51.95618	      49.59106	      37.84180	      43.41125
       0.53740	      42.19055	      49.89624	      52.94800	      48.75183
       0.55050	      42.19055	      45.54749	      51.65100	      45.47119
       0.56361	      54.09241	      44.70825	      51.11694	      59.58557
       0.57672	      59.12781	      54.47388	      70.95337	      54.85535
       0.58982	      44.63196	      49.28589	      76.06506	      62.25586
       0.60293	      52.64282	      49.81995	      48.37036	      57.37305
       0.61604	      56.53381	      50.35400	      44.47937	      54.93164
       0.62915	      53.25317	      45.70007	      69.50378	      62.94250
       0.64225	      41.35132	      74.46289	      55.69458	      48.90442
       0.65536	      57.44934	      49.89624	      62.40845	      65.23132
       0.66847	      54.93164	      46.84448	      42.57202	      55.92346
       0.68157	      48.82813	      46.84448	      61.18774	      55.38940
       0.69468	      61.11145	      64.01062	      69.50378	      44.09790
       0.70779	      48.29407	      68.74084	      38.90991	      63.01880
       0.72090	      63.40027	      49.59106	      39.52026	      59.28040
       0.73400	      44.40308	      45.24231	      62.40845	      43.33496
       0.74711	      33.95081	      59.50928	      46.23413	      48.98071
