ALV-7004/USB-FAST
Date :	"11/11/2025"
Time :	"4:00:24 PM"
Samplename : 	""
SampMemo(0) : 	""
SampMemo(1) : 	""
SampMemo(2) : 	""
SampMemo(3) : 	""
SampMemo(4) : 	""
SampMemo(5) : 	""
SampMemo(6) : 	""
SampMemo(7) : 	""
SampMemo(8) : 	""
SampMemo(9) : 	""
Temperature [K] :	     298.16000
Viscosity [cp]  :	       0.89000
Refractive Index:	       1.33200
Wavelength [nm] :	       0.00000
Angle [°]       :	       0.00000
Duration [s]    :	         1
FloatDur [ms]   :	          944
Stop TP [ms]   :	     68580
Runs            :	         1
Mode            :	"A-CH0+1  A-CH2+3 "
MeanCR0 [kHz]   :	      56.72243
MeanCR1 [kHz]   :	      56.60375
MeanCR2 [kHz]   :	      57.01383
MeanCR3 [kHz]   :	      56.17142

"Correlation"
  3.12500E-006	 -1.00000E+000	 -1.00000E+000	 -1.00000E+000	 -1.00000E+000
  6.25000E-006	 -1.00000E+000	 -1.00000E+000	 -1.00000E+000	 -1.00000E+000
  9.37500E-006	 -1.00000E+000	 -1.00000E+000	 -1.00000E+000	 -1.00000E+000
  1.25000E-005	 -1.00000E+000	 -1.00000E+000	 -1.00000E+000	 -1.00000E+000
  1.56250E-005	 -1.00000E+000	 -1.00000E+000	 -1.00000E+000	 -1.00000E+000
  1.87500E-005	 -1.00000E+000	 -1.00000E+000	 -1.00000E+000	 -1.00000E+000
  2.18750E-005	 -7.89221E-001	  5.83203E-002	  1.47466E-001	 -8.92533E-001
  2.50000E-005	  1.41761E+001	  1.21232E+001	  1.06833E+001	  2.55444E+001
  2.81250E-005	  3.21559E+000	  2.06913E+000	  2.02514E+000	  8.24220E+000
  3.12500E-005	  1.84552E+000	  1.43414E+000	  1.19062E+000	  5.44804E+000
  3.43750E-005	  7.91624E-001	  1.22247E+000	  1.08630E+000	  3.62110E+000
  3.75000E-005	  1.10779E+000	  1.32830E+000	  6.69041E-001	  4.15844E+000
  4.06250E-005	  1.21318E+000	  1.01081E+000	  7.73356E-001	  3.08376E+000
  4.37500E-005	  1.10779E+000	  1.01081E+000	  1.19062E+000	  3.08376E+000
  4.68750E-005	  1.00240E+000	  6.93312E-001	  1.08630E+000	  1.68669E+000
  5.00000E-005	  3.17370E-001	  7.99144E-001	  6.69041E-001	  2.11655E+000
  5.62500E-005	  1.47666E+000	  1.01081E+000	  3.03938E-001	  2.17029E+000
  6.25000E-005	  3.70065E-001	  9.04976E-001	  7.21199E-001	  1.31055E+000
  6.87500E-005	  6.86234E-001	  6.93312E-001	  6.16884E-001	  1.31055E+000
  7.50000E-005	  6.86234E-001	  3.75816E-001	  6.16884E-001	  8.26946E-001
  8.12500E-005	  9.49708E-001	  1.64152E-001	  8.77671E-001	  1.14935E+000
  8.75000E-005	  1.05510E+000	  1.01081E+000	  6.69041E-001	  8.80680E-001
  9.37500E-005	  3.70065E-001	  5.34564E-001	  3.03938E-001	  1.25682E+000
  1.00000E-004	  5.28149E-001	  5.87480E-001	  6.69041E-001	  9.34413E-001
  1.12500E-004	  3.96412E-001	  7.46228E-001	  3.56096E-001	  6.38878E-001
  1.25000E-004	  4.49107E-001	  5.34564E-001	 -3.50856E-002	  5.04543E-001
  1.37500E-004	  2.11981E-001	  6.13938E-001	  7.47277E-001	  6.12011E-001
  1.50000E-004	  7.38929E-001	  4.81648E-001	  3.56096E-001	  8.00079E-001
  1.62500E-004	  2.91023E-001	  2.96442E-001	  9.03750E-001	  6.92611E-001
  1.75000E-004	  6.33539E-001	  5.08106E-001	  4.86490E-001	  4.77677E-001
  1.87500E-004	  5.54497E-001	  5.34564E-001	  6.69041E-001	  5.04543E-001
  2.00000E-004	  5.14975E-001	  3.36129E-001	  5.77765E-001	  5.71710E-001
  2.25000E-004	  3.04196E-001	  4.41961E-001	  4.47371E-001	  6.25444E-001
  2.50000E-004	  3.17370E-001	  5.87480E-001	  5.12568E-001	  7.59778E-001
  2.75000E-004	  3.56891E-001	  3.22900E-001	  6.29923E-001	  5.58277E-001
  3.00000E-004	  3.70065E-001	  4.55190E-001	  6.95119E-001	  5.17977E-001
  3.25000E-004	  6.86234E-001	  3.22900E-001	  4.34332E-001	  2.89608E-001
  3.50000E-004	  2.11980E-001	  4.28732E-001	  5.64726E-001	  5.71710E-001
  3.75000E-004	  3.83238E-001	  8.52060E-001	  4.99529E-001	  4.91110E-001
  4.00000E-004	  4.95214E-001	  6.53624E-001	  4.47371E-001	  4.50809E-001
  4.50000E-004	  5.01801E-001	  4.75033E-001	  4.40851E-001	  4.30659E-001
  5.00000E-004	  5.74256E-001	  5.41178E-001	  4.66930E-001	  7.26194E-001
  5.50000E-004	  6.79646E-001	  4.15502E-001	  6.75560E-001	  5.58276E-001
  6.00000E-004	  4.82041E-001	  6.00708E-001	  6.75560E-001	  5.98576E-001
  6.50000E-004	  5.34735E-001	  4.68418E-001	  3.30016E-001	  5.04543E-001
  7.00000E-004	  4.49106E-001	  5.14720E-001	  4.79969E-001	  4.84392E-001
  7.50000E-004	  2.71261E-001	  5.87479E-001	  3.95213E-001	  5.98576E-001
  8.00000E-004	  4.06291E-001	  5.47791E-001	  4.96267E-001	  5.04541E-001
  9.00000E-004	  4.32638E-001	  4.18808E-001	  5.54944E-001	  5.04541E-001
  1.00000E-003	  5.28147E-001	  3.85736E-001	  4.40850E-001	  5.54917E-001
  1.10000E-003	  4.72159E-001	  4.84953E-001	  4.11511E-001	  5.11258E-001
  1.20000E-003	  3.53596E-001	  5.14718E-001	  4.34330E-001	  4.81033E-001
  1.30000E-003	  5.34734E-001	  4.78339E-001	  5.41905E-001	  4.97825E-001
  1.40000E-003	  3.47009E-001	  4.35345E-001	  4.79968E-001	  5.48200E-001
  1.50000E-003	  5.24854E-001	  3.85736E-001	  5.06047E-001	  5.71708E-001
  1.60000E-003	  4.55689E-001	  4.55186E-001	  4.44107E-001	  4.22259E-001
  1.80000E-003	  4.14522E-001	  5.39520E-001	  4.52257E-001	  4.49153E-001
  2.00000E-003	  4.14522E-001	  3.97309E-001	  4.01729E-001	  4.00456E-001
  2.20000E-003	  4.22755E-001	  3.65890E-001	  4.65296E-001	  4.37399E-001
  2.40000E-003	  4.06288E-001	  4.75029E-001	  4.65296E-001	  4.60908E-001
  2.60000E-003	  4.52396E-001	  5.08101E-001	  5.33753E-001	  4.05494E-001
  2.80000E-003	  4.21109E-001	  4.38649E-001	  4.29438E-001	  3.50080E-001
  3.00000E-003	  4.22755E-001	  4.25420E-001	  4.39217E-001	  4.02136E-001
  3.20000E-003	  3.79936E-001	  4.69236E-001	  4.40027E-001	  4.70138E-001
  3.60000E-003	  4.82855E-001	  4.67583E-001	  3.75646E-001	  3.68547E-001
  4.00000E-003	  4.44158E-001	  3.70846E-001	  4.07429E-001	  4.73497E-001
  4.40000E-003	  4.00520E-001	  4.80812E-001	  4.57956E-001	  4.05489E-001
  4.80000E-003	  4.46628E-001	  3.74980E-001	  3.82166E-001	  4.10527E-001
  5.20000E-003	  4.03813E-001	  4.65102E-001	  4.30248E-001	  4.07168E-001
  5.60000E-003	  4.15340E-001	  4.81638E-001	  3.71571E-001	  4.23960E-001
  6.00000E-003	  4.44981E-001	  3.91516E-001	  4.01724E-001	  3.52594E-001
  6.40000E-003	  4.16566E-001	  4.39902E-001	  3.91936E-001	  3.76934E-001
  7.20000E-003	  3.77457E-001	  4.29153E-001	  4.17225E-001	  3.96244E-001
  8.00000E-003	  3.89807E-001	  3.59701E-001	  4.12743E-001	  4.11357E-001
  8.80000E-003	  3.74163E-001	  4.30393E-001	  4.02963E-001	  3.75254E-001
  9.60000E-003	  3.82011E-001	  4.20885E-001	  4.19263E-001	  3.79452E-001
  1.04000E-002	  3.63511E-001	  3.71689E-001	  3.51213E-001	  3.49227E-001
  1.12000E-002	  3.26047E-001	  3.88226E-001	  3.93999E-001	  3.55944E-001
  1.20000E-002	  4.13325E-001	  4.01041E-001	  4.01334E-001	  3.84910E-001
  1.28000E-002	  3.69668E-001	  3.81412E-001	  3.73199E-001	  3.77125E-001
  1.44000E-002	  3.30764E-001	  3.95674E-001	  3.77885E-001	  3.39553E-001
  1.60000E-002	  3.39228E-001	  3.84306E-001	  3.75643E-001	  3.89089E-001
  1.76000E-002	  3.43139E-001	  3.70663E-001	  3.46305E-001	  3.66420E-001
  1.92000E-002	  3.56931E-001	  3.48934E-001	  3.23894E-001	  3.46690E-001
  2.08000E-002	  3.26054E-001	  3.73945E-001	  3.31228E-001	  3.48159E-001
  2.24000E-002	  2.91884E-001	  3.31389E-001	  3.58733E-001	  3.19403E-001
  2.40000E-002	  3.07528E-001	  3.47925E-001	  3.42638E-001	  3.02192E-001
  2.56000E-002	  2.91873E-001	  3.31064E-001	  3.19702E-001	  3.30412E-001
  2.88000E-002	  3.00210E-001	  3.00056E-001	  2.87917E-001	  3.07009E-001
  3.20000E-002	  2.63569E-001	  3.23622E-001	  3.10941E-001	  3.35240E-001
  3.52000E-002	  2.70774E-001	  2.91581E-001	  2.94131E-001	  3.06719E-001
  3.84000E-002	  2.25900E-001	  3.10185E-001	  2.71844E-001	  2.88667E-001
  4.16000E-002	  2.36398E-001	  2.75973E-001	  2.61554E-001	  2.91291E-001
  4.48000E-002	  2.24047E-001	  2.78947E-001	  2.59007E-001	  2.63795E-001
  4.80000E-002	  2.32922E-001	  2.83598E-001	  2.51570E-001	  2.51620E-001
  5.12000E-002	  2.20167E-001	  2.48111E-001	  2.30644E-001	  2.33654E-001
  5.76000E-002	  1.94077E-001	  2.37360E-001	  2.22187E-001	  2.33444E-001
  6.40000E-002	  1.77536E-001	  2.09894E-001	  2.01605E-001	  2.03219E-001
  7.04000E-002	  1.78771E-001	  2.06615E-001	  1.97965E-001	  1.87110E-001
  7.68000E-002	  1.70178E-001	  1.90571E-001	  1.67129E-001	  2.00595E-001
  8.32000E-002	  1.47763E-001	  1.74395E-001	  1.54700E-001	  1.64043E-001
  8.96000E-002	  1.26150E-001	  1.51471E-001	  1.35698E-001	  1.71022E-001
  9.60000E-002	  1.25224E-001	  1.61475E-001	  1.46090E-001	  1.55857E-001
  1.02400E-001	  1.18967E-001	  1.50596E-001	  1.31234E-001	  1.43872E-001
  1.15200E-001	  1.09462E-001	  1.21058E-001	  1.28466E-001	  1.24614E-001
  1.28000E-001	  8.62586E-002	  9.61684E-002	  1.14660E-001	  1.07140E-001
  1.40800E-001	  6.94016E-002	  9.41060E-002	  9.64968E-002	  8.70158E-002
  1.53600E-001	  6.57413E-002	  8.30496E-002	  8.88396E-002	  8.89425E-002
  1.66400E-001	  6.55869E-002	  7.77053E-002	  8.29098E-002	  7.42501E-002
  1.79200E-001	  5.17150E-002	  6.37550E-002	  7.19478E-002	  6.21813E-002
  1.92000E-001	  5.35756E-002	  4.60907E-002	  5.74293E-002	  6.12831E-002
  2.04800E-001	  4.83277E-002	  4.57886E-002	  6.18842E-002	  4.70206E-002
  2.30400E-001	  3.61341E-002	  3.50238E-002	  5.74030E-002	  3.90102E-002
  2.56000E-001	  3.10424E-002	  2.97869E-002	  4.77026E-002	  2.16955E-002
  2.81600E-001	  2.72120E-002	  2.48674E-002	  4.18627E-002	  1.88419E-002
  3.07200E-001	  2.09615E-002	  1.37090E-002	  3.09909E-002	  1.92346E-002
  3.32800E-001	  1.60435E-002	  1.60554E-002	  2.95515E-002	  1.38151E-002
  3.58400E-001	  1.87018E-002	  1.32177E-002	  1.42661E-002	  5.79156E-003
  3.84000E-001	  1.19426E-002	  8.22884E-003	  1.81897E-002	  1.54554E-002
  4.09600E-001	  1.35218E-002	  6.53107E-003	  6.82722E-003	  1.08760E-002
  4.60800E-001	  5.16813E-003	  4.35233E-003	  3.77300E-003	  9.91386E-003
  5.12000E-001	 -1.74275E-003	  4.23763E-003	  1.54744E-003	  1.14577E-002
  5.63200E-001	 -4.89371E-005	  6.47993E-003	  4.12806E-003	  1.00476E-002
  6.14400E-001	 -8.43091E-003	  2.25771E-003	  6.48007E-003	  1.00798E-002
  6.65600E-001	 -4.29831E-004	 -3.87189E-004	  1.67632E-003	  6.05169E-003
  7.16800E-001	 -5.88125E-003	 -7.09078E-003	  3.27603E-003	 -1.01275E-004
  7.68000E-001	 -7.04545E-003	 -4.50944E-003	 -3.86400E-003	  7.01223E-005
  8.19200E-001	 -9.13553E-003	 -5.45120E-003	 -1.30827E-003	 -6.39838E-003
  9.21600E-001	 -1.74070E-003	 -8.78979E-003	 -6.13172E-003	 -3.48342E-003
  1.02400E+000	  1.60668E-003	 -1.02295E-002	 -1.96360E-003	 -2.78422E-003
  1.12640E+000	  4.48320E-003	 -1.02325E-002	 -5.70537E-003	  4.47557E-004
  1.22880E+000	  9.51634E-004	 -7.55073E-004	 -3.78517E-003	  3.68927E-004
  1.33120E+000	  8.16723E-003	 -8.98051E-003	 -2.00292E-003	  4.16435E-003
  1.43360E+000	  8.15214E-003	 -1.43024E-002	 -1.34169E-003	  1.04911E-002
  1.53600E+000	  4.43914E-003	 -7.52478E-003	  2.52671E-003	 -2.72748E-003
  1.63840E+000	  9.37116E-003	 -1.22070E-002	  7.37879E-003	  3.15039E-003
  1.84320E+000	  8.71302E-003	 -1.20370E-002	  7.33982E-003	  4.51437E-003
  2.04800E+000	  2.46086E-003	 -1.06699E-002	  1.01928E-002	 -4.50568E-003
  2.25280E+000	 -2.99223E-003	  5.60528E-004	  6.43936E-004	 -3.98990E-003
  2.45760E+000	 -5.41497E-003	 -4.09889E-003	 -3.67524E-003	 -2.45747E-003
  2.66240E+000	 -8.26139E-003	  2.91446E-003	 -1.34497E-003	  5.63400E-003
  2.86720E+000	 -2.46650E-003	 -4.19270E-003	 -6.61935E-003	  3.86995E-004
  3.07200E+000	 -1.81591E-003	 -1.29048E-002	 -1.56977E-003	  3.42381E-004
  3.27680E+000	 -4.66225E-004	 -3.31794E-003	 -3.80399E-003	 -4.25261E-003
  3.68640E+000	 -3.22474E-003	 -2.34318E-003	  1.78790E-004	  4.56265E-003
  4.09600E+000	 -2.40836E-003	  8.89007E-003	  1.82720E-003	  1.03782E-002
  4.50560E+000	  4.71122E-003	  1.19300E-003	 -2.99619E-003	  8.46734E-003
  4.91520E+000	  1.67546E-003	 -9.39619E-003	 -1.14250E-003	 -7.13402E-004
  5.32480E+000	 -6.05035E-003	 -4.22744E-004	 -1.15571E-003	  3.66045E-003
  5.73440E+000	  1.91026E-003	 -3.33544E-003	  1.12257E-003	  4.75704E-003
  6.14400E+000	 -2.59279E-003	  4.90887E-003	 -1.46778E-003	  2.35908E-003
  6.55360E+000	 -1.56148E-004	  8.30723E-003	  2.44098E-003	 -3.37046E-003
  7.37280E+000	  2.63422E-003	 -1.59194E-003	 -1.29046E-003	  6.25740E-004
  8.19200E+000	  4.76612E-003	 -3.97148E-003	 -5.77016E-003	 -1.77167E-003
  9.01120E+000	  1.85850E-003	 -4.10462E-004	  4.56249E-003	  4.78340E-005
  9.83040E+000	 -1.14907E-003	  3.48819E-003	 -1.04320E-003	  8.20949E-004
  1.06496E+001	  8.66151E-004	  6.83662E-003	  2.60497E-003	 -1.30572E-003
  1.14688E+001	 -2.18441E-003	 -2.03156E-003	 -1.01794E-003	  1.78420E-003
  1.22880E+001	 -1.39510E-003	  4.53762E-003	 -3.25254E-003	  7.98103E-004
  1.31072E+001	  3.20797E-003	 -6.39891E-004	 -2.47780E-003	 -3.02346E-003
  1.47456E+001	 -1.00096E-003	  1.56804E-003	  2.77977E-003	  1.33841E-004
  1.63840E+001	 -7.06916E-004	  1.19794E-003	  2.25125E-003	 -2.18374E-003
  1.80224E+001	  9.62354E-004	 -4.65565E-004	 -1.05120E-003	  1.62147E-003
  1.96608E+001	  3.15173E-003	  1.29247E-003	  4.07493E-003	  3.56806E-003
  2.12992E+001	  1.79717E-003	 -1.44957E-003	  2.10605E-004	  9.47062E-005
  2.29376E+001	 -4.36368E-003	  2.50912E-003	 -3.32449E-003	  5.34679E-004
  2.45760E+001	 -1.59490E-003	  1.72233E-004	 -9.69335E-004	 -3.38580E-004
  2.62144E+001	 -3.85386E-004	  5.17128E-004	 -1.94283E-003	 -1.54288E-003
  2.94912E+001	  1.32853E-003	  2.60806E-003	 -6.63778E-004	 -7.60119E-004
  3.27680E+001	 -1.74076E-004	 -9.58021E-004	 -2.86050E-003	 -4.64485E-003
  3.60448E+001	 -2.79249E-003	 -3.17420E-004	 -8.18654E-004	 -1.34373E-003
  3.93216E+001	 -4.16054E-004	  2.15577E-003	 -1.76214E-003	 -2.37512E-003
  4.25984E+001	 -2.65330E-003	  6.25415E-005	 -1.71706E-003	  1.43441E-003
  4.58752E+001	 -2.31704E-003	  3.58731E-004	  1.86136E-003	 -4.05775E-004
  4.91520E+001	 -9.04089E-004	  8.47210E-004	 -1.40283E-003	 -2.61653E-003
  5.24288E+001	 -4.00077E-004	  8.38239E-004	 -2.58567E-003	 -1.55460E-003
  5.89824E+001	  8.70572E-004	  6.76349E-004	  3.36076E-003	 -1.49815E-003
  6.55360E+001	 -1.63240E-003	 -1.39851E-003	 -4.33891E-004	  3.03617E-003
  7.20896E+001	  1.23165E-003	  1.34391E-004	 -9.83053E-004	  4.07579E-004
  7.86432E+001	  2.64304E-003	 -1.09147E-003	  5.89528E-004	 -1.68507E-003
  8.51968E+001	  1.01118E-003	 -1.96307E-004	 -2.73361E-005	  3.95038E-005
  9.17504E+001	  2.64681E-003	 -1.22211E-003	 -3.13148E-003	  1.75638E-004
  9.83040E+001	 -5.64519E-004	  1.91658E-005	  1.08454E-003	 -3.62330E-003
  1.04858E+002	 -1.83103E-003	 -2.31332E-003	  2.32672E-004	 -2.07033E-003
  1.17965E+002	 -1.22378E-003	 -5.39080E-004	  2.12369E-004	 -7.95115E-004
  1.31072E+002	 -1.64924E-003	 -4.30084E-004	  1.07220E-003	  1.89049E-003
  1.44179E+002	  8.37745E-004	 -1.50560E-003	 -2.73538E-004	  5.40688E-004
  1.57286E+002	  1.44582E-003	  1.29688E-003	  8.12188E-004	  3.37061E-005
  1.70394E+002	  2.83326E-004	  6.40868E-005	 -8.49187E-005	  8.00938E-004
  1.83501E+002	 -1.22086E-003	  1.25906E-003	 -2.20134E-003	  1.40391E-004
  1.96608E+002	 -1.37717E-003	  5.73028E-004	  1.18180E-003	  2.35067E-004
  2.09715E+002	 -3.64617E-004	  1.41348E-003	 -9.18731E-004	 -3.84535E-004
  2.35930E+002	  1.19242E-003	 -4.01931E-004	 -4.14066E-004	 -1.47532E-003
  2.62144E+002	 -7.15444E-004	 -3.83603E-004	  1.67258E-003	  9.36137E-004
  2.88358E+002	 -4.79049E-004	 -2.10123E-003	 -1.69982E-003	 -1.14906E-003
  3.14573E+002	  1.05276E-003	 -1.14181E-003	 -1.93974E-003	  8.07028E-004
  3.40787E+002	  3.60855E-004	  1.43347E-004	 -1.81005E-003	  7.72144E-004
  3.67002E+002	 -3.72625E-004	  1.25751E-004	  9.18277E-004	 -7.93804E-004
  3.93216E+002	  7.90787E-004	  9.26340E-005	  4.37542E-004	 -3.76897E-004

"Count Rate"
       0.01311	      55.08423	      58.05969	      50.81177	      55.23682
       0.02621	      58.28857	      51.95618	      63.55286	      61.49292
       0.03932	      60.04333	      56.38123	      54.47388	      60.27222
       0.05243	      62.17957	      49.13330	      58.44116	      54.62646
       0.06554	      60.50110	      56.38123	      48.90442	      46.08154
       0.07864	      58.05969	      54.32129	      61.72180	      52.18506
       0.09175	      55.77087	      55.46570	      59.81445	      56.30493
       0.10486	      57.67822	      53.71094	      59.66187	      55.54199
       0.11796	      52.71912	      58.82263	      51.57471	      57.60193
       0.13107	      57.06787	      55.08423	      50.81177	      52.03247
       0.14418	      56.83899	      58.97522	      51.87988	      58.89893
       0.15729	      57.67822	      48.90442	      52.18506	      60.65369
       0.17039	      53.25317	      54.32129	      61.41663	      48.98071
       0.18350	      58.74634	      46.84448	      64.62097	      56.38123
       0.19661	      54.77905	      59.73816	      59.43298	      49.05701
       0.20972	      49.66736	      55.38940	      61.64551	      47.30225
       0.22282	      57.06787	      58.67004	      56.22864	      50.50659
       0.23593	      52.79541	      52.10876	      61.41663	      60.88257
       0.24904	      60.57739	      52.26135	      62.25586	      55.61829
       0.26214	      59.89075	      53.40576	      45.92896	      62.56104
       0.27525	      54.85535	      52.64282	      54.77905	      52.71912
       0.28836	      60.80627	      58.82263	      58.67004	      63.93433
       0.30147	      56.61011	      56.30493	      59.43298	      59.58557
       0.31457	      58.74634	      49.36218	      59.81445	      59.66187
       0.32768	      63.32397	      49.59106	      47.37854	      55.46570
       0.34079	      58.67004	      50.58289	      52.87170	      46.53931
       0.35389	      50.88806	      58.36487	      56.45752	      59.12781
       0.36700	      48.98071	      57.14417	      53.71094	      54.32129
       0.38011	      55.16052	      54.47388	      53.17688	      50.96436
       0.39322	      49.36218	      54.32129	      56.30493	      49.13330
       0.40632	      55.69458	      67.82532	      65.23132	      55.84717
       0.41943	      63.09509	      69.58008	      55.54199	      67.90161
       0.43254	      61.56921	      53.71094	      51.49841	      58.74634
       0.44564	      51.11694	      61.95068	      66.83350	      57.90710
       0.45875	      47.14966	      65.53650	      50.27771	      53.10059
       0.47186	      52.18506	      60.57739	      57.52563	      50.43030
       0.48497	      52.41394	      55.54199	      48.29407	      56.22864
       0.49807	      56.83899	      53.40576	      51.72729	      67.59644
       0.51118	      66.68091	      53.71094	      45.77637	      52.79541
       0.52429	      54.47388	      49.43848	      56.22864	      53.78723
       0.53740	      52.87170	      58.21228	      56.22864	      48.21777
       0.55050	      56.68640	      55.38940	      55.99976	      56.76270
       0.56361	      58.59375	      56.07605	      55.31311	      55.77087
       0.57672	      63.17139	      59.20410	      58.67004	      64.92615
       0.58982	      56.15234	      55.84717	      50.27771	      61.34033
       0.60293	      53.10059	      59.43298	      53.55835	      50.35400
       0.61604	      56.30493	      56.38123	      59.96704	      56.68640
       0.62915	      56.45752	      61.95068	      57.06787	      55.46570
       0.64225	      55.84717	      56.38123	      53.78723	      49.20959
       0.65536	      66.98608	      56.99158	      51.04065	      47.76001
       0.66847	      57.37305	      65.07874	      58.67004	      53.02429
       0.68157	      53.32947	      52.87170	      61.64551	      60.34851
       0.69468	      49.05701	      50.12512	      60.34851	      49.13330
       0.70779	      54.09241	      55.00793	      51.57471	      53.10059
       0.72090	      49.59106	      51.11694	      56.91528	      53.93982
       0.73400	      69.73267	      52.18506	      65.07874	      52.87170
       0.74711	      52.71912	      54.01611	      54.24500	      57.29675
