ALV-7004/USB-FAST
Date :	"11/11/2025"
Time :	"3:55:46 PM"
Samplename : 	""
SampMemo(0) : 	""
SampMemo(1) : 	""
SampMemo(2) : 	""
SampMemo(3) : 	""
SampMemo(4) : 	""
SampMemo(5) : 	""
SampMemo(6) : 	""
SampMemo(7) : 	""
SampMemo(8) : 	""
SampMemo(9) : 	""
Temperature [K] :	     298.16000
Viscosity [cp]  :	       0.89000
Refractive Index:	       1.33200
Wavelength [nm] :	       0.00000
Angle [°]       :	       0.00000
Duration [s]    :	         1
FloatDur [ms]   :	          944
Stop TP [ms]   :	     64780
Runs            :	         1
Mode            :	"A-CH0+1  A-CH2+3 "
MeanCR0 [kHz]   :	      54.29268
MeanCR1 [kHz]   :	      53.99386
MeanCR2 [kHz]   :	      54.28950
MeanCR3 [kHz]   :	      53.94618

"Correlation"
  3.12500E-006	 -1.00000E+000	 -1.00000E+000	 -1.00000E+000	 -1.00000E+000
  6.25000E-006	 -1.00000E+000	 -1.00000E+000	 -1.00000E+000	 -1.00000E+000
  9.37500E-006	 -1.00000E+000	 -1.00000E+000	 -1.00000E+000	 -1.00000E+000
  1.25000E-005	 -1.00000E+000	 -1.00000E+000	 -1.00000E+000	 -1.00000E+000
  1.56250E-005	 -1.00000E+000	 -1.00000E+000	 -1.00000E+000	 -1.00000E+000
  1.87500E-005	 -1.00000E+000	 -1.00000E+000	 -1.00000E+000	 -1.00000E+000
  2.18750E-005	 -1.00000E+000	  7.44657E-001	 -4.24764E-001	 -5.33935E-001
  2.50000E-005	  1.23439E+001	  1.37714E+001	  1.21154E+001	  2.76630E+001
  2.81250E-005	  2.56604E+000	  2.60562E+000	  1.99123E+000	  9.13691E+000
  3.12500E-005	  1.18564E+000	  2.02407E+000	  1.30094E+000	  4.01020E+000
  3.43750E-005	  1.41571E+000	 -6.95163E-002	  2.33637E+000	  3.19458E+000
  3.75000E-005	 -7.97306E-002	  9.77278E-001	  7.25707E-001	  4.70929E+000
  4.06250E-005	  7.25505E-001	  1.20990E+000	  7.25707E-001	  3.77716E+000
  4.37500E-005	  8.40539E-001	  8.60967E-001	  1.07085E+000	  3.19458E+000
  4.68750E-005	  7.25505E-001	 -4.18448E-001	  1.76113E+000	  1.44684E+000
  5.00000E-005	  1.07061E+000	  3.95725E-001	  2.65519E-001	  1.67987E+000
  5.62500E-005	  4.37921E-001	  6.86502E-001	  8.98278E-001	  2.32071E+000
  6.25000E-005	  7.83022E-001	  3.37570E-001	  1.30094E+000	  1.44684E+000
  6.87500E-005	  8.98056E-001	  4.53881E-001	  1.01332E+000	  1.21381E+000
  7.50000E-005	  8.40539E-001	  5.70191E-001	  3.80566E-001	  1.44684E+000
  8.12500E-005	  2.65370E-001	  1.32621E+000	  5.53136E-001	  1.38858E+000
  8.75000E-005	  6.67988E-001	  4.53881E-001	  6.10660E-001	  6.89484E-001
  9.37500E-005	  5.52954E-001	  3.95725E-001	  7.25707E-001	  9.22517E-001
  1.00000E-004	  3.22887E-001	  4.82958E-001	  4.95613E-001	  8.06000E-001
  1.12500E-004	  8.40539E-001	  3.95725E-001	  1.04209E+000	  3.10807E-001
  1.25000E-004	  2.65370E-001	  6.28346E-001	  7.25707E-001	  8.64258E-001
  1.37500E-004	  5.24196E-001	  5.70191E-001	  9.55801E-001	  9.80775E-001
  1.50000E-004	  4.37921E-001	  6.57424E-001	  1.30094E+000	  6.02097E-001
  1.62500E-004	  4.37921E-001	  4.53880E-001	  5.81898E-001	  6.31226E-001
  1.75000E-004	  1.21440E+000	  9.19122E-001	  8.40754E-001	  8.35129E-001
  1.87500E-004	  4.09162E-001	  3.66648E-001	  7.54469E-001	  3.98194E-001
  2.00000E-004	  7.11125E-001	  4.82958E-001	  6.39421E-001	  5.14710E-001
  2.25000E-004	  5.09816E-001	  7.73734E-001	  5.81898E-001	  6.89484E-001
  2.50000E-004	  5.24196E-001	  4.39341E-001	  7.68849E-001	  4.41887E-001
  2.75000E-004	  4.66679E-001	  5.55652E-001	  6.25040E-001	  3.69064E-001
  3.00000E-004	  7.97400E-001	  5.55652E-001	  5.96279E-001	  5.00145E-001
  3.25000E-004	  4.37920E-001	  6.42885E-001	  6.53802E-001	  7.47742E-001
  3.50000E-004	  6.82367E-001	  6.71962E-001	  5.67517E-001	  6.31226E-001
  3.75000E-004	  4.66679E-001	  7.01040E-001	  3.51803E-001	  5.14710E-001
  4.00000E-004	  5.45764E-001	  5.48382E-001	  4.52469E-001	  4.71015E-001
  4.50000E-004	  5.24195E-001	  6.42884E-001	  6.53801E-001	  5.07427E-001
  5.00000E-004	  4.59489E-001	  5.48382E-001	  5.89087E-001	  5.51120E-001
  5.50000E-004	  5.81712E-001	  3.73916E-001	  3.73374E-001	  4.34604E-001
  6.00000E-004	  4.52299E-001	  3.23030E-001	  7.04135E-001	  4.92862E-001
  6.50000E-004	  6.24849E-001	  6.35615E-001	  4.38088E-001	  6.38507E-001
  7.00000E-004	  5.24195E-001	  5.70190E-001	  5.31564E-001	  4.85580E-001
  7.50000E-004	  3.73213E-001	  4.68418E-001	  5.60326E-001	  6.53072E-001
  8.00000E-004	  4.09160E-001	  5.44746E-001	  4.88420E-001	  5.94812E-001
  9.00000E-004	  5.09815E-001	  5.01129E-001	  5.42348E-001	  4.05474E-001
  1.00000E-003	  3.37264E-001	  4.13897E-001	  5.27967E-001	  5.69325E-001
  1.10000E-003	  3.73212E-001	  4.57513E-001	  5.99872E-001	  5.69325E-001
  1.20000E-003	  5.78116E-001	  5.55650E-001	  5.27967E-001	  5.07425E-001
  1.30000E-003	  5.27788E-001	  4.75687E-001	  6.75371E-001	  4.45526E-001
  1.40000E-003	  4.55893E-001	  6.24709E-001	  5.06396E-001	  5.58401E-001
  1.50000E-003	  4.81056E-001	  5.04764E-001	  4.45277E-001	  5.21990E-001
  1.60000E-003	  4.05563E-001	  5.44743E-001	  5.29762E-001	  5.12885E-001
  1.80000E-003	  4.07360E-001	  4.35702E-001	  5.08191E-001	  4.81935E-001
  2.00000E-003	  4.21740E-001	  4.88405E-001	  5.44143E-001	  5.62040E-001
  2.20000E-003	  4.73864E-001	  4.22981E-001	  5.22572E-001	  5.63860E-001
  2.40000E-003	  5.06217E-001	  4.50241E-001	  4.81227E-001	  4.63729E-001
  2.60000E-003	  3.80399E-001	  4.66597E-001	  5.09989E-001	  6.20297E-001
  2.80000E-003	  4.50498E-001	  5.53830E-001	  5.24370E-001	  5.47475E-001
  3.00000E-003	  5.11609E-001	  4.30250E-001	  5.53131E-001	  5.31090E-001
  3.20000E-003	  4.76555E-001	  4.93852E-001	  5.01025E-001	  4.91943E-001
  3.60000E-003	  4.98124E-001	  5.56551E-001	  5.07317E-001	  4.91033E-001
  4.00000E-003	  4.84643E-001	  5.25656E-001	  5.30686E-001	  5.33816E-001
  4.40000E-003	  4.93630E-001	  4.72044E-001	  5.29787E-001	  4.44609E-001
  4.80000E-003	  4.66669E-001	  5.62003E-001	  5.01924E-001	  5.17431E-001
  5.20000E-003	  4.83745E-001	  5.02030E-001	  5.20799E-001	  5.33816E-001
  5.60000E-003	  5.36768E-001	  5.62003E-001	  4.73162E-001	  5.14700E-001
  6.00000E-003	  4.96326E-001	  5.61094E-001	  5.50460E-001	  5.58393E-001
  6.40000E-003	  5.04434E-001	  5.17922E-001	  5.21297E-001	  5.60689E-001
  7.20000E-003	  4.56802E-001	  5.29734E-001	  4.94752E-001	  5.24733E-001
  8.00000E-003	  4.68036E-001	  5.22011E-001	  4.91186E-001	  5.35656E-001
  8.80000E-003	  4.79719E-001	  4.69308E-001	  5.22675E-001	  5.15175E-001
  9.60000E-003	  5.08478E-001	  4.50226E-001	  5.03799E-001	  5.05646E-001
  1.04000E-002	  5.15668E-001	  4.76578E-001	  4.83575E-001	  5.32045E-001
  1.12000E-002	  4.72530E-001	  4.35233E-001	  5.48293E-001	  5.66181E-001
  1.20000E-002	  4.59498E-001	  4.93842E-001	  5.37057E-001	  5.08377E-001
  1.28000E-002	  4.71473E-001	  5.18840E-001	  5.31508E-001	  5.33222E-001
  1.44000E-002	  4.87621E-001	  5.13615E-001	  5.29905E-001	  5.32540E-001
  1.60000E-002	  4.92339E-001	  4.61366E-001	  5.20467E-001	  5.05230E-001
  1.76000E-002	  4.96384E-001	  5.03847E-001	  5.10159E-001	  5.07248E-001
  1.92000E-002	  4.43359E-001	  4.90898E-001	  5.03193E-001	  5.56891E-001
  2.08000E-002	  4.72567E-001	  4.81841E-001	  5.09231E-001	  5.02044E-001
  2.24000E-002	  4.70320E-001	  4.95698E-001	  5.13276E-001	  5.05230E-001
  2.40000E-002	  4.75039E-001	  5.23867E-001	  5.48557E-001	  5.29581E-001
  2.56000E-002	  4.78542E-001	  4.80326E-001	  5.15240E-001	  5.31032E-001
  2.88000E-002	  4.56296E-001	  4.90095E-001	  5.28814E-001	  5.03803E-001
  3.20000E-002	  4.83373E-001	  4.75669E-001	  5.10467E-001	  4.90488E-001
  3.52000E-002	  4.71801E-001	  4.60789E-001	  5.18392E-001	  5.04372E-001
  3.84000E-002	  4.92078E-001	  4.99809E-001	  5.01002E-001	  5.13135E-001
  4.16000E-002	  4.74636E-001	  4.75386E-001	  4.96170E-001	  5.21472E-001
  4.48000E-002	  4.80590E-001	  4.67321E-001	  5.07100E-001	  5.23149E-001
  4.80000E-002	  4.44415E-001	  4.81975E-001	  5.09573E-001	  5.06905E-001
  5.12000E-002	  4.56978E-001	  4.76246E-001	  5.01522E-001	  5.07861E-001
  5.76000E-002	  4.57202E-001	  4.59632E-001	  4.94834E-001	  5.06807E-001
  6.40000E-002	  4.49084E-001	  4.72753E-001	  5.03799E-001	  4.89418E-001
  7.04000E-002	  4.50208E-001	  4.61223E-001	  5.03066E-001	  4.87483E-001
  7.68000E-002	  4.49590E-001	  4.52390E-001	  4.86798E-001	  4.78149E-001
  8.32000E-002	  4.48466E-001	  4.60258E-001	  4.92139E-001	  5.12889E-001
  8.96000E-002	  4.36894E-001	  4.41740E-001	  4.80617E-001	  4.67308E-001
  9.60000E-002	  4.40293E-001	  4.56452E-001	  4.89075E-001	  5.01422E-001
  1.02400E-001	  4.38760E-001	  4.42321E-001	  4.78874E-001	  4.83665E-001
  1.15200E-001	  4.34350E-001	  4.49649E-001	  4.74320E-001	  4.77231E-001
  1.28000E-001	  4.21484E-001	  4.33373E-001	  4.68052E-001	  4.70827E-001
  1.40800E-001	  4.11315E-001	  4.21840E-001	  4.43904E-001	  4.69006E-001
  1.53600E-001	  4.18253E-001	  4.33742E-001	  4.55908E-001	  4.62431E-001
  1.66400E-001	  4.18198E-001	  4.10932E-001	  4.65297E-001	  4.56482E-001
  1.79200E-001	  4.09602E-001	  4.23942E-001	  4.40531E-001	  4.59470E-001
  1.92000E-001	  4.05081E-001	  4.25420E-001	  4.50595E-001	  4.50762E-001
  2.04800E-001	  3.97181E-001	  4.10917E-001	  4.44663E-001	  4.33739E-001
  2.30400E-001	  3.80776E-001	  3.88190E-001	  4.18489E-001	  4.19864E-001
  2.56000E-001	  3.66208E-001	  3.70848E-001	  4.08994E-001	  4.07713E-001
  2.81600E-001	  3.60293E-001	  3.55629E-001	  3.96575E-001	  3.96400E-001
  3.07200E-001	  3.46634E-001	  3.38037E-001	  3.81993E-001	  3.76482E-001
  3.32800E-001	  3.33643E-001	  3.25579E-001	  3.63327E-001	  3.67621E-001
  3.58400E-001	  3.20928E-001	  3.11139E-001	  3.49634E-001	  3.59868E-001
  3.84000E-001	  3.07281E-001	  2.90152E-001	  3.37441E-001	  3.35579E-001
  4.09600E-001	  2.93462E-001	  2.81488E-001	  3.33216E-001	  3.25690E-001
  4.60800E-001	  2.70932E-001	  2.53568E-001	  3.01239E-001	  2.97795E-001
  5.12000E-001	  2.54457E-001	  2.31659E-001	  2.74042E-001	  2.85632E-001
  5.63200E-001	  2.42834E-001	  2.12566E-001	  2.56427E-001	  2.62004E-001
  6.14400E-001	  2.20766E-001	  1.90873E-001	  2.31272E-001	  2.43876E-001
  6.65600E-001	  2.11958E-001	  1.75594E-001	  2.22819E-001	  2.29763E-001
  7.16800E-001	  1.94563E-001	  1.53246E-001	  2.05458E-001	  2.16503E-001
  7.68000E-001	  1.83117E-001	  1.45994E-001	  1.90888E-001	  2.03974E-001
  8.19200E-001	  1.77232E-001	  1.31158E-001	  1.78456E-001	  1.91415E-001
  9.21600E-001	  1.53473E-001	  1.06890E-001	  1.54264E-001	  1.69229E-001
  1.02400E+000	  1.29251E-001	  8.67303E-002	  1.41990E-001	  1.45537E-001
  1.12640E+000	  1.16579E-001	  7.35870E-002	  1.25588E-001	  1.30255E-001
  1.22880E+000	  1.07052E-001	  6.07920E-002	  1.19161E-001	  1.16349E-001
  1.33120E+000	  9.36271E-002	  5.04810E-002	  1.11258E-001	  1.00068E-001
  1.43360E+000	  8.40396E-002	  4.11899E-002	  1.02566E-001	  9.50644E-002
  1.53600E+000	  7.09262E-002	  3.23791E-002	  9.25726E-002	  8.48523E-002
  1.63840E+000	  6.61531E-002	  2.90140E-002	  8.29957E-002	  7.41088E-002
  1.84320E+000	  5.17513E-002	  2.72624E-002	  6.95725E-002	  6.00114E-002
  2.04800E+000	  4.01390E-002	  2.71761E-002	  5.79452E-002	  4.22658E-002
  2.25280E+000	  2.47473E-002	  2.85417E-002	  4.87686E-002	  2.86712E-002
  2.45760E+000	  2.03520E-002	  2.41499E-002	  4.05476E-002	  2.00454E-002
  2.66240E+000	  1.65707E-002	  3.06283E-002	  3.98957E-002	  1.31310E-002
  2.86720E+000	  8.47341E-003	  3.12988E-002	  4.33102E-002	  4.00504E-003
  3.07200E+000	 -1.40874E-003	  3.62409E-002	  3.87718E-002	 -7.48579E-003
  3.27680E+000	  4.19156E-004	  3.91715E-002	  2.61114E-002	 -9.53908E-003
  3.68640E+000	  1.42589E-005	  3.04882E-002	  6.09708E-003	 -1.77301E-002
  4.09600E+000	 -8.10834E-003	  2.08956E-002	 -1.68845E-003	 -1.12807E-002
  4.50560E+000	 -1.31752E-002	 -3.60240E-003	  9.02975E-003	 -5.39044E-003
  4.91520E+000	 -1.35618E-003	 -6.36184E-003	  1.48243E-002	  7.35150E-003
  5.32480E+000	  4.55897E-003	 -1.52070E-004	  1.79396E-002	  1.28135E-002
  5.73440E+000	  6.65315E-003	 -3.44809E-003	  2.26654E-002	  8.11117E-003
  6.14400E+000	  1.13589E-002	  8.47651E-003	  1.71063E-002	  2.15361E-003
  6.55360E+000	  1.86907E-002	  4.03248E-003	  1.52850E-002	 -1.20275E-002
  7.37280E+000	  3.02448E-002	 -3.58581E-003	  8.98421E-003	 -7.60430E-003
  8.19200E+000	  3.11684E-002	  1.20156E-003	  2.05908E-002	 -4.04719E-003
  9.01120E+000	  2.27983E-002	 -1.14125E-003	  2.01513E-002	 -1.74662E-003
  9.83040E+000	  4.42911E-004	 -1.36130E-002	  1.11045E-002	  1.18552E-002
  1.06496E+001	 -4.13634E-003	 -2.11834E-003	  1.55625E-002	  3.43977E-002
  1.14688E+001	  3.59342E-003	  8.54383E-003	  3.70380E-003	  3.77269E-002
  1.22880E+001	  4.53792E-003	 -7.24927E-003	 -8.20000E-004	  3.19608E-002
  1.31072E+001	  4.83634E-003	  1.82740E-002	  5.90185E-003	  3.49315E-002
  1.47456E+001	 -4.86345E-003	  9.12256E-003	 -8.19781E-004	  7.15041E-003
  1.63840E+001	  1.80410E-002	  1.51679E-002	 -2.29700E-003	 -1.35523E-002
  1.80224E+001	  3.03765E-002	  2.98798E-002	 -2.51723E-002	 -2.48083E-003
  1.96608E+001	  8.75574E-003	 -3.56810E-003	 -1.87963E-002	  2.98054E-003
  2.12992E+001	 -1.55600E-002	  3.59215E-003	 -2.25252E-002	 -7.75638E-003
  2.29376E+001	 -2.53968E-002	 -4.45201E-003	  7.37002E-003	  1.31274E-002
  2.45760E+001	 -1.78945E-002	  1.72489E-002	  1.93004E-003	  4.29818E-002
  2.62144E+001	 -1.07154E-002	  2.29337E-003	 -9.12388E-003	  3.72883E-002
  2.94912E+001	 -4.16686E-003	 -3.10060E-003	  6.95893E-003	  3.89846E-003
  3.27680E+001	 -1.43542E-002	 -4.43956E-003	  1.22645E-002	 -7.27765E-003
  3.60448E+001	  5.49971E-003	  1.94379E-003	  1.72415E-002	  5.62406E-003
  3.93216E+001	 -1.33407E-002	 -5.77672E-003	 -9.49061E-003	  1.65227E-002
  4.25984E+001	 -8.12899E-003	  1.26845E-002	 -1.39566E-002	  1.60444E-002
  4.58752E+001	 -3.81549E-003	  7.95964E-003	  1.26271E-003	 -3.59545E-003
  4.91520E+001	 -2.01647E-002	 -1.10089E-002	  1.84828E-003	  1.80864E-002
  5.24288E+001	 -6.55608E-003	 -2.14503E-003	 -7.61326E-003	  2.00471E-002
  5.89824E+001	  6.18826E-003	  1.48373E-002	  1.12759E-002	 -2.70437E-003
  6.55360E+001	 -8.12750E-003	  8.85721E-003	 -7.33514E-003	  1.55895E-002
  7.20896E+001	 -9.45405E-003	  1.62439E-002	  7.56216E-004	 -6.89145E-003
  7.86432E+001	  1.65754E-002	 -1.56489E-002	 -2.45513E-003	  1.39508E-002
  8.51968E+001	 -1.36815E-002	 -3.52020E-003	 -7.46069E-003	  3.67487E-003
  9.17504E+001	  8.42416E-003	  8.46994E-003	 -1.88207E-002	  8.27454E-003
  9.83040E+001	  1.31792E-002	  2.98954E-003	 -1.32581E-002	  7.63370E-003
  1.04858E+002	  1.33389E-002	 -5.78967E-003	 -8.74079E-003	 -2.99771E-003
  1.17965E+002	  1.08736E-002	  2.20567E-002	  1.52706E-002	 -5.34767E-003
  1.31072E+002	 -1.78187E-002	  7.60150E-003	 -1.18030E-002	  1.22744E-002
  1.44179E+002	  5.68567E-003	  6.70337E-003	 -5.95188E-003	 -6.96624E-004
  1.57286E+002	  3.45193E-003	 -4.86164E-003	  9.00765E-004	 -2.85171E-003
  1.70394E+002	 -7.80316E-005	  1.29149E-003	 -1.43997E-002	 -1.85975E-002
  1.83501E+002	  6.64645E-003	  1.05312E-002	  1.86071E-003	 -4.88245E-003
  1.96608E+002	 -7.46485E-003	 -1.34309E-002	 -6.89791E-003	 -1.55427E-002
  2.09715E+002	  1.17342E-003	 -7.97197E-003	 -1.90967E-004	 -1.34674E-002
  2.35930E+002	 -4.73993E-003	  2.69437E-003	  1.59729E-003	 -9.73830E-003
  2.62144E+002	 -8.40789E-003	 -6.96647E-004	 -4.82741E-003	 -1.20730E-002
  2.88358E+002	 -9.93886E-003	 -1.58131E-002	  6.87746E-003	 -1.34646E-002
  3.14573E+002	 -2.56523E-003	 -3.76471E-003	  9.33813E-003	 -2.02322E-002
  3.40787E+002	  3.26489E-003	 -5.88357E-003	  6.52951E-003	 -7.35062E-003
  3.67002E+002	 -1.48445E-003	 -7.42076E-003	  1.09959E-003	 -3.92563E-003
  3.93216E+002	  2.78321E-003	 -3.42496E-004	 -5.00311E-003	  9.81660E-004

"Count Rate"
       0.01311	      48.59924	      47.37854	      55.38940	      42.87720
       0.02621	      49.05701	      52.03247	      37.76550	      74.38660
       0.03932	      48.75183	      46.46301	      73.62366	      47.98889
       0.05243	      50.58289	      69.58008	      50.35400	      57.67822
       0.06554	      44.63196	      68.13049	      43.48755	      64.54468
       0.07864	      52.64282	      66.29944	      51.65100	      67.36755
       0.09175	      66.98608	      42.41943	      57.60193	      58.89893
       0.10486	      59.58557	      61.95068	      61.26404	      47.14966
       0.11796	      52.71912	      73.92883	      46.99707	      63.93433
       0.13107	      39.29138	      58.97522	      63.24768	      62.10327
       0.14418	      50.43030	      71.10596	      69.35120	      49.20959
       0.15729	      53.17688	      58.13599	      57.44934	      48.21777
       0.17039	      53.78723	      40.35950	      89.03503	      44.55566
       0.18350	      45.39490	      52.26135	      68.20679	      69.04602
       0.19661	      41.35132	      87.89063	      45.47119	      42.87720
       0.20972	      63.01880	      47.53113	      48.37036	      47.98889
       0.22282	      60.11963	      53.17688	      67.29126	      48.82813
       0.23593	      62.94250	      75.60730	      48.29407	      51.80359
       0.24904	      34.25598	      54.24500	      45.85266	      50.12512
       0.26214	      51.95618	      56.91528	      28.53394	      48.14148
       0.27525	      48.06519	      50.50659	      34.10339	      55.00793
       0.28836	      54.24500	      61.87439	      69.04602	      34.17969
       0.30147	      37.00256	      56.07605	      45.54749	      22.65930
       0.31457	      48.21777	      55.92346	      23.26965	      49.05701
       0.32768	      39.21509	      74.15771	      62.56104	      58.36487
       0.34079	      39.59656	      45.54749	      57.83081	      43.48755
       0.35389	      41.58020	      55.99976	      42.72461	      52.41394
       0.36700	      46.15784	      47.30225	      47.98889	      66.83350
       0.38011	      53.48206	      57.98340	      44.86084	      68.81714
       0.39322	      64.77356	      42.49573	      58.97522	      46.61560
       0.40632	      63.24768	      58.05969	      64.77356	      56.38123
       0.41943	      56.45752	      67.36755	      36.23962	      64.39209
       0.43254	      48.59924	      54.55017	      52.71912	      47.37854
       0.44564	      55.16052	      36.01074	      66.37573	      33.64563
       0.45875	      32.34863	      33.41675	      59.73816	      56.61011
       0.47186	      52.64282	      51.19324	      61.72180	      69.12231
       0.48497	      84.07593	      34.17969	      61.95068	      64.31580
       0.49807	      40.05432	      45.01343	      39.97803	      73.16589
       0.51118	      72.32666	      27.99988	      51.11694	      66.29944
       0.52429	      34.02710	      56.68640	      58.51746	      49.28589
       0.53740	      47.76001	      64.08691	      52.10876	      49.13330
       0.55050	      41.80908	      54.09241	      36.16333	      83.08411
       0.56361	      59.96704	      63.78174	      64.69727	      56.83899
       0.57672	      60.04333	      38.90991	      47.30225	      78.88794
       0.58982	     103.83606	      63.47656	      56.07605	      39.13879
       0.60293	      46.99707	      34.48486	      36.62109	      94.07043
       0.61604	      52.56653	      45.85266	      25.25330	      37.91809
       0.62915	      84.53369	      30.67017	      56.45752	      95.90149
       0.64225	      44.17419	      50.58289	      77.59094	      79.42200
       0.65536	      46.84448	      70.95337	      63.09509	      46.61560
       0.66847	      50.73547	      55.16052	      44.47937	      50.73547
       0.68157	      55.92346	      50.73547	      48.59924	      46.69189
       0.69468	      58.59375	      29.75464	      33.49304	      46.08154
       0.70779	      40.35950	      52.94800	      49.97253	      45.54749
       0.72090	      48.14148	      55.46570	      48.82813	      44.70825
       0.73400	      66.07056	      52.56653	      40.05432	      51.65100
       0.74711	      81.17676	      32.88269	      59.81445	      42.34314
