ALV-7004/USB-FAST
Date :	"11/11/2025"
Time :	"3:52:44 PM"
Samplename : 	""
SampMemo(0) : 	""
SampMemo(1) : 	""
SampMemo(2) : 	""
SampMemo(3) : 	""
SampMemo(4) : 	""
SampMemo(5) : 	""
SampMemo(6) : 	""
SampMemo(7) : 	""
SampMemo(8) : 	""
SampMemo(9) : 	""
Temperature [K] :	     298.16000
Viscosity [cp]  :	       0.89000
Refractive Index:	       1.33200
Wavelength [nm] :	       0.00000
Angle [°]       :	       0.00000
Duration [s]    :	         1
FloatDur [ms]   :	          944
Stop TP [ms]   :	     58008
Runs            :	         1
Mode            :	"A-CH0+1  A-CH2+3 "
MeanCR0 [kHz]   :	      59.43192
MeanCR1 [kHz]   :	      61.82141
MeanCR2 [kHz]   :	      60.23619
MeanCR3 [kHz]   :	      58.19957

"Correlation"
  3.12500E-006	 -1.00000E+000	 -1.00000E+000	 -1.00000E+000	 -1.00000E+000
  6.25000E-006	 -1.00000E+000	 -1.00000E+000	 -1.00000E+000	 -1.00000E+000
  9.37500E-006	 -1.00000E+000	 -1.00000E+000	 -1.00000E+000	 -1.00000E+000
  1.25000E-005	 -1.00000E+000	 -1.00000E+000	 -1.00000E+000	 -1.00000E+000
  1.56250E-005	 -1.00000E+000	 -1.00000E+000	 -1.00000E+000	 -1.00000E+000
  1.87500E-005	 -1.00000E+000	 -1.00000E+000	 -1.00000E+000	 -1.00000E+000
  2.18750E-005	 -8.08001E-001	  2.42104E-001	  1.42977E+000	 -8.99892E-001
  2.50000E-005	  1.26319E+001	  1.09774E+001	  1.10554E+001	  2.60291E+001
  2.81250E-005	  1.97598E+000	  1.57293E+000	  2.45776E+000	  7.60927E+000
  3.12500E-005	  1.39998E+000	  1.21804E+000	  2.08394E+000	  4.80625E+000
  3.43750E-005	  1.68798E+000	  7.74434E-001	  2.27085E+000	  2.90421E+000
  3.75000E-005	  1.49598E+000	  8.63155E-001	  7.75604E-001	  3.30464E+000
  4.06250E-005	  5.35988E-001	  6.85712E-001	  5.88698E-001	  2.70399E+000
  4.37500E-005	  1.20798E+000	  5.96990E-001	  1.52323E+000	  3.30464E+000
  4.68750E-005	  8.23986E-001	  1.21804E+000	  1.14942E+000	  8.01941E-001
  5.00000E-005	  8.23986E-001	  5.96990E-001	  1.56995E+000	  1.65286E+000
  5.62500E-005	  9.67985E-001	  6.85712E-001	  9.15783E-001	  1.85307E+000
  6.25000E-005	  2.47991E-001	  7.74433E-001	  4.95246E-001	  1.35253E+000
  6.87500E-005	  4.87989E-001	  8.18794E-001	  5.88698E-001	  1.35253E+000
  7.50000E-005	  9.19985E-001	  9.51877E-001	  8.22330E-001	  1.30248E+000
  8.12500E-005	  5.35988E-001	  6.41351E-001	  3.55066E-001	  7.51887E-001
  8.75000E-005	  7.75986E-001	  9.51877E-001	  5.41972E-001	  1.15232E+000
  9.37500E-005	  9.19985E-001	  1.12932E+000	  6.35425E-001	  1.00216E+000
  1.00000E-004	  5.83988E-001	  6.85712E-001	  6.58788E-001	  9.52102E-001
  1.12500E-004	  4.87989E-001	  7.30072E-001	  7.52241E-001	  8.01941E-001
  1.25000E-004	  3.19990E-001	  7.52253E-001	  1.68160E-001	  8.01941E-001
  1.37500E-004	  2.23991E-001	  4.41727E-001	  6.12061E-001	  5.51671E-001
  1.50000E-004	  1.99991E-001	  5.30449E-001	  5.65335E-001	  3.51456E-001
  1.62500E-004	  2.23991E-001	  2.86464E-001	  6.58788E-001	  7.51887E-001
  1.75000E-004	  4.63989E-001	  4.63907E-001	  4.71882E-001	  1.02718E+000
  1.87500E-004	  4.63989E-001	  3.75186E-001	  3.08340E-001	  8.01941E-001
  2.00000E-004	  4.03989E-001	  6.74621E-001	  4.13474E-001	  6.26752E-001
  2.25000E-004	  5.11988E-001	  6.63531E-001	  5.41971E-001	  7.89427E-001
  2.50000E-004	  7.03987E-001	  4.08456E-001	  3.43384E-001	  5.14130E-001
  2.75000E-004	  3.31989E-001	  6.41350E-001	  8.34012E-001	  5.14130E-001
  3.00000E-004	  3.19990E-001	  6.85711E-001	  6.00379E-001	  6.76806E-001
  3.25000E-004	  6.07987E-001	  2.86464E-001	  4.60200E-001	  5.76698E-001
  3.50000E-004	  4.87988E-001	  5.96990E-001	  2.14887E-001	  5.14130E-001
  3.75000E-004	  5.71988E-001	  5.30448E-001	  3.55066E-001	  4.26536E-001
  4.00000E-004	  7.63985E-001	  4.47271E-001	  5.30289E-001	  5.32900E-001
  4.50000E-004	  3.61989E-001	  5.80354E-001	  4.83563E-001	  5.39157E-001
  5.00000E-004	  4.99987E-001	  5.19358E-001	  3.49224E-001	  3.88995E-001
  5.50000E-004	  3.37989E-001	  5.24903E-001	  5.82856E-001	  6.51778E-001
  6.00000E-004	  3.91988E-001	  3.41914E-001	  5.06926E-001	  3.63968E-001
  6.50000E-004	  5.65987E-001	  5.30448E-001	  5.77016E-001	  6.33008E-001
  7.00000E-004	  5.05987E-001	  6.02534E-001	  4.07632E-001	  4.89103E-001
  7.50000E-004	  5.29987E-001	  5.41538E-001	  5.12767E-001	  5.01616E-001
  8.00000E-004	  4.81986E-001	  5.19356E-001	  4.10552E-001	  5.64182E-001
  9.00000E-004	  4.99986E-001	  3.47458E-001	  4.89402E-001	  5.11000E-001
  1.00000E-003	  6.07985E-001	  5.11039E-001	  3.75507E-001	  5.23514E-001
  1.10000E-003	  3.70987E-001	  4.27862E-001	  3.43383E-001	  4.35919E-001
  1.20000E-003	  5.80985E-001	  4.80541E-001	  4.57278E-001	  4.39048E-001
  1.30000E-003	  5.26986E-001	  4.97176E-001	  4.54358E-001	  4.95358E-001
  1.40000E-003	  4.84986E-001	  5.16584E-001	  3.78427E-001	  2.82630E-001
  1.50000E-003	  4.81986E-001	  4.61133E-001	  5.47810E-001	  5.32899E-001
  1.60000E-003	  4.90984E-001	  4.83311E-001	  5.25905E-001	  5.28204E-001
  1.80000E-003	  4.81984E-001	  5.13809E-001	  4.76258E-001	  3.87427E-001
  2.00000E-003	  3.67985E-001	  4.56971E-001	  4.36833E-001	  4.73457E-001
  2.20000E-003	  4.35484E-001	  4.88856E-001	  4.86479E-001	  4.48430E-001
  2.40000E-003	  4.17485E-001	  4.29246E-001	  4.51435E-001	  5.18818E-001
  2.60000E-003	  5.19483E-001	  4.65289E-001	  4.87966E-001	  3.35809E-001
  2.80000E-003	  4.62484E-001	  4.56971E-001	  5.46375E-001	  4.40609E-001
  3.00000E-003	  4.53484E-001	  4.97173E-001	  4.80665E-001	  4.14018E-001
  3.20000E-003	  4.51979E-001	  4.45901E-001	  4.44154E-001	  4.46079E-001
  3.60000E-003	  3.97230E-001	  3.93222E-001	  4.21521E-001	  3.96026E-001
  4.00000E-003	  4.06980E-001	  4.52139E-001	  4.23711E-001	  4.04629E-001
  4.40000E-003	  4.33230E-001	  4.75013E-001	  4.18600E-001	  4.24181E-001
  4.80000E-003	  4.54979E-001	  3.32225E-001	  4.07674E-001	  4.03847E-001
  5.20000E-003	  4.34730E-001	  3.91836E-001	  4.79956E-001	  3.51447E-001
  5.60000E-003	  4.09230E-001	  4.32038E-001	  3.80659E-001	  3.82730E-001
  6.00000E-003	  3.68730E-001	  4.22334E-001	  3.97452E-001	  4.28091E-001
  6.40000E-003	  3.85221E-001	  4.46609E-001	  4.03673E-001	  3.98753E-001
  7.20000E-003	  3.67596E-001	  3.90811E-001	  4.02213E-001	  4.05401E-001
  8.00000E-003	  3.71721E-001	  3.65487E-001	  4.20466E-001	  4.06574E-001
  8.80000E-003	  3.80371E-001	  4.07769E-001	  3.94547E-001	  3.59258E-001
  9.60000E-003	  3.43621E-001	  3.79003E-001	  4.17911E-001	  3.86631E-001
  1.04000E-002	  3.67246E-001	  3.99451E-001	  3.98562E-001	  3.43226E-001
  1.12000E-002	  3.50371E-001	  3.98411E-001	  3.75198E-001	  3.47527E-001
  1.20000E-002	  3.95745E-001	  3.90787E-001	  3.31755E-001	  3.60822E-001
  1.28000E-002	  3.85227E-001	  3.83711E-001	  3.73926E-001	  3.70384E-001
  1.44000E-002	  3.48665E-001	  3.74180E-001	  3.95124E-001	  3.61000E-001
  1.60000E-002	  3.26353E-001	  3.48013E-001	  3.58069E-001	  3.24242E-001
  1.76000E-002	  2.99728E-001	  3.58930E-001	  3.36189E-001	  3.07451E-001
  1.92000E-002	  2.92603E-001	  3.24619E-001	  3.62839E-001	  3.17814E-001
  2.08000E-002	  2.99916E-001	  3.13333E-001	  3.35093E-001	  3.06083E-001
  2.24000E-002	  2.95041E-001	  3.17318E-001	  3.24141E-001	  3.20747E-001
  2.40000E-002	  2.96353E-001	  3.15932E-001	  3.25601E-001	  3.08820E-001
  2.56000E-002	  2.95122E-001	  2.81306E-001	  3.04711E-001	  2.98129E-001
  2.88000E-002	  2.67748E-001	  2.96642E-001	  2.95744E-001	  2.58071E-001
  3.20000E-002	  2.57530E-001	  2.45674E-001	  2.58230E-001	  2.63937E-001
  3.52000E-002	  2.42811E-001	  2.41082E-001	  2.66649E-001	  2.64719E-001
  3.84000E-002	  2.24906E-001	  2.22041E-001	  2.34085E-001	  2.44874E-001
  4.16000E-002	  2.19281E-001	  2.14503E-001	  2.32055E-001	  2.30307E-001
  4.48000E-002	  1.98469E-001	  1.90630E-001	  2.34155E-001	  2.08116E-001
  4.80000E-002	  2.01187E-001	  1.71980E-001	  1.96387E-001	  2.04205E-001
  5.12000E-002	  1.84781E-001	  1.74550E-001	  1.85972E-001	  1.78321E-001
  5.76000E-002	  1.49948E-001	  1.46822E-001	  1.72325E-001	  1.48259E-001
  6.40000E-002	  1.50557E-001	  1.36920E-001	  1.45715E-001	  1.38288E-001
  7.04000E-002	  1.31807E-001	  1.08151E-001	  1.30719E-001	  1.24992E-001
  7.68000E-002	  1.08322E-001	  9.29193E-002	  1.12364E-001	  1.15265E-001
  8.32000E-002	  9.77284E-002	  8.27375E-002	  1.03782E-001	  8.49097E-002
  8.96000E-002	  8.54939E-002	  8.11777E-002	  8.37900E-002	  7.71573E-002
  9.60000E-002	  8.29351E-002	  5.79979E-002	  8.75593E-002	  6.91407E-002
  1.02400E-001	  7.42719E-002	  4.87993E-002	  7.54672E-002	  6.33826E-002
  1.15200E-001	  4.32948E-002	  3.32189E-002	  5.10434E-002	  4.67077E-002
  1.28000E-001	  4.97638E-002	  3.78117E-002	  3.12580E-002	  4.39701E-002
  1.40800E-001	  3.54663E-002	  2.45315E-002	  3.75852E-002	  3.21323E-002
  1.53600E-001	  3.76461E-002	  2.99002E-002	  2.64009E-002	  2.08219E-002
  1.66400E-001	  1.82572E-002	  1.89812E-002	  3.21118E-002	  1.39784E-002
  1.79200E-001	  1.88613E-002	  2.34224E-002	  2.79577E-002	  2.30460E-002
  1.92000E-001	  1.61892E-002	  2.44460E-002	  1.35732E-002	  4.15318E-003
  2.04800E-001	  1.39580E-002	  1.65164E-002	  1.25599E-002	  1.25151E-002
  2.30400E-001	  7.66828E-003	  1.34458E-002	  1.55620E-002	  1.40551E-002
  2.56000E-001	 -7.92324E-005	  1.11964E-002	  3.87313E-003	  2.10470E-002
  2.81600E-001	  6.36249E-003	  1.51817E-002	  7.30392E-003	  1.96413E-002
  3.07200E-001	  7.42915E-003	  9.79652E-003	  6.16123E-003	  7.70500E-003
  3.32800E-001	  2.92253E-003	  9.42151E-003	  4.84227E-003	  5.37017E-003
  3.58400E-001	 -2.35224E-003	  1.24080E-002	  1.78837E-003	  7.87610E-003
  3.84000E-001	  1.74045E-004	  5.53132E-003	 -1.76148E-003	  7.25186E-004
  4.09600E-001	  2.44726E-003	  5.64366E-003	 -2.00365E-003	  2.88201E-003
  4.60800E-001	  9.75490E-003	  2.28372E-003	 -3.89381E-003	 -3.39378E-003
  5.12000E-001	  3.13262E-003	  1.08766E-002	 -3.08141E-003	  5.76966E-003
  5.63200E-001	  3.30918E-003	  7.76259E-003	  4.76746E-003	  2.54571E-003
  6.14400E-001	  4.40037E-003	  3.42799E-003	  6.52018E-003	  4.75426E-003
  6.65600E-001	  9.79608E-003	 -2.50988E-004	  4.28677E-003	  8.49789E-003
  7.16800E-001	  4.62944E-003	  4.49119E-003	 -1.79466E-003	  8.02691E-003
  7.68000E-001	  6.14738E-003	  6.87279E-003	  5.89379E-003	 -1.99945E-004
  8.19200E-001	  5.75419E-003	 -4.81472E-003	  3.72352E-003	 -6.57542E-004
  9.21600E-001	  7.77483E-003	  5.87222E-004	 -3.66535E-004	  1.23290E-003
  1.02400E+000	 -2.53815E-003	 -1.90086E-003	 -2.87198E-003	  9.07194E-003
  1.12640E+000	 -1.02830E-003	  1.95954E-003	  2.66949E-003	  2.56883E-003
  1.22880E+000	  9.75017E-004	  9.65160E-004	  1.19589E-002	  2.81120E-003
  1.33120E+000	 -1.61052E-003	  4.38993E-003	  1.19679E-003	 -2.57297E-003
  1.43360E+000	 -9.61557E-004	 -3.50632E-003	 -1.02818E-003	 -8.84806E-003
  1.53600E+000	 -1.61639E-003	 -1.25351E-002	  5.89422E-004	  2.56995E-003
  1.63840E+000	 -2.07517E-003	 -8.82640E-003	  5.29556E-004	  6.24955E-004
  1.84320E+000	 -2.25895E-003	 -8.37703E-003	 -2.72919E-003	 -1.41951E-003
  2.04800E+000	  4.71437E-003	 -1.82436E-004	  3.41005E-003	  6.56053E-003
  2.25280E+000	 -3.77441E-004	  1.60374E-004	  1.71169E-003	  3.33813E-003
  2.45760E+000	 -2.80372E-003	  6.15936E-003	  2.88169E-003	  2.57764E-004
  2.66240E+000	 -3.89523E-003	  6.02511E-003	 -5.01719E-003	  1.09116E-004
  2.86720E+000	 -3.66073E-003	 -5.76504E-003	  2.16737E-003	 -4.90566E-003
  3.07200E+000	  4.85044E-003	  6.06471E-003	  5.60883E-003	 -3.41655E-004
  3.27680E+000	  1.25158E-003	  6.82540E-003	  3.96124E-004	  1.24656E-004
  3.68640E+000	 -2.22454E-003	  1.62044E-003	 -4.72689E-003	  2.43499E-003
  4.09600E+000	  2.65004E-003	 -3.29219E-003	 -6.21186E-003	  3.25363E-003
  4.50560E+000	  4.30784E-003	 -1.33953E-003	 -6.05671E-003	  2.40112E-003
  4.91520E+000	 -2.02210E-003	 -1.46286E-003	  1.47676E-003	 -2.94874E-003
  5.32480E+000	  2.71505E-003	  2.40913E-003	  1.86272E-003	 -2.82180E-003
  5.73440E+000	  5.17056E-003	  9.10623E-003	 -6.16543E-004	  5.75312E-004
  6.14400E+000	  4.17188E-004	 -6.18589E-004	 -6.71125E-003	  2.38757E-005
  6.55360E+000	  1.27099E-003	  5.61008E-004	 -1.70712E-003	 -1.56686E-003
  7.37280E+000	 -4.19140E-003	 -3.95030E-003	  1.79258E-005	 -2.27589E-003
  8.19200E+000	 -8.54887E-004	  1.15621E-003	  1.12836E-003	 -4.36002E-003
  9.01120E+000	  1.00379E-003	  2.09541E-003	  2.60811E-003	  1.53369E-003
  9.83040E+000	  2.98114E-003	  3.98940E-003	  5.14469E-004	  1.54619E-003
  1.06496E+001	  1.67072E-003	  1.08275E-003	 -1.69115E-003	  1.22699E-003
  1.14688E+001	  3.16140E-004	 -6.09816E-004	  4.89015E-004	 -1.54419E-003
  1.22880E+001	  3.62719E-003	 -3.91902E-003	 -7.32283E-003	 -3.22056E-003
  1.31072E+001	  1.11914E-003	 -8.86493E-004	 -2.48883E-003	 -4.77468E-003
  1.47456E+001	 -3.93707E-005	 -1.73902E-003	 -1.29327E-003	 -1.26625E-003
  1.63840E+001	  2.54210E-003	  1.79349E-003	 -1.36401E-003	 -4.67623E-003
  1.80224E+001	  2.22555E-003	  5.15240E-004	 -1.80190E-003	 -2.86702E-004
  1.96608E+001	  3.07866E-003	  1.28323E-003	 -2.05015E-003	  3.15976E-004
  2.12992E+001	  2.16892E-004	  6.94656E-004	  9.04978E-004	 -5.14769E-004
  2.29376E+001	  2.23702E-003	 -1.72650E-005	  2.56322E-003	 -1.48172E-003
  2.45760E+001	  1.25874E-004	  8.60290E-004	  2.06318E-003	  4.85124E-003
  2.62144E+001	 -3.01395E-005	 -7.41481E-004	 -2.32778E-003	 -8.78050E-005
  2.94912E+001	 -1.58998E-003	  1.24248E-003	  9.73374E-004	  3.52181E-004
  3.27680E+001	  2.27625E-004	 -1.34271E-003	 -7.79498E-004	 -6.63809E-004
  3.60448E+001	  7.35202E-004	 -1.58289E-003	 -9.79135E-004	 -2.37081E-003
  3.93216E+001	  1.68689E-003	  8.76018E-004	  7.23655E-004	  4.02209E-004
  4.25984E+001	 -1.13189E-003	  4.05575E-005	 -2.93406E-004	  4.00124E-003
  4.58752E+001	 -6.42724E-004	 -1.39905E-003	 -1.57431E-004	  1.61695E-006
  4.91520E+001	 -5.88503E-004	  1.13944E-004	  5.10897E-004	  1.14385E-003
  5.24288E+001	 -1.80195E-003	  6.66778E-005	  6.07416E-004	  1.77699E-003
  5.89824E+001	 -1.09463E-003	  3.24308E-004	 -8.52749E-005	 -1.97736E-003
  6.55360E+001	 -7.00515E-004	 -5.80447E-004	 -2.74975E-005	 -1.62738E-003
  7.20896E+001	  8.19170E-005	 -6.07427E-004	 -6.13947E-004	 -1.00847E-003
  7.86432E+001	 -1.14727E-003	  8.40604E-005	  2.96849E-004	  2.73277E-004
  8.51968E+001	  1.74229E-003	  1.25411E-003	 -1.20445E-003	  1.12041E-003
  9.17504E+001	 -5.75915E-004	 -5.39129E-004	 -3.09842E-004	  1.23554E-003
  9.83040E+001	  1.58131E-003	 -2.29676E-004	 -2.43795E-004	 -2.73125E-003
  1.04858E+002	  1.76914E-003	  8.75065E-005	 -7.44929E-004	 -1.79714E-003
  1.17965E+002	  1.33842E-003	 -8.26613E-004	  2.31122E-004	  6.48419E-004
  1.31072E+002	  1.57667E-004	 -7.24815E-004	  7.26621E-004	 -3.82904E-004
  1.44179E+002	 -3.34825E-004	  6.07703E-004	 -5.54126E-004	  1.33394E-003
  1.57286E+002	 -2.50952E-003	 -4.29592E-004	  6.79721E-004	 -2.46103E-004
  1.70394E+002	 -1.60312E-003	 -2.51902E-004	 -2.76313E-004	  1.44709E-003
  1.83501E+002	 -1.01914E-003	  3.41244E-004	  6.76609E-005	 -2.03444E-003
  1.96608E+002	 -1.65997E-003	  3.80734E-004	 -2.65956E-004	  1.83763E-003
  2.09715E+002	 -9.40715E-004	  5.43074E-004	 -5.58064E-004	 -2.78900E-005
  2.35930E+002	 -7.01018E-004	 -2.57128E-004	 -6.77851E-004	 -5.82618E-004
  2.62144E+002	 -5.69462E-004	 -4.38850E-004	  4.27471E-004	 -4.07835E-004
  2.88358E+002	 -1.53171E-003	 -5.13090E-004	  7.66468E-004	  3.58136E-004
  3.14573E+002	 -3.21826E-004	  1.03519E-004	  4.93094E-004	  1.07322E-003
  3.40787E+002	 -4.04650E-004	  1.05392E-003	  1.74720E-004	 -8.56198E-004
  3.67002E+002	  1.17133E-003	 -4.81437E-005	 -7.57199E-004	  9.65954E-004
  3.93216E+002	  6.50213E-004	  1.78090E-004	  1.23946E-004	 -1.12531E-003

"Count Rate"
       0.01311	      54.70276	      55.61829	      62.33215	      62.10327
       0.02621	      55.08423	      63.62915	      61.56921	      56.30493
       0.03932	      54.93164	      56.83899	      52.26135	      64.46838
       0.05243	      56.22864	      55.54199	      58.21228	      54.32129
       0.06554	      55.77087	      62.25586	      58.74634	      60.95886
       0.07864	      61.95068	      59.73816	      56.53381	      54.55017
       0.09175	      50.50659	      57.83081	      60.19592	      60.19592
       0.10486	      58.67004	      56.53381	      51.65100	      60.88257
       0.11796	      55.69458	      62.94250	      69.04602	      51.80359
       0.13107	      55.08423	      58.28857	      50.50659	      53.10059
       0.14418	      63.24768	      62.56104	      58.67004	      62.78992
       0.15729	      52.03247	      62.40845	      60.19592	      55.08423
       0.17039	      59.28040	      61.26404	      63.47656	      56.45752
       0.18350	      61.64551	      58.74634	      62.78992	      63.40027
       0.19661	      55.31311	      63.78174	      59.20410	      64.54468
       0.20972	      61.26404	      66.14685	      58.51746	      55.38940
       0.22282	      64.01062	      62.71362	      65.00244	      59.96704
       0.23593	      56.99158	      63.17139	      59.20410	      61.26404
       0.24904	      62.25586	      62.02698	      64.46838	      51.34583
       0.26214	      59.28040	      64.92615	      57.06787	      66.75720
       0.27525	      57.44934	      63.47656	      50.88806	      50.96436
       0.28836	      60.95886	      69.04602	      61.79810	      54.32129
       0.30147	      54.77905	      67.21497	      66.29944	      49.05701
       0.31457	      63.93433	      61.41663	      56.99158	      63.85803
       0.32768	      61.87439	      51.65100	      55.31311	      56.45752
       0.34079	      66.52832	      60.50110	      60.65369	      60.50110
       0.35389	      68.20679	      60.34851	      56.68640	      57.14417
       0.36700	      62.71362	      57.14417	      63.85803	      57.98340
       0.38011	      53.17688	      62.25586	      60.72998	      56.99158
       0.39322	      52.87170	      55.99976	      53.71094	      57.90710
       0.40632	      56.91528	      59.12781	      62.40845	      58.13599
       0.41943	      56.91528	      63.47656	      50.81177	      53.63464
       0.43254	      63.01880	      58.36487	      56.45752	      54.93164
       0.44564	      60.11963	      56.38123	      54.70276	      47.60742
       0.45875	      64.39209	      62.63733	      68.28308	      57.06787
       0.47186	      57.90710	      71.10596	      56.76270	      60.72998
       0.48497	      51.42212	      63.70544	      67.67273	      55.99976
       0.49807	      52.71912	      59.12781	      58.28857	      51.11694
       0.51118	      48.90442	      61.03516	      56.91528	      70.72449
       0.52429	      51.72729	      61.11145	      67.29126	      51.72729
       0.53740	      58.59375	      52.49023	      55.38940	      52.87170
       0.55050	      58.97522	      52.64282	      57.83081	      60.88257
       0.56361	      59.12781	      67.13867	      64.62097	      59.50928
       0.57672	      53.63464	      61.18774	      55.16052	      51.26953
       0.58982	      56.15234	      59.35669	      58.89893	      55.61829
       0.60293	      63.01880	      58.21228	      58.97522	      59.96704
       0.61604	      57.14417	      68.13049	      65.38391	      58.13599
       0.62915	      55.23682	      64.39209	      53.93982	      61.26404
       0.64225	      55.38940	      59.50928	      59.96704	      54.16870
       0.65536	      58.89893	      58.44116	      66.98608	      60.34851
       0.66847	      61.26404	      63.85803	      58.21228	      55.16052
       0.68157	      65.76538	      56.38123	      55.84717	      58.97522
       0.69468	      55.23682	      55.54199	      55.69458	      55.61829
       0.70779	      60.65369	      60.19592	      59.12781	      56.45752
       0.72090	      68.74084	      60.50110	      57.90710	      54.47388
       0.73400	      61.18774	      58.82263	      57.14417	      54.77905
       0.74711	      55.23682	      61.41663	      60.50110	      54.85535
