ALV-7004/USB-FAST
Date :	"11/11/2025"
Time :	"3:55:15 PM"
Samplename : 	""
SampMemo(0) : 	""
SampMemo(1) : 	""
SampMemo(2) : 	""
SampMemo(3) : 	""
SampMemo(4) : 	""
SampMemo(5) : 	""
SampMemo(6) : 	""
SampMemo(7) : 	""
SampMemo(8) : 	""
SampMemo(9) : 	""
Temperature [K] :	     298.16000
Viscosity [cp]  :	       0.89000
Refractive Index:	       1.33200
Wavelength [nm] :	       0.00000
Angle [°]       :	       0.00000
Duration [s]    :	         1
FloatDur [ms]   :	          944
Stop TP [ms]   :	     63133
Runs            :	         1
Mode            :	"A-CH0+1  A-CH2+3 "
MeanCR0 [kHz]   :	      56.01141
MeanCR1 [kHz]   :	      53.97796
MeanCR2 [kHz]   :	      54.38487
MeanCR3 [kHz]   :	      54.17506

"Correlation"
  3.12500E-006	 -1.00000E+000	 -1.00000E+000	 -1.00000E+000	 -1.00000E+000
  6.25000E-006	 -1.00000E+000	 -1.00000E+000	 -1.00000E+000	 -1.00000E+000
  9.37500E-006	 -1.00000E+000	 -1.00000E+000	 -1.00000E+000	 -1.00000E+000
  1.25000E-005	 -1.00000E+000	 -1.00000E+000	 -1.00000E+000	 -1.00000E+000
  1.56250E-005	 -1.00000E+000	 -1.00000E+000	 -1.00000E+000	 -1.00000E+000
  1.87500E-005	 -1.00000E+000	 -1.00000E+000	 -1.00000E+000	 -1.00000E+000
  2.18750E-005	 -8.91918E-001	  1.32758E+000	  1.63681E+000	 -5.37865E-001
  2.50000E-005	  1.16456E+001	  1.25000E+001	  1.42477E+001	  2.78834E+001
  2.81250E-005	  3.53946E+000	  2.02585E+000	  3.81505E+000	  6.16309E+000
  3.12500E-005	  1.48589E+000	  8.62063E-001	  3.75728E-001	  5.00775E+000
  3.43750E-005	  1.26973E+000	  1.67672E+000	  6.05016E-001	  2.81261E+000
  3.75000E-005	  1.16165E+000	  1.63790E-001	  2.09539E+000	  2.58155E+000
  4.06250E-005	  9.45481E-001	  1.09482E+000	  1.29288E+000	  2.81261E+000
  4.37500E-005	  1.16165E+000	  9.78442E-001	 -8.28479E-002	  2.81261E+000
  4.68750E-005	  8.37399E-001	  5.12927E-001	  7.19660E-001	  2.11941E+000
  5.00000E-005	  1.16165E+000	  3.96548E-001	  1.57949E+000	  2.98591E+000
  5.62500E-005	  1.05356E+000	  1.09482E+000	  1.00627E+000	  1.36844E+000
  6.25000E-005	  9.99522E-001	  8.03874E-001	  5.47694E-001	  1.13737E+000
  6.87500E-005	  1.70206E+000	  5.71116E-001	  7.19660E-001	  1.25291E+000
  7.50000E-005	  3.51028E-001	  6.29305E-001	  8.34304E-001	  8.48539E-001
  8.12500E-005	  6.75275E-001	  3.96548E-001	  9.48948E-001	  1.13737E+000
  8.75000E-005	  5.13152E-001	  8.03874E-001	  3.75728E-001	  6.17472E-001
  9.37500E-005	  5.67193E-001	  3.38358E-001	  6.05016E-001	  1.54174E+000
  1.00000E-004	  8.91440E-001	  6.00211E-001	  5.47694E-001	  5.88588E-001
  1.12500E-004	  9.72501E-001	  6.29305E-001	  1.12091E+000	  5.88588E-001
  1.25000E-004	  4.05069E-001	  7.16590E-001	  1.46440E-001	  3.57521E-001
  1.37500E-004	  5.13152E-001	  8.91158E-001	  3.18406E-001	  9.06306E-001
  1.50000E-004	  7.83357E-001	  6.00211E-001	  5.19033E-001	  6.17472E-001
  1.62500E-004	  5.94213E-001	  6.29305E-001	  6.62338E-001	  6.17472E-001
  1.75000E-004	  6.75275E-001	  8.62063E-001	  2.03762E-001	  4.15288E-001
  1.87500E-004	  5.67193E-001	  3.96547E-001	  3.47067E-001	  6.46355E-001
  2.00000E-004	  7.29316E-001	  4.54737E-001	  3.32736E-001	  5.74146E-001
  2.25000E-004	  3.37518E-001	  5.12926E-001	  5.47694E-001	  6.46355E-001
  2.50000E-004	  4.45600E-001	  3.82000E-001	  6.48007E-001	  5.88588E-001
  2.75000E-004	  4.72620E-001	  3.96547E-001	  5.47694E-001	  3.57521E-001
  3.00000E-004	  1.88905E-001	  4.40189E-001	  6.90999E-001	  3.71962E-001
  3.25000E-004	  3.51028E-001	  5.12926E-001	  1.00627E+000	  3.43079E-001
  3.50000E-004	  6.34744E-001	  6.72947E-001	  6.90999E-001	  4.73054E-001
  3.75000E-004	  5.53682E-001	  4.83831E-001	  5.33363E-001	  6.60797E-001
  4.00000E-004	  4.86130E-001	  6.22031E-001	  6.19345E-001	  5.38041E-001
  4.50000E-004	  4.52354E-001	  6.22031E-001	  8.77294E-001	  5.01937E-001
  5.00000E-004	  4.18579E-001	  6.00210E-001	  5.26197E-001	  6.46354E-001
  5.50000E-004	  5.40171E-001	  6.72946E-001	  5.47693E-001	  5.01937E-001
  6.00000E-004	  4.86130E-001	  6.72946E-001	  5.83519E-001	  5.59704E-001
  6.50000E-004	  4.99640E-001	  3.96546E-001	  5.47693E-001	  4.51391E-001
  7.00000E-004	  4.99640E-001	  4.54736E-001	  5.26197E-001	  4.51391E-001
  7.50000E-004	  4.38844E-001	  6.65673E-001	  5.47693E-001	  4.44170E-001
  8.00000E-004	  4.72619E-001	  5.23835E-001	  5.15478E-001	  3.79208E-001
  9.00000E-004	  5.84078E-001	  5.85661E-001	  5.51305E-001	  4.69471E-001
  1.00000E-003	  3.91557E-001	  4.87466E-001	  5.36974E-001	  3.68377E-001
  1.10000E-003	  4.99639E-001	  4.43824E-001	  5.58470E-001	  3.03388E-001
  1.20000E-003	  4.65863E-001	  4.94769E-001	  6.22958E-001	  4.33366E-001
  1.30000E-003	  4.21955E-001	  4.76585E-001	  6.33706E-001	  4.44197E-001
  1.40000E-003	  4.86129E-001	  5.82055E-001	  6.15793E-001	  5.01965E-001
  1.50000E-003	  5.50303E-001	  4.62037E-001	  6.87447E-001	  4.00871E-001
  1.60000E-003	  4.69239E-001	  4.14755E-001	  5.40584E-001	  4.22560E-001
  1.80000E-003	  5.68877E-001	  4.16573E-001	  5.11892E-001	  4.71302E-001
  2.00000E-003	  5.04703E-001	  4.92948E-001	  5.49511E-001	  4.31586E-001
  2.20000E-003	  5.09769E-001	  4.00207E-001	  5.35180E-001	  4.15339E-001
  2.40000E-003	  4.99637E-001	  4.78401E-001	  5.33388E-001	  4.98352E-001
  2.60000E-003	  5.28346E-001	  5.83871E-001	  5.31597E-001	  4.13506E-001
  2.80000E-003	  4.99637E-001	  4.63853E-001	  6.03251E-001	  4.42390E-001
  3.00000E-003	  4.74305E-001	  4.00207E-001	  4.85022E-001	  4.46000E-001
  3.20000E-003	  4.86966E-001	  4.84789E-001	  5.60284E-001	  4.64076E-001
  3.60000E-003	  4.41369E-001	  4.52057E-001	  5.63866E-001	  4.64076E-001
  4.00000E-003	  5.18208E-001	  4.97519E-001	  5.85363E-001	  4.92058E-001
  4.40000E-003	  5.36785E-001	  4.81152E-001	  5.82676E-001	  4.12626E-001
  4.80000E-003	  5.14830E-001	  4.67514E-001	  5.57597E-001	  3.92768E-001
  5.20000E-003	  5.15675E-001	  4.82971E-001	  5.76375E-001	  4.72200E-001
  5.60000E-003	  4.55723E-001	  5.52982E-001	  5.47714E-001	  4.47800E-001
  6.00000E-003	  4.81055E-001	  5.01156E-001	  5.01139E-001	  4.52314E-001
  6.40000E-003	  4.21094E-001	  4.61254E-001	  5.64334E-001	  4.38341E-001
  7.20000E-003	  4.73446E-001	  5.21723E-001	  5.49107E-001	  4.34731E-001
  8.00000E-003	  4.91600E-001	  4.74865E-001	  5.84487E-001	  4.41049E-001
  8.80000E-003	  4.48958E-001	  5.08508E-001	  6.02849E-001	  4.75801E-001
  9.60000E-003	  4.62074E-001	  4.81230E-001	  5.56721E-001	  4.76281E-001
  1.04000E-002	  4.75584E-001	  4.70318E-001	  5.36120E-001	  4.42431E-001
  1.12000E-002	  4.61230E-001	  4.90322E-001	  5.29402E-001	  4.34759E-001
  1.20000E-002	  4.65452E-001	  4.72137E-001	  5.67439E-001	  4.54137E-001
  1.28000E-002	  4.87414E-001	  4.62514E-001	  5.69972E-001	  4.44922E-001
  1.44000E-002	  4.60393E-001	  4.58166E-001	  5.77779E-001	  4.58462E-001
  1.60000E-002	  4.46460E-001	  4.65185E-001	  5.40159E-001	  4.67940E-001
  1.76000E-002	  4.94802E-001	  4.81553E-001	  5.30083E-001	  4.56883E-001
  1.92000E-002	  4.83614E-001	  4.89253E-001	  5.41503E-001	  4.39958E-001
  2.08000E-002	  4.66937E-001	  4.62172E-001	  5.65911E-001	  4.62975E-001
  2.24000E-002	  4.69259E-001	  4.68765E-001	  5.65463E-001	  4.53723E-001
  2.40000E-002	  4.72426E-001	  4.91270E-001	  5.75092E-001	  4.50790E-001
  2.56000E-002	  4.55186E-001	  4.96920E-001	  5.41021E-001	  4.45673E-001
  2.88000E-002	  4.84714E-001	  4.42809E-001	  5.64759E-001	  4.43840E-001
  3.20000E-002	  4.58959E-001	  4.67790E-001	  5.43903E-001	  4.10779E-001
  3.52000E-002	  4.62653E-001	  4.78333E-001	  5.66968E-001	  4.49820E-001
  3.84000E-002	  4.66981E-001	  4.91405E-001	  5.33714E-001	  4.60314E-001
  4.16000E-002	  4.71519E-001	  4.81344E-001	  5.66601E-001	  4.39890E-001
  4.48000E-002	  4.78697E-001	  4.88021E-001	  5.39506E-001	  4.42034E-001
  4.80000E-002	  4.57270E-001	  4.69351E-001	  5.66601E-001	  4.09989E-001
  5.12000E-002	  4.61237E-001	  4.63847E-001	  5.45631E-001	  4.46724E-001
  5.76000E-002	  4.65273E-001	  4.62625E-001	  5.50981E-001	  4.35467E-001
  6.40000E-002	  4.67226E-001	  4.63790E-001	  5.61507E-001	  4.39896E-001
  7.04000E-002	  4.63162E-001	  4.57055E-001	  5.34041E-001	  4.36539E-001
  7.68000E-002	  4.71104E-001	  4.65439E-001	  5.29532E-001	  4.18766E-001
  8.32000E-002	  4.47537E-001	  4.67087E-001	  5.52544E-001	  4.11573E-001
  8.96000E-002	  4.34290E-001	  4.45232E-001	  5.43194E-001	  4.39163E-001
  9.60000E-002	  4.55454E-001	  4.53388E-001	  5.29446E-001	  4.12757E-001
  1.02400E-001	  4.60514E-001	  4.50760E-001	  5.36171E-001	  4.14392E-001
  1.15200E-001	  4.40349E-001	  4.65684E-001	  5.27909E-001	  4.19670E-001
  1.28000E-001	  4.33749E-001	  4.37228E-001	  5.29056E-001	  4.07959E-001
  1.40800E-001	  4.38947E-001	  4.34157E-001	  5.29080E-001	  4.09541E-001
  1.53600E-001	  4.19760E-001	  4.28216E-001	  5.14518E-001	  4.13943E-001
  1.66400E-001	  4.15168E-001	  4.24151E-001	  5.08610E-001	  3.96474E-001
  1.79200E-001	  4.19786E-001	  4.18379E-001	  5.02280E-001	  3.98338E-001
  1.92000E-001	  4.12528E-001	  4.12493E-001	  4.96008E-001	  3.92073E-001
  2.04800E-001	  4.03306E-001	  4.06038E-001	  4.90394E-001	  3.81687E-001
  2.30400E-001	  3.90293E-001	  4.06407E-001	  4.84597E-001	  3.73473E-001
  2.56000E-001	  3.78613E-001	  3.84641E-001	  4.74750E-001	  3.62889E-001
  2.81600E-001	  3.77689E-001	  3.72409E-001	  4.62312E-001	  3.52365E-001
  3.07200E-001	  3.70510E-001	  3.63251E-001	  4.51345E-001	  3.41417E-001
  3.32800E-001	  3.47785E-001	  3.52351E-001	  4.42255E-001	  3.26120E-001
  3.58400E-001	  3.47798E-001	  3.32330E-001	  4.27424E-001	  3.20136E-001
  3.84000E-001	  3.32360E-001	  3.24788E-001	  4.20030E-001	  3.02651E-001
  4.09600E-001	  3.17850E-001	  3.21711E-001	  4.00540E-001	  2.93851E-001
  4.60800E-001	  3.00293E-001	  2.96288E-001	  3.78566E-001	  2.74782E-001
  5.12000E-001	  2.84915E-001	  2.71277E-001	  3.55085E-001	  2.53807E-001
  5.63200E-001	  2.56761E-001	  2.61986E-001	  3.29365E-001	  2.40874E-001
  6.14400E-001	  2.41537E-001	  2.38060E-001	  3.16073E-001	  2.17617E-001
  6.65600E-001	  2.20091E-001	  2.21223E-001	  2.92527E-001	  2.09845E-001
  7.16800E-001	  2.05565E-001	  2.12854E-001	  2.73266E-001	  1.89556E-001
  7.68000E-001	  1.89379E-001	  1.92455E-001	  2.62845E-001	  1.70227E-001
  8.19200E-001	  1.78638E-001	  1.77971E-001	  2.45051E-001	  1.51153E-001
  9.21600E-001	  1.48235E-001	  1.56916E-001	  2.15899E-001	  1.28274E-001
  1.02400E+000	  1.32060E-001	  1.29018E-001	  2.01730E-001	  1.03773E-001
  1.12640E+000	  1.16188E-001	  1.11176E-001	  1.80466E-001	  7.89963E-002
  1.22880E+000	  9.88736E-002	  9.54768E-002	  1.60620E-001	  6.47494E-002
  1.33120E+000	  8.54749E-002	  7.60501E-002	  1.49527E-001	  4.91853E-002
  1.43360E+000	  7.32562E-002	  6.39456E-002	  1.38349E-001	  4.19421E-002
  1.53600E+000	  6.09587E-002	  5.45005E-002	  1.25103E-001	  3.25731E-002
  1.63840E+000	  5.28587E-002	  4.54793E-002	  1.14334E-001	  2.64445E-002
  1.84320E+000	  3.95502E-002	  3.77017E-002	  9.55879E-002	  1.99119E-002
  2.04800E+000	  3.27177E-002	  3.43620E-002	  7.83102E-002	  1.40590E-002
  2.25280E+000	  2.62078E-002	  2.45217E-002	  6.31808E-002	  1.88580E-002
  2.45760E+000	  2.28451E-002	  2.13597E-002	  4.81556E-002	  1.32561E-002
  2.66240E+000	  1.53419E-002	  1.72780E-002	  3.89110E-002	  1.26370E-002
  2.86720E+000	  9.66531E-003	  2.05947E-002	  2.88656E-002	  1.00087E-002
  3.07200E+000	  2.27293E-003	  2.11354E-002	  2.03913E-002	  8.70650E-003
  3.27680E+000	 -4.65470E-003	  2.06311E-002	  1.02992E-002	  5.38106E-003
  3.68640E+000	 -1.35489E-002	  2.21490E-002	 -2.30655E-003	 -9.62478E-003
  4.09600E+000	 -1.16495E-002	  1.94778E-002	 -1.60718E-003	 -1.31008E-002
  4.50560E+000	 -3.43417E-003	  2.25322E-002	  9.18614E-003	 -8.45571E-003
  4.91520E+000	 -1.52097E-003	  2.18895E-002	  9.99217E-003	  3.65030E-003
  5.32480E+000	 -5.92912E-003	  1.48834E-002	  9.02816E-004	  6.90953E-003
  5.73440E+000	 -4.78479E-003	  1.23160E-002	  4.68255E-004	  5.32606E-003
  6.14400E+000	 -2.11071E-003	  3.96936E-003	 -2.58219E-003	  4.59519E-003
  6.55360E+000	 -4.58501E-003	 -4.44578E-003	 -6.09829E-003	 -1.97961E-003
  7.37280E+000	 -9.16189E-004	  4.69322E-003	 -9.37288E-003	 -1.24560E-002
  8.19200E+000	  7.47213E-003	 -7.49778E-004	 -6.11749E-003	 -8.50957E-003
  9.01120E+000	  4.05466E-003	  3.22076E-003	 -1.04322E-002	 -5.35958E-004
  9.83040E+000	  2.23298E-003	  1.43749E-002	 -2.32079E-002	 -1.14266E-002
  1.06496E+001	  2.27053E-003	  2.04785E-002	 -1.70744E-002	 -7.15603E-003
  1.14688E+001	 -6.93428E-003	  6.93228E-003	 -1.31780E-002	 -1.11369E-002
  1.22880E+001	 -9.92540E-003	 -1.14189E-002	 -1.30365E-002	 -6.42315E-003
  1.31072E+001	  1.35289E-002	 -2.25318E-003	 -1.78309E-002	 -7.36575E-003
  1.47456E+001	 -9.40704E-003	  3.34553E-003	 -3.58030E-002	 -3.66065E-003
  1.63840E+001	  3.77048E-003	  1.10230E-002	 -4.05118E-002	 -1.33431E-003
  1.80224E+001	  1.25663E-003	 -9.71557E-004	 -3.55647E-002	  1.52441E-002
  1.96608E+001	  9.49706E-003	  1.66244E-002	 -1.10459E-002	  9.08878E-003
  2.12992E+001	  1.24002E-002	  4.66832E-003	  3.61929E-003	 -2.89592E-003
  2.29376E+001	  2.18232E-003	  2.14414E-002	 -6.11211E-003	  1.25956E-002
  2.45760E+001	  7.71357E-003	 -4.20255E-003	  1.80486E-002	  6.22261E-003
  2.62144E+001	 -9.06435E-004	 -9.75662E-003	  2.09005E-002	  1.31291E-002
  2.94912E+001	 -9.02253E-003	  3.68824E-003	 -7.16666E-003	 -9.93988E-003
  3.27680E+001	 -1.86294E-002	 -3.05452E-003	 -1.40367E-002	  2.16483E-003
  3.60448E+001	  2.01328E-002	  5.34233E-003	  8.29594E-003	  2.10283E-002
  3.93216E+001	  2.06258E-002	  2.93272E-003	 -9.91908E-003	 -8.67901E-003
  4.25984E+001	  1.56932E-002	 -1.22465E-002	 -2.88137E-002	 -6.73679E-003
  4.58752E+001	 -1.47275E-004	 -1.75735E-002	 -2.13629E-002	  9.12072E-003
  4.91520E+001	 -1.99044E-002	 -2.67048E-002	  6.80424E-003	 -3.71107E-003
  5.24288E+001	 -8.85096E-003	 -1.44695E-002	 -6.37204E-003	 -1.03497E-003
  5.89824E+001	  2.18408E-002	  2.21561E-003	  1.03981E-002	 -1.12021E-002
  6.55360E+001	  5.91537E-003	 -2.50505E-003	 -1.75110E-003	 -9.42813E-003
  7.20896E+001	 -1.16679E-002	 -1.32194E-002	 -7.61412E-003	  1.08521E-002
  7.86432E+001	 -7.79116E-003	 -1.78571E-002	  1.26149E-002	 -3.28972E-003
  8.51968E+001	 -1.57795E-002	 -7.55195E-003	 -1.83527E-002	 -3.38079E-003
  9.17504E+001	 -1.33093E-002	 -1.83856E-002	 -7.87277E-003	 -2.69849E-003
  9.83040E+001	 -8.47195E-003	  1.80454E-003	 -3.52107E-004	 -9.54221E-003
  1.04858E+002	  6.39453E-003	 -9.61484E-003	 -1.90454E-002	 -3.44896E-003
  1.17965E+002	  5.11697E-003	 -9.02990E-003	  2.77839E-002	 -2.08634E-003
  1.31072E+002	 -1.10334E-002	  1.29852E-002	  1.64156E-003	 -1.26166E-003
  1.44179E+002	 -7.18810E-003	 -2.32393E-003	 -9.32527E-004	  2.97649E-003
  1.57286E+002	  6.12691E-004	  4.73757E-003	 -1.54784E-002	  1.46816E-002
  1.70394E+002	 -7.24511E-004	  3.05022E-003	  2.94075E-002	 -9.06772E-003
  1.83501E+002	  1.46308E-002	  1.48111E-003	 -1.36979E-002	 -8.93013E-003
  1.96608E+002	 -7.00464E-003	 -1.39583E-003	 -2.77377E-003	  2.23204E-003
  2.09715E+002	  3.08989E-003	  1.27269E-003	 -3.24679E-003	 -1.33317E-002
  2.35930E+002	 -5.39572E-003	 -3.21964E-003	  6.33754E-003	  1.31835E-003
  2.62144E+002	 -3.27897E-003	 -1.42239E-003	 -5.74240E-003	 -8.98265E-003
  2.88358E+002	 -1.10089E-002	  2.20341E-003	  3.37133E-003	  6.62359E-003
  3.14573E+002	 -2.41464E-002	 -1.77026E-003	  5.56540E-003	  6.55857E-003
  3.40787E+002	 -9.16722E-003	 -6.95243E-003	 -7.30350E-003	 -1.64258E-003
  3.67002E+002	  9.73391E-003	  3.35995E-003	  1.14782E-002	 -9.94700E-004
  3.93216E+002	  2.05597E-002	  6.02008E-003	 -6.83253E-003	  8.73147E-003

"Count Rate"
       0.01311	      50.50659	      46.84448	      52.18506	      68.81714
       0.02621	      55.23682	      46.76819	      73.62366	      52.71912
       0.03932	      69.80896	      62.63733	      57.06787	      44.32678
       0.05243	      40.05432	      48.06519	      52.10876	      59.50928
       0.06554	      45.08972	      40.66467	      33.56934	      43.48755
       0.07864	      39.82544	      28.76282	      79.11682	      50.73547
       0.09175	      44.09790	      40.05432	      45.16602	      78.27759
       0.10486	      71.33484	      57.06787	      58.28857	      65.23132
       0.11796	      50.65918	      39.29138	      41.88538	      52.49023
       0.13107	      30.59387	      57.44934	      33.34045	      45.47119
       0.14418	      78.35388	      83.16040	      54.77905	      37.00256
       0.15729	      67.21497	      47.83630	      53.25317	      75.14954
       0.17039	      71.79260	      57.60193	      24.49036	      46.46301
       0.18350	      51.80359	      43.71643	      82.24487	      73.92883
       0.19661	      50.81177	      36.54480	      42.34314	      53.63464
       0.20972	      60.27222	      46.23413	      60.72998	      68.51196
       0.22282	      66.37573	      66.83350	      62.40845	      56.53381
       0.23593	      55.23682	      68.74084	      57.52563	      42.49573
       0.24904	      46.84448	      48.29407	      40.43579	      62.40845
       0.26214	      69.80896	      42.26685	      59.81445	      49.59106
       0.27525	      52.33765	      81.86340	      44.78455	      39.36768
       0.28836	      50.27771	      70.87708	      63.62915	      34.48486
       0.30147	      45.16602	      75.98877	      33.26416	      68.89343
       0.31457	      47.83630	      33.34045	      51.65100	      43.41125
       0.32768	      95.67261	      53.86353	      27.00806	      50.20142
       0.34079	      57.60193	      30.89905	      40.28320	      57.29675
       0.35389	      48.21777	      35.47668	     110.70251	      48.37036
       0.36700	      97.42737	      56.68640	      35.17151	      58.21228
       0.38011	      51.72729	      40.81726	      34.48486	      68.05420
       0.39322	      56.61011	      70.57190	      49.66736	      38.83362
       0.40632	      45.85266	      62.71362	      86.21216	      91.09497
       0.41943	      39.29138	      58.28857	      42.64832	      47.83630
       0.43254	      55.46570	      75.37842	      64.62097	      43.79272
       0.44564	      51.42212	      50.43030	      39.90173	      60.50110
       0.45875	      35.93445	      48.90442	      32.57751	      67.44385
       0.47186	      22.88818	      50.81177	      58.51746	      47.22595
       0.48497	      48.59924	      50.88806	      36.54480	      65.76538
       0.49807	      41.27502	      37.76550	      50.65918	      66.98608
       0.51118	      64.69727	      30.89905	      56.15234	      52.49023
       0.52429	      41.96167	      48.98071	      93.76526	      56.22864
       0.53740	      49.13330	      45.77637	      60.11963	      55.54199
       0.55050	      53.25317	      51.95618	      48.44666	      51.80359
       0.56361	      53.02429	      46.31042	      47.53113	      45.24231
       0.57672	      47.98889	      63.17139	      38.60474	      42.41943
       0.58982	      62.17957	      48.75183	      58.89893	      39.06250
       0.60293	      51.04065	      75.91248	      47.37854	      39.97803
       0.61604	      54.77905	      52.03247	      50.20142	      45.31860
       0.62915	      67.82532	      48.37036	      52.64282	      54.85535
       0.64225	      47.98889	      63.70544	      68.28308	      55.69458
       0.65536	      52.03247	      62.86621	      45.54749	      80.03235
       0.66847	      42.41943	      68.51196	      62.33215	      38.75732
       0.68157	      29.60205	      66.52832	      42.34314	      43.48755
       0.69468	      64.62097	      47.30225	      53.25317	      41.96167
       0.70779	      42.03796	      52.49023	      28.38135	      54.16870
       0.72090	      74.08142	      43.79272	      60.27222	      41.80908
       0.73400	      61.79810	      65.23132	      62.71362	      46.38672
       0.74711	      63.32397	      42.19055	      43.33496	      35.85815
