ALV-7004/USB-FAST
Date :	"11/11/2025"
Time :	"3:58:16 PM"
Samplename : 	""
SampMemo(0) : 	""
SampMemo(1) : 	""
SampMemo(2) : 	""
SampMemo(3) : 	""
SampMemo(4) : 	""
SampMemo(5) : 	""
SampMemo(6) : 	""
SampMemo(7) : 	""
SampMemo(8) : 	""
SampMemo(9) : 	""
Temperature [K] :	     298.16000
Viscosity [cp]  :	       0.89000
Refractive Index:	       1.33200
Wavelength [nm] :	       0.00000
Angle [°]       :	       0.00000
Duration [s]    :	         1
FloatDur [ms]   :	          944
Stop TP [ms]   :	     68013
Runs            :	         1
Mode            :	"A-CH0+1  A-CH2+3 "
MeanCR0 [kHz]   :	      53.98220
MeanCR1 [kHz]   :	      55.86306
MeanCR2 [kHz]   :	      56.23182
MeanCR3 [kHz]   :	      54.59786

"Correlation"
  3.12500E-006	 -1.00000E+000	 -1.00000E+000	 -1.00000E+000	 -1.00000E+000
  6.25000E-006	 -1.00000E+000	 -1.00000E+000	 -1.00000E+000	 -1.00000E+000
  9.37500E-006	 -1.00000E+000	 -1.00000E+000	 -1.00000E+000	 -1.00000E+000
  1.25000E-005	 -1.00000E+000	 -1.00000E+000	 -1.00000E+000	 -1.00000E+000
  1.56250E-005	 -1.00000E+000	 -1.00000E+000	 -1.00000E+000	 -1.00000E+000
  1.87500E-005	 -1.00000E+000	 -1.00000E+000	 -1.00000E+000	 -1.00000E+000
  2.18750E-005	 -1.00000E+000	  3.03885E-001	  8.23023E-001	 -1.00000E+000
  2.50000E-005	  1.23815E+001	  9.97437E+000	  1.09033E+001	  2.59591E+001
  2.81250E-005	  4.93440E+000	  1.28180E+000	  1.89539E+000	  7.41760E+000
  3.12500E-005	  1.67630E+000	  7.38513E-001	  2.64605E+000	  5.93883E+000
  3.43750E-005	  1.67630E+000	  1.06448E+000	  2.10986E+000	  4.91507E+000
  3.75000E-005	  1.32721E+000	  6.29856E-001	  1.68092E+000	  2.18504E+000
  4.06250E-005	  6.29050E-001	  8.47170E-001	  9.30260E-001	  3.20880E+000
  4.37500E-005	  1.55994E+000	  1.39046E+000	  1.25197E+000	  2.41254E+000
  4.68750E-005	  5.12689E-001	  8.47170E-001	  1.35921E+000	  1.84378E+000
  5.00000E-005	  9.78132E-001	  5.75528E-001	  6.08550E-001	  1.84378E+000
  5.62500E-005	  8.03591E-001	  1.49911E+000	  8.23023E-001	  1.78691E+000
  6.25000E-005	  9.78132E-001	  9.55827E-001	  1.25197E+000	  2.01441E+000
  6.87500E-005	  7.45410E-001	  9.55827E-001	  9.30260E-001	  1.50253E+000
  7.50000E-005	  3.38148E-001	  2.49556E-001	  2.33222E-001	  1.16127E+000
  8.12500E-005	  3.96328E-001	  6.84185E-001	  1.03750E+000	  1.10440E+000
  8.75000E-005	  4.54509E-001	  4.66871E-001	  5.54932E-001	  9.90648E-001
  9.37500E-005	  3.38148E-001	  1.06448E+000	  3.40458E-001	  9.33772E-001
  1.00000E-004	  6.29049E-001	  7.11349E-001	  5.28122E-001	  7.91583E-001
  1.12500E-004	  4.54508E-001	  1.11881E+000	  5.01313E-001	  1.33190E+000
  1.25000E-004	  6.87230E-001	  6.84185E-001	  7.42596E-001	  9.90647E-001
  1.37500E-004	  3.09058E-001	  4.66870E-001	  6.35359E-001	  7.06269E-001
  1.50000E-004	  1.63607E-001	  4.39706E-001	  7.42596E-001	  6.77831E-001
  1.62500E-004	  5.41779E-001	  4.12542E-001	  3.13649E-001	  8.20021E-001
  1.75000E-004	  8.03590E-001	  4.39706E-001	  7.69405E-001	  7.34707E-001
  1.87500E-004	  7.16320E-001	  5.75527E-001	  6.35359E-001	  3.08140E-001
  2.00000E-004	  7.16320E-001	  5.61945E-001	  7.56000E-001	  5.07204E-001
  2.25000E-004	  4.98143E-001	  6.84184E-001	  6.48763E-001	  7.20488E-001
  2.50000E-004	  3.23602E-001	  4.39706E-001	  4.87908E-001	  4.64547E-001
  2.75000E-004	  5.12688E-001	  3.58213E-001	  7.56000E-001	  5.21423E-001
  3.00000E-004	  5.27234E-001	  4.66870E-001	  5.14717E-001	  5.21423E-001
  3.25000E-004	  5.70869E-001	  7.65677E-001	  4.34290E-001	  5.64080E-001
  3.50000E-004	  4.39963E-001	  7.11348E-001	  6.48763E-001	  6.49393E-001
  3.75000E-004	  4.39963E-001	  4.53288E-001	  5.95145E-001	  4.92985E-001
  4.00000E-004	  5.27233E-001	  5.61944E-001	  3.73969E-001	  5.14313E-001
  4.50000E-004	  4.90870E-001	  5.95900E-001	  5.75037E-001	  6.84940E-001
  5.00000E-004	  5.34505E-001	  3.85377E-001	  4.74503E-001	  4.71656E-001
  5.50000E-004	  5.78141E-001	  5.61944E-001	  6.55465E-001	  6.13845E-001
  6.00000E-004	  3.89055E-001	  5.61944E-001	  5.08014E-001	  4.36109E-001
  6.50000E-004	  4.69053E-001	  4.39705E-001	  4.47694E-001	  5.49860E-001
  7.00000E-004	  5.49050E-001	  7.45303E-001	  6.42060E-001	  3.86343E-001
  7.50000E-004	  4.54507E-001	  1.54481E-001	  4.54396E-001	  3.08139E-001
  8.00000E-004	  3.78145E-001	  4.39704E-001	  4.27586E-001	  3.93451E-001
  9.00000E-004	  4.43597E-001	  5.11010E-001	  5.61631E-001	  4.82319E-001
  1.00000E-003	  4.72688E-001	  5.07615E-001	  3.70616E-001	  4.57436E-001
  1.10000E-003	  5.01778E-001	  4.32913E-001	  4.27586E-001	  3.89896E-001
  1.20000E-003	  4.39961E-001	  4.97428E-001	  5.14715E-001	  4.46772E-001
  1.30000E-003	  4.03599E-001	  4.15935E-001	  4.07479E-001	  5.81851E-001
  1.40000E-003	  6.18138E-001	  4.63473E-001	  5.64983E-001	  6.45836E-001
  1.50000E-003	  4.32689E-001	  3.51420E-001	  4.17532E-001	  4.18334E-001
  1.60000E-003	  4.85441E-001	  4.56679E-001	  5.86762E-001	  4.28996E-001
  1.80000E-003	  4.65441E-001	  5.26287E-001	  4.64446E-001	  3.81007E-001
  2.00000E-003	  4.25442E-001	  4.92332E-001	  4.44339E-001	  3.82785E-001
  2.20000E-003	  5.23623E-001	  4.26119E-001	  4.24232E-001	  4.39660E-001
  2.40000E-003	  4.32714E-001	  4.31213E-001	  4.91255E-001	  4.13000E-001
  2.60000E-003	  4.50896E-001	  4.15933E-001	  4.40988E-001	  5.60520E-001
  2.80000E-003	  4.58169E-001	  4.46493E-001	  4.32610E-001	  4.84094E-001
  3.00000E-003	  4.78168E-001	  5.04216E-001	  4.02450E-001	  3.43683E-001
  3.20000E-003	  4.05492E-001	  4.09986E-001	  4.97114E-001	  3.77448E-001
  3.60000E-003	  3.98219E-001	  4.08288E-001	  4.15850E-001	  4.00553E-001
  4.00000E-003	  4.30948E-001	  4.14230E-001	  4.22552E-001	  3.54342E-001
  4.40000E-003	  4.64585E-001	  4.44790E-001	  3.75636E-001	  4.02331E-001
  4.80000E-003	  4.01828E-001	  4.43092E-001	  4.27579E-001	  4.68982E-001
  5.20000E-003	  4.50920E-001	  4.32057E-001	  4.30930E-001	  3.62340E-001
  5.60000E-003	  4.27283E-001	  4.55825E-001	  4.12498E-001	  3.35680E-001
  6.00000E-003	  4.02737E-001	  4.15079E-001	  4.13336E-001	  4.23659E-001
  6.40000E-003	  3.93692E-001	  3.85359E-001	  4.36365E-001	  4.09431E-001
  7.20000E-003	  3.87755E-001	  4.14221E-001	  4.05787E-001	  3.71662E-001
  8.00000E-003	  4.25483E-001	  4.00639E-001	  3.99503E-001	  4.16096E-001
  8.80000E-003	  3.98664E-001	  4.27378E-001	  4.20448E-001	  3.71662E-001
  9.60000E-003	  3.84119E-001	  3.62440E-001	  4.59404E-001	  3.91657E-001
  1.04000E-002	  3.83664E-001	  4.12947E-001	  4.30082E-001	  3.89436E-001
  1.12000E-002	  3.57728E-001	  3.83237E-001	  3.77302E-001	  3.64109E-001
  1.20000E-002	  3.52273E-001	  3.70079E-001	  3.84842E-001	  3.66801E-001
  1.28000E-002	  3.60142E-001	  3.75206E-001	  3.97599E-001	  3.85916E-001
  1.44000E-002	  3.54005E-001	  3.86878E-001	  3.78750E-001	  3.43259E-001
  1.60000E-002	  3.80826E-001	  3.60775E-001	  3.87965E-001	  3.37482E-001
  1.76000E-002	  3.42641E-001	  3.88788E-001	  3.82520E-001	  3.21264E-001
  1.92000E-002	  3.26957E-001	  3.15784E-001	  3.69534E-001	  3.39926E-001
  2.08000E-002	  3.40796E-001	  3.37855E-001	  3.41469E-001	  2.90826E-001
  2.24000E-002	  3.18067E-001	  3.33398E-001	  3.34977E-001	  3.20819E-001
  2.40000E-002	  3.10540E-001	  3.15996E-001	  3.28065E-001	  3.15931E-001
  2.56000E-002	  3.06619E-001	  3.08607E-001	  3.18919E-001	  3.15084E-001
  2.88000E-002	  2.89115E-001	  2.85874E-001	  3.18420E-001	  2.83312E-001
  3.20000E-002	  2.68973E-001	  2.76512E-001	  2.77160E-001	  2.64180E-001
  3.52000E-002	  2.76222E-001	  2.75875E-001	  2.82501E-001	  2.70203E-001
  3.84000E-002	  2.48011E-001	  2.71761E-001	  2.37390E-001	  2.41677E-001
  4.16000E-002	  2.70855E-001	  2.50857E-001	  2.63989E-001	  2.28505E-001
  4.48000E-002	  2.45738E-001	  2.28892E-001	  2.15189E-001	  2.18840E-001
  4.80000E-002	  2.37304E-001	  2.06926E-001	  2.32887E-001	  2.10174E-001
  5.12000E-002	  2.23358E-001	  2.04595E-001	  2.37416E-001	  1.94935E-001
  5.76000E-002	  2.07273E-001	  1.90535E-001	  1.95235E-001	  1.84937E-001
  6.40000E-002	  1.76432E-001	  1.48355E-001	  1.74626E-001	  1.81571E-001
  7.04000E-002	  1.78683E-001	  1.68729E-001	  1.73653E-001	  1.51908E-001
  7.68000E-002	  1.45920E-001	  1.50743E-001	  1.60458E-001	  1.44576E-001
  8.32000E-002	  1.40407E-001	  1.47993E-001	  1.50246E-001	  1.18224E-001
  8.96000E-002	  1.15752E-001	  1.32554E-001	  1.45324E-001	  1.12191E-001
  9.60000E-002	  1.28825E-001	  1.04913E-001	  1.19665E-001	  9.89708E-002
  1.02400E-001	  1.09273E-001	  1.02706E-001	  1.21944E-001	  9.28575E-002
  1.15200E-001	  9.54127E-002	  8.39708E-002	  1.03620E-001	  8.98165E-002
  1.28000E-001	  7.70177E-002	  7.50571E-002	  9.35330E-002	  7.03714E-002
  1.40800E-001	  6.11954E-002	  6.76227E-002	  7.77431E-002	  6.63086E-002
  1.53600E-001	  6.56231E-002	  5.20833E-002	  8.02308E-002	  5.12930E-002
  1.66400E-001	  4.17325E-002	  5.25143E-002	  5.36985E-002	  5.70846E-002
  1.79200E-001	  4.16915E-002	  4.31091E-002	  5.41112E-002	  4.16381E-002
  1.92000E-001	  4.45663E-002	  4.05757E-002	  4.77217E-002	  4.41182E-002
  2.04800E-001	  3.16166E-002	  4.43011E-002	  3.79947E-002	  3.38712E-002
  2.30400E-001	  1.82340E-002	  2.82179E-002	  3.44712E-002	  2.02881E-002
  2.56000E-001	  1.35465E-002	  2.25070E-002	  2.96048E-002	  8.12889E-003
  2.81600E-001	  8.40166E-003	  1.79958E-002	  2.25130E-002	  1.58297E-002
  3.07200E-001	  4.27003E-003	  1.36315E-002	  8.74098E-003	 -7.13158E-004
  3.32800E-001	  1.67797E-002	 -5.83419E-005	  1.17987E-002	  3.63306E-003
  3.58400E-001	  4.03243E-003	 -6.63237E-003	  1.90297E-002	  7.02410E-003
  3.84000E-001	  6.77631E-003	  3.23146E-003	  2.17409E-002	 -7.87114E-003
  4.09600E-001	  4.35276E-003	 -1.08805E-003	  2.07418E-002	 -1.03177E-002
  4.60800E-001	  4.88784E-003	 -7.37424E-004	  1.25991E-002	 -8.97214E-003
  5.12000E-001	 -7.21701E-003	  4.50786E-003	  5.68035E-003	 -5.33441E-003
  5.63200E-001	 -1.04518E-002	  3.41161E-003	 -2.06850E-004	  2.27714E-003
  6.14400E-001	 -6.95017E-003	  1.16847E-003	  3.97653E-003	 -1.54792E-003
  6.65600E-001	  2.10827E-003	  2.06981E-003	  6.03543E-003	 -1.05332E-002
  7.16800E-001	  3.79981E-003	  6.42759E-003	  8.82237E-003	 -6.85462E-003
  7.68000E-001	  3.41288E-003	  1.18547E-002	  1.11819E-002	 -1.05492E-002
  8.19200E-001	  5.50970E-003	  8.03445E-003	  1.40546E-002	 -8.16591E-003
  9.21600E-001	  6.72446E-003	  5.99601E-003	  1.27155E-002	  1.23561E-003
  1.02400E+000	 -4.73316E-003	  9.33266E-004	  4.51649E-003	 -5.53310E-004
  1.12640E+000	 -3.69966E-003	  8.56434E-003	  6.41774E-003	 -7.09997E-003
  1.22880E+000	 -4.35966E-003	  6.00997E-003	  2.94247E-003	 -9.54848E-005
  1.33120E+000	 -8.27056E-004	 -5.80747E-003	  2.55108E-005	 -3.88847E-003
  1.43360E+000	 -2.97952E-003	  3.81350E-003	  3.37183E-003	 -2.00143E-003
  1.53600E+000	 -1.54124E-003	 -9.83866E-003	  4.16299E-003	 -1.63973E-003
  1.63840E+000	  5.37055E-004	 -4.76378E-003	  7.05914E-003	 -5.17389E-003
  1.84320E+000	  3.40452E-003	  1.07438E-003	  6.39577E-003	 -1.19975E-003
  2.04800E+000	  2.56256E-003	  1.57983E-003	  1.10055E-003	 -3.97535E-003
  2.25280E+000	  6.28548E-003	  3.48906E-003	 -3.34497E-003	  2.70521E-003
  2.45760E+000	 -1.95797E-003	 -3.82133E-003	 -4.11879E-004	 -1.44235E-003
  2.66240E+000	  2.63955E-003	  3.63073E-004	  1.40434E-003	  3.96338E-003
  2.86720E+000	  9.44981E-003	 -5.21365E-003	  1.90424E-003	  1.34400E-003
  3.07200E+000	  2.55265E-003	 -4.69978E-003	  1.40574E-003	 -3.31995E-004
  3.27680E+000	 -2.11799E-003	 -1.38843E-003	 -3.92790E-004	 -6.69370E-004
  3.68640E+000	 -2.67006E-003	  2.11130E-003	 -1.88346E-003	  3.91652E-004
  4.09600E+000	 -8.61733E-004	  3.53797E-003	  2.04646E-004	  2.30856E-003
  4.50560E+000	 -1.90067E-003	 -2.86575E-003	  7.52993E-004	  1.38778E-002
  4.91520E+000	  3.38909E-003	 -2.11505E-003	  3.82563E-004	  1.51841E-003
  5.32480E+000	  2.39352E-003	  6.97242E-004	  6.66720E-003	 -1.28099E-003
  5.73440E+000	  1.06924E-003	  2.66142E-004	 -2.62656E-003	  8.64249E-004
  6.14400E+000	 -7.06742E-003	  8.05100E-003	 -5.50738E-003	 -3.21214E-003
  6.55360E+000	 -4.49059E-003	  4.87775E-003	 -2.69249E-003	 -3.95697E-003
  7.37280E+000	 -2.10298E-003	  4.39742E-003	  6.63479E-004	  2.40210E-003
  8.19200E+000	 -3.67031E-003	 -9.57397E-004	 -5.34394E-004	 -1.27299E-003
  9.01120E+000	 -2.41819E-003	 -5.34403E-003	 -5.95986E-003	 -1.48970E-004
  9.83040E+000	 -1.03488E-003	 -1.50295E-003	 -5.70593E-003	 -2.66386E-003
  1.06496E+001	  1.15499E-003	  3.36503E-003	 -1.93384E-003	  1.37626E-003
  1.14688E+001	 -5.11408E-003	 -2.49676E-003	 -5.62861E-003	 -1.34471E-003
  1.22880E+001	  4.11100E-005	  7.06089E-004	  6.64963E-004	 -3.27066E-003
  1.31072E+001	  1.84666E-004	 -8.22849E-005	 -3.36678E-003	  1.53923E-003
  1.47456E+001	 -1.65826E-003	  1.40889E-003	  2.16320E-003	 -1.89625E-003
  1.63840E+001	  1.92076E-003	  8.20003E-004	  1.83541E-003	  1.17270E-003
  1.80224E+001	 -1.30165E-003	 -1.57276E-003	 -5.34075E-004	 -1.11524E-003
  1.96608E+001	  9.82790E-004	 -7.68450E-004	  3.54505E-003	 -8.44206E-004
  2.12992E+001	 -1.85639E-003	  8.78770E-004	  3.67251E-003	 -1.26257E-003
  2.29376E+001	 -1.16198E-003	  3.49419E-004	  5.98390E-003	 -1.75160E-003
  2.45760E+001	  7.48238E-004	  9.43991E-004	  2.38500E-003	  3.20400E-003
  2.62144E+001	  2.50158E-003	 -2.26494E-004	  8.37952E-004	  4.94317E-004
  2.94912E+001	  1.30156E-003	  2.58897E-003	 -1.98844E-003	 -1.17316E-004
  3.27680E+001	 -1.52112E-003	  2.54554E-003	 -2.21296E-003	 -2.31266E-003
  3.60448E+001	 -3.05448E-003	 -2.42150E-004	 -1.67461E-003	  4.65309E-004
  3.93216E+001	  7.46603E-004	  6.28862E-004	 -4.31913E-004	  7.16151E-004
  4.25984E+001	  1.64084E-003	  2.18592E-004	  1.20993E-003	  2.68266E-004
  4.58752E+001	  3.24152E-003	  1.55447E-003	  2.95637E-004	 -2.97933E-003
  4.91520E+001	  5.36524E-004	 -1.51312E-003	  1.80786E-003	 -1.29542E-003
  5.24288E+001	 -3.41543E-004	 -2.06537E-005	  1.92943E-003	 -2.27379E-004
  5.89824E+001	  1.15441E-003	 -2.26027E-003	 -3.66227E-003	 -5.39571E-004
  6.55360E+001	 -3.02248E-004	 -1.65113E-004	  9.10722E-005	  5.02324E-004
  7.20896E+001	  3.06895E-004	 -1.03636E-003	  1.99750E-003	 -3.18509E-003
  7.86432E+001	 -2.24484E-003	 -7.48137E-004	  1.55288E-003	  2.63756E-003
  8.51968E+001	  1.13682E-003	 -3.83632E-004	  9.99998E-006	 -9.27310E-004
  9.17504E+001	  1.45142E-003	  5.43375E-004	  1.21221E-003	  1.31960E-003
  9.83040E+001	 -2.02049E-004	  1.51579E-004	  5.31517E-004	 -1.62938E-003
  1.04858E+002	  1.42675E-004	 -9.89446E-004	  6.48984E-004	  4.01068E-004
  1.17965E+002	 -3.46849E-004	  9.74260E-004	  8.19444E-004	 -5.51377E-004
  1.31072E+002	  3.57522E-004	  6.95387E-005	 -1.74323E-003	 -4.45397E-004
  1.44179E+002	  1.18731E-003	 -4.02026E-004	 -1.57776E-003	  5.81462E-004
  1.57286E+002	 -3.71145E-007	 -5.97713E-004	  6.07037E-005	 -2.84739E-004
  1.70394E+002	 -3.21461E-004	  4.28338E-005	 -2.39526E-004	  7.34545E-004
  1.83501E+002	  4.84130E-004	 -8.92091E-004	 -5.53977E-004	  5.76088E-004
  1.96608E+002	  1.28389E-003	 -2.55920E-003	  1.01431E-003	 -1.94215E-003
  2.09715E+002	 -4.34448E-005	 -1.62020E-003	 -1.54196E-003	 -7.56171E-004
  2.35930E+002	 -6.12872E-004	 -1.62503E-003	  7.27746E-004	  8.67230E-005
  2.62144E+002	 -5.50306E-004	 -7.42043E-004	 -4.57276E-004	  6.03246E-004
  2.88358E+002	 -8.03189E-005	  8.44564E-004	 -2.38518E-004	  1.21842E-003
  3.14573E+002	  4.89056E-004	 -2.48596E-004	  7.10319E-005	 -3.49175E-004
  3.40787E+002	  8.75263E-006	  1.55530E-003	  2.95698E-004	  6.39674E-005
  3.67002E+002	  4.36142E-004	  1.72001E-006	 -1.29417E-003	  3.14031E-004
  3.93216E+002	 -3.89052E-004	  4.05997E-004	 -2.19975E-004	 -2.80917E-004

"Count Rate"
       0.01311	      53.32947	      52.26135	      63.47656	      55.08423
       0.02621	      52.10876	      61.41663	      64.46838	      56.91528
       0.03932	      51.19324	      52.49023	      56.38123	      64.16321
       0.05243	      59.66187	      51.04065	      52.71912	      52.41394
       0.06554	      48.21777	      49.51477	      51.26953	      44.02161
       0.07864	      52.79541	      56.99158	      54.16870	      49.97253
       0.09175	      53.10059	      51.57471	      52.79541	      61.11145
       0.10486	      44.09790	      58.44116	      50.96436	      56.68640
       0.11796	      44.17419	      59.05151	      60.27222	      55.31311
       0.13107	      54.55017	      52.64282	      53.55835	      49.05701
       0.14418	      63.70544	      58.21228	      59.43298	      51.72729
       0.15729	      43.56384	      47.98889	      59.35669	      44.63196
       0.17039	      52.10876	      53.10059	      52.26135	      55.23682
       0.18350	      55.16052	      55.00793	      53.86353	      51.80359
       0.19661	      51.87988	      51.95618	      48.82813	      51.95618
       0.20972	      55.31311	      58.59375	      57.75452	      52.18506
       0.22282	      51.95618	      57.29675	      61.18774	      54.93164
       0.23593	      55.84717	      50.88806	      59.96704	      45.85266
       0.24904	      48.14148	      60.34851	      56.15234	      57.52563
       0.26214	      49.20959	      55.38940	      47.68372	      51.42212
       0.27525	      57.60193	      53.48206	      47.60742	      58.97522
       0.28836	      54.24500	      55.61829	      57.60193	      53.71094
       0.30147	      46.53931	      54.24500	      50.50659	      51.34583
       0.31457	      54.32129	      51.80359	      50.27771	      55.46570
       0.32768	      55.31311	      55.61829	      61.11145	      49.81995
       0.34079	      48.29407	      54.09241	      54.62646	      54.93164
       0.35389	      46.69189	      52.56653	      54.47388	      58.74634
       0.36700	      48.90442	      54.24500	      57.22046	      51.11694
       0.38011	      57.29675	      51.34583	      59.12781	      53.93982
       0.39322	      53.10059	      51.04065	      50.50659	      58.21228
       0.40632	      54.24500	      50.27771	      62.02698	      50.96436
       0.41943	      50.43030	      64.69727	      55.54199	      53.40576
       0.43254	      51.95618	      52.94800	      54.24500	      55.84717
       0.44564	      56.76270	      49.36218	      54.47388	      58.89893
       0.45875	      54.09241	      57.83081	      58.59375	      59.28040
       0.47186	      53.86353	      59.81445	      51.42212	      52.56653
       0.48497	      53.25317	      51.19324	      52.87170	      43.86902
       0.49807	      53.32947	      52.10876	      51.80359	      57.14417
       0.51118	      52.03247	      52.71912	      49.66736	      44.02161
       0.52429	      59.89075	      48.59924	      58.51746	      49.43848
       0.53740	      53.25317	      54.70276	      49.89624	      57.14417
       0.55050	      55.61829	      59.73816	      49.66736	      53.78723
       0.56361	      53.17688	      62.56104	      54.70276	      56.91528
       0.57672	      57.83081	      67.74902	      56.68640	      53.10059
       0.58982	      52.49023	      64.23950	      50.73547	      57.83081
       0.60293	      66.37573	      68.58826	      51.11694	      48.52295
       0.61604	      48.59924	      48.52295	      49.36218	      54.09241
       0.62915	      59.81445	      61.79810	      58.05969	      58.36487
       0.64225	      54.77905	      52.71912	      60.42480	      54.32129
       0.65536	      51.04065	      54.70276	      66.29944	      47.76001
       0.66847	      47.30225	      55.08423	      48.90442	      55.77087
       0.68157	      54.16870	      56.07605	      72.25037	      60.34851
       0.69468	      56.30493	      57.52563	      48.59924	      54.47388
       0.70779	      47.98889	      53.02429	      51.87988	      62.17957
       0.72090	      55.31311	      56.15234	      61.03516	      58.51746
       0.73400	      54.47388	      48.06519	      50.88806	      50.96436
       0.74711	      57.90710	      58.82263	      72.02148	      52.64282
