ALV-7004/USB-FAST
Date :	"11/11/2025"
Time :	"3:56:57 PM"
Samplename : 	""
SampMemo(0) : 	""
SampMemo(1) : 	""
SampMemo(2) : 	""
SampMemo(3) : 	""
SampMemo(4) : 	""
SampMemo(5) : 	""
SampMemo(6) : 	""
SampMemo(7) : 	""
SampMemo(8) : 	""
SampMemo(9) : 	""
Temperature [K] :	     298.16000
Viscosity [cp]  :	       0.89000
Refractive Index:	       1.33200
Wavelength [nm] :	       0.00000
Angle [°]       :	       0.00000
Duration [s]    :	         1
FloatDur [ms]   :	          944
Stop TP [ms]   :	     67722
Runs            :	         1
Mode            :	"A-CH0+1  A-CH2+3 "
MeanCR0 [kHz]   :	      44.78031
MeanCR1 [kHz]   :	      46.29029
MeanCR2 [kHz]   :	      45.70961
MeanCR3 [kHz]   :	      45.34298

"Correlation"
  3.12500E-006	 -1.00000E+000	 -1.00000E+000	 -1.00000E+000	 -1.00000E+000
  6.25000E-006	 -1.00000E+000	 -1.00000E+000	 -1.00000E+000	 -1.00000E+000
  9.37500E-006	 -1.00000E+000	 -1.00000E+000	 -1.00000E+000	 -1.00000E+000
  1.25000E-005	 -1.00000E+000	 -1.00000E+000	 -1.00000E+000	 -1.00000E+000
  1.56250E-005	 -1.00000E+000	 -1.00000E+000	 -1.00000E+000	 -1.00000E+000
  1.87500E-005	 -1.00000E+000	 -1.00000E+000	 -1.00000E+000	 -1.00000E+000
  2.18750E-005	 -8.30904E-001	  1.07709E-001	  6.22903E-001	 -8.35075E-001
  2.50000E-005	  1.69242E+001	  1.26090E+001	  1.53913E+001	  2.83567E+001
  2.81250E-005	  3.73469E+000	  2.32313E+000	  2.57039E+000	  1.12045E+001
  3.12500E-005	  6.90960E-001	  1.05717E+000	  1.59664E+000	  5.92687E+000
  3.43750E-005	  1.87463E+000	  7.40686E-001	  1.59664E+000	  3.78284E+000
  3.75000E-005	  5.21864E-001	  2.79786E+000	  7.85193E-001	  4.27761E+000
  4.06250E-005	  6.90960E-001	  8.98930E-001	  1.43435E+000	  1.14403E+000
  4.37500E-005	  5.21864E-001	  1.53191E+000	  1.43435E+000	  3.45299E+000
  4.68750E-005	  1.83672E-001	  2.32313E+000	  4.60613E-001	  2.79328E+000
  5.00000E-005	  2.68220E-001	  1.61103E+000	  1.27206E+000	  2.29851E+000
  5.62500E-005	  6.06412E-001	  1.61103E+000	  1.02863E+000	  2.54590E+000
  6.25000E-005	  1.19825E+000	  4.24197E-001	  8.66338E-001	  2.05112E+000
  6.87500E-005	  8.60056E-001	  7.40686E-001	  5.41758E-001	  1.88619E+000
  7.50000E-005	  1.53644E+000	  7.40686E-001	  1.19092E+000	  7.31716E-001
  8.12500E-005	  9.44604E-001	  3.45075E-001	  1.35321E+000	  1.30896E+000
  8.75000E-005	  4.37316E-001	  5.03319E-001	  6.22903E-001	  1.14403E+000
  9.37500E-005	 -6.99719E-002	  5.03319E-001	  7.85193E-001	  1.22649E+000
  1.00000E-004	  3.95042E-001	  5.82441E-001	  1.76604E-001	  1.10280E+000
  1.12500E-004	  5.64138E-001	  7.40686E-001	  9.47483E-001	  9.79104E-001
  1.25000E-004	  6.90960E-001	  8.59369E-001	  9.06910E-001	  6.90485E-001
  1.37500E-004	  5.21864E-001	  7.01124E-001	  4.60612E-001	  8.55410E-001
  1.50000E-004	  8.17782E-001	  7.40686E-001	  7.04048E-001	  8.14179E-001
  1.62500E-004	  3.52768E-001	  3.45075E-001	  7.44620E-001	  6.90485E-001
  1.75000E-004	  5.68500E-002	  1.09673E+000	  2.98322E-001	  1.95709E-001
  1.87500E-004	  7.75508E-001	  7.40686E-001	  6.63475E-001	  7.31716E-001
  2.00000E-004	  1.07143E+000	  7.40685E-001	  8.46051E-001	  8.34794E-001
  2.25000E-004	  7.33234E-001	  5.03319E-001	  6.02616E-001	  5.25559E-001
  2.50000E-004	  2.89357E-001	  6.61563E-001	  5.41757E-001	  6.08022E-001
  2.75000E-004	  4.58453E-001	  4.43977E-001	  3.18608E-001	  5.87406E-001
  3.00000E-004	  5.00727E-001	  2.85733E-001	  5.41757E-001	  4.84328E-001
  3.25000E-004	  6.69823E-001	  5.03319E-001	  1.15745E-001	  5.66791E-001
  3.50000E-004	  6.69823E-001	  2.26392E-001	  6.63475E-001	  3.19403E-001
  3.75000E-004	  4.16179E-001	  5.03319E-001	  6.22902E-001	  5.25559E-001
  4.00000E-004	  3.10493E-001	  4.24196E-001	  6.22901E-001	  5.04943E-001
  4.50000E-004	  5.32431E-001	  7.11014E-001	  3.79466E-001	  3.70941E-001
  5.00000E-004	  6.90959E-001	  4.14306E-001	  3.89609E-001	  4.74019E-001
  5.50000E-004	  3.42199E-001	  6.22001E-001	  6.02615E-001	  7.21407E-001
  6.00000E-004	  6.48685E-001	  4.24196E-001	  5.62043E-001	  6.08021E-001
  6.50000E-004	  7.12096E-001	  4.63757E-001	  5.11327E-001	  6.38945E-001
  7.00000E-004	  3.42199E-001	  3.94526E-001	  6.02615E-001	  5.77098E-001
  7.50000E-004	  4.05610E-001	  5.03318E-001	  3.69323E-001	  6.59560E-001
  8.00000E-004	  5.06009E-001	  4.73646E-001	  3.94680E-001	  5.46173E-001
  9.00000E-004	  5.58851E-001	  2.75841E-001	  6.12757E-001	  5.35865E-001
  1.00000E-003	  3.68619E-001	  3.50018E-001	  4.65682E-001	  6.13174E-001
  1.10000E-003	  3.10492E-001	  4.93427E-001	  3.08463E-001	  4.79172E-001
  1.20000E-003	  2.84071E-001	  3.59909E-001	  4.50467E-001	  3.86402E-001
  1.30000E-003	  3.89756E-001	  5.47823E-001	  5.72185E-001	  5.56481E-001
  1.40000E-003	  4.63735E-001	  4.73646E-001	  4.40324E-001	  3.60632E-001
  1.50000E-003	  3.89756E-001	  5.18152E-001	  4.70753E-001	  4.74018E-001
  1.60000E-003	  5.21859E-001	  4.31610E-001	  3.61712E-001	  4.32784E-001
  1.80000E-003	  5.19217E-001	  3.72269E-001	  4.85965E-001	  4.74016E-001
  2.00000E-003	  3.81827E-001	  4.86007E-001	  5.41752E-001	  4.81747E-001
  2.20000E-003	  4.16174E-001	  4.68699E-001	  4.17499E-001	  3.76092E-001
  2.40000E-003	  3.81827E-001	  4.78589E-001	  4.22571E-001	  4.27631E-001
  2.60000E-003	  5.45638E-001	  3.59906E-001	  4.07356E-001	  4.25054E-001
  2.80000E-003	  2.62932E-001	  4.48918E-001	  4.25107E-001	  3.70938E-001
  3.00000E-003	  4.10890E-001	  4.39028E-001	  4.42857E-001	  4.55977E-001
  3.20000E-003	  3.59364E-001	  4.26660E-001	  4.78353E-001	  4.39222E-001
  3.60000E-003	  3.68612E-001	  3.28995E-001	  4.11155E-001	  4.53395E-001
  4.00000E-003	  3.67291E-001	  4.01935E-001	  3.79458E-001	  3.40010E-001
  4.40000E-003	  3.69933E-001	  3.42594E-001	  4.87228E-001	  5.25550E-001
  4.80000E-003	  3.27659E-001	  4.09353E-001	  3.56636E-001	  3.79952E-001
  5.20000E-003	  4.01638E-001	  3.78446E-001	  3.30011E-001	  4.36645E-001
  5.60000E-003	  4.05601E-001	  3.50011E-001	  4.51761E-001	  3.76087E-001
  6.00000E-003	  3.48796E-001	  3.77209E-001	  3.70615E-001	  3.64491E-001
  6.40000E-003	  3.35608E-001	  3.51269E-001	  3.56690E-001	  4.14087E-001
  7.20000E-003	  3.57406E-001	  3.25307E-001	  3.47814E-001	  3.83808E-001
  8.00000E-003	  3.10507E-001	  3.49415E-001	  3.97264E-001	  3.13587E-001
  8.80000E-003	  3.01920E-001	  2.89455E-001	  3.76343E-001	  3.65126E-001
  9.60000E-003	  3.00599E-001	  3.30252E-001	  3.11678E-001	  3.10366E-001
  1.04000E-002	  2.53701E-001	  3.45088E-001	  2.76176E-001	  3.11654E-001
  1.12000E-002	  2.76159E-001	  2.82037E-001	  2.89489E-001	  3.30981E-001
  1.20000E-002	  2.62949E-001	  2.26404E-001	  2.71104E-001	  2.62049E-001
  1.28000E-002	  2.60319E-001	  2.65388E-001	  2.69849E-001	  2.55267E-001
  1.44000E-002	  2.40833E-001	  2.49315E-001	  2.76476E-001	  2.43671E-001
  1.60000E-002	  2.41494E-001	  2.18716E-001	  2.25125E-001	  1.77961E-001
  1.76000E-002	  2.06787E-001	  2.15625E-001	  2.03253E-001	  2.29176E-001
  1.92000E-002	  1.71779E-001	  2.00144E-001	  2.07691E-001	  1.97287E-001
  2.08000E-002	  1.48990E-001	  1.93035E-001	  2.06740E-001	  1.45749E-001
  2.24000E-002	  1.75412E-001	  1.26584E-001	  1.33201E-001	  1.56406E-001
  2.40000E-002	  1.37431E-001	  1.38947E-001	  1.64582E-001	  1.29670E-001
  2.56000E-002	  1.44252E-001	  1.26476E-001	  1.53351E-001	  1.47221E-001
  2.88000E-002	  1.35196E-001	  1.42394E-001	  1.31321E-001	  1.37075E-001
  3.20000E-002	  1.06131E-001	  1.09760E-001	  1.03743E-001	  1.15680E-001
  3.52000E-002	  1.03819E-001	  7.73059E-002	  1.37185E-001	  9.69967E-002
  3.84000E-002	  9.30843E-002	  8.64239E-002	  6.33276E-002	  9.31312E-002
  4.16000E-002	  9.34146E-002	  7.25152E-002	  7.96273E-002	  6.52674E-002
  4.48000E-002	  4.99570E-002	  4.26649E-002	  8.99291E-002	  8.76551E-002
  4.80000E-002	  5.67278E-002	  6.44547E-002	  6.85330E-002	  5.38320E-002
  5.12000E-002	  5.38228E-002	  4.22583E-002	  6.61473E-002	  5.64816E-002
  5.76000E-002	  6.15346E-002	  3.61533E-002	  4.18194E-002	  3.12191E-002
  6.40000E-002	  3.61027E-002	  4.76438E-002	  3.88082E-002	  2.16118E-002
  7.04000E-002	  4.70846E-002	  3.27294E-002	  3.87530E-002	  2.52357E-002
  7.68000E-002	  3.52769E-002	  3.11066E-002	  1.65406E-002	  2.41888E-002
  8.32000E-002	  3.26591E-002	  2.05735E-002	 -2.45479E-003	  2.32224E-002
  8.96000E-002	  2.03799E-002	  7.51402E-003	  1.23553E-002	  2.40277E-002
  9.60000E-002	  1.99670E-002	  1.77916E-002	  1.42338E-002	 -6.73498E-003
  1.02400E-001	  2.45842E-002	  1.82466E-002	  1.95275E-002	  4.91678E-003
  1.15200E-001	  4.66544E-003	 -3.00007E-003	  9.05048E-003	  9.28927E-003
  1.28000E-001	  2.62260E-002	  1.10435E-002	 -1.88602E-003	  4.60082E-004
  1.40800E-001	  7.29694E-003	  4.72155E-003	  1.19035E-002	  9.83609E-004
  1.53600E-001	  7.13177E-003	 -8.40118E-003	  1.03185E-002	  5.83293E-003
  1.66400E-001	  1.39864E-002	  1.03017E-002	  5.52385E-003	 -8.68758E-003
  1.79200E-001	  5.40377E-003	  8.95675E-003	 -4.64323E-003	 -2.96932E-003
  1.92000E-001	  3.48196E-004	  1.28598E-002	 -2.17989E-003	  1.92191E-002
  2.04800E-001	  8.65102E-003	  8.94901E-003	 -3.02300E-004	  9.52128E-003
  2.30400E-001	  6.75452E-003	  1.72529E-003	  2.13849E-003	  6.74585E-003
  2.56000E-001	  6.04130E-003	 -2.15902E-003	 -9.27579E-003	  3.58102E-003
  2.81600E-001	  3.71089E-003	 -9.02900E-004	 -3.98016E-004	  5.95037E-003
  3.07200E-001	 -1.02688E-003	 -1.15316E-002	  7.82937E-003	 -7.01541E-005
  3.32800E-001	 -6.23436E-003	 -5.09986E-003	  4.68544E-003	 -6.87596E-003
  3.58400E-001	  6.17790E-003	  2.48375E-003	  1.47764E-002	 -2.31238E-004
  3.84000E-001	 -3.77963E-003	  8.99564E-003	  1.24054E-003	 -4.68432E-003
  4.09600E-001	 -1.75743E-003	 -1.36957E-004	  3.90997E-003	 -1.15795E-002
  4.60800E-001	 -9.82231E-003	  3.31494E-003	  9.34252E-003	  2.36505E-003
  5.12000E-001	  3.64413E-003	 -4.37318E-003	  1.14173E-002	  5.91374E-003
  5.63200E-001	 -5.17395E-004	  2.76999E-003	  2.74914E-003	  5.91374E-003
  6.14400E-001	 -2.76969E-003	  2.42805E-003	 -1.94663E-003	  2.82506E-003
  6.65600E-001	  9.01101E-003	  8.73391E-003	 -5.05285E-003	  8.36459E-003
  7.16800E-001	  6.99341E-004	 -4.25371E-003	  7.23432E-003	  3.94644E-003
  7.68000E-001	  6.39288E-003	 -3.02876E-003	 -3.48988E-003	 -2.14994E-003
  8.19200E-001	  3.31706E-003	 -2.18439E-003	  1.42422E-003	  2.62670E-003
  9.21600E-001	  4.93947E-003	  2.50740E-003	  2.26328E-004	  3.62127E-003
  1.02400E+000	 -2.16448E-003	  1.71800E-003	  5.16196E-003	  1.64919E-003
  1.12640E+000	 -2.67558E-003	 -3.66795E-003	  2.90017E-003	  3.64486E-003
  1.22880E+000	  6.88943E-003	  1.87267E-003	 -1.28218E-003	  9.59065E-005
  1.33120E+000	  1.84361E-003	  3.51253E-003	  4.36038E-003	 -1.27666E-006
  1.43360E+000	 -5.79361E-004	  3.67223E-003	  7.87474E-003	 -3.63105E-003
  1.53600E+000	  6.17752E-003	 -4.23711E-003	 -1.67940E-003	 -2.36815E-003
  1.63840E+000	  2.47711E-003	 -3.23168E-004	  6.81976E-004	  1.13231E-003
  1.84320E+000	  5.01867E-004	 -3.69526E-003	  4.77859E-004	  4.77904E-003
  2.04800E+000	  4.61547E-003	 -4.02581E-003	 -9.52194E-004	 -3.41439E-004
  2.25280E+000	 -8.95604E-004	  1.88077E-003	  1.23019E-003	 -2.44485E-004
  2.45760E+000	  3.51397E-004	  5.86361E-003	 -2.16673E-003	  2.65664E-003
  2.66240E+000	  3.13969E-003	 -2.99589E-003	  3.30950E-004	 -1.58726E-003
  2.86720E+000	 -4.60892E-003	  2.59011E-003	 -3.52396E-003	 -5.28840E-004
  3.07200E+000	 -5.08905E-003	  6.10704E-003	  2.55923E-003	  1.78626E-003
  3.27680E+000	 -1.83950E-003	  2.61789E-003	 -2.34341E-003	 -2.36813E-003
  3.68640E+000	 -3.04229E-003	  8.13314E-004	 -3.99531E-003	  9.55716E-004
  4.09600E+000	  4.51607E-003	  4.04697E-003	 -1.90007E-003	 -2.19225E-003
  4.50560E+000	 -1.66042E-003	  1.79197E-003	 -3.00385E-003	 -1.16015E-003
  4.91520E+000	 -2.68341E-003	 -3.35575E-003	  2.47877E-003	 -1.75204E-003
  5.32480E+000	  1.07960E-003	 -9.44237E-004	  1.67035E-004	 -9.67129E-004
  5.73440E+000	 -1.34037E-003	 -1.40421E-003	  8.70732E-004	 -2.93565E-003
  6.14400E+000	  3.72889E-003	 -1.58428E-003	  1.63363E-003	  4.43694E-003
  6.55360E+000	 -1.25480E-003	 -7.70910E-004	 -3.55248E-004	  2.36025E-003
  7.37280E+000	 -1.86412E-003	  6.58490E-005	  3.89566E-004	 -2.87567E-004
  8.19200E+000	  1.66089E-003	  2.63327E-003	  3.59865E-004	 -1.59688E-003
  9.01120E+000	  6.32499E-004	 -2.32019E-003	  6.23740E-004	  3.75339E-004
  9.83040E+000	  2.39496E-003	  1.45883E-004	 -1.66265E-003	  1.32912E-003
  1.06496E+001	 -1.62651E-003	  7.50396E-004	 -2.81370E-004	 -1.62458E-004
  1.14688E+001	  1.76491E-003	 -4.96043E-004	  5.93627E-005	  1.30992E-003
  1.22880E+001	  1.88177E-003	  3.20697E-003	  1.06140E-004	 -2.49229E-004
  1.31072E+001	  2.05410E-003	  3.05371E-004	  1.21131E-003	 -2.82358E-005
  1.47456E+001	  5.64940E-004	  2.29128E-003	  2.32355E-003	 -8.97721E-004
  1.63840E+001	  8.78111E-004	 -4.19446E-005	  2.59461E-004	 -1.30829E-003
  1.80224E+001	 -1.43011E-003	  8.47116E-004	  2.50382E-003	  1.01349E-003
  1.96608E+001	  9.04736E-004	  6.68100E-004	  1.69224E-003	 -1.92695E-003
  2.12992E+001	  2.71587E-004	 -3.52842E-004	  1.60298E-003	 -9.83346E-004
  2.29376E+001	 -1.30418E-005	 -1.60292E-003	 -3.77470E-005	 -6.10532E-004
  2.45760E+001	 -7.07427E-004	  1.40342E-003	 -6.42721E-004	  1.30010E-003
  2.62144E+001	 -4.09254E-004	  1.41953E-003	  8.68397E-005	  8.13133E-004
  2.94912E+001	  1.24355E-007	 -1.00291E-003	  9.11226E-004	  7.16952E-004
  3.27680E+001	  7.67640E-004	 -1.98673E-004	  4.82012E-004	 -4.36943E-004
  3.60448E+001	  1.57986E-003	 -1.52107E-003	 -1.97196E-004	  6.84976E-005
  3.93216E+001	 -8.28299E-004	 -1.79190E-005	 -1.08738E-004	  8.60013E-004
  4.25984E+001	  5.03638E-004	  1.17939E-003	  2.91383E-004	 -6.85089E-004
  4.58752E+001	 -1.21480E-003	  2.80536E-005	 -1.92198E-004	 -1.63712E-003
  4.91520E+001	  2.88091E-004	 -9.20526E-004	 -1.05445E-004	 -3.15170E-004
  5.24288E+001	  6.53706E-004	 -3.96174E-004	  2.01715E-004	 -6.33691E-004
  5.89824E+001	 -7.86300E-004	  5.80194E-004	  4.41378E-004	 -5.24273E-004
  6.55360E+001	  5.69077E-004	 -1.69344E-004	  5.99608E-004	  1.22849E-003
  7.20896E+001	  2.43088E-004	  1.05269E-003	  1.22472E-005	 -5.02765E-004
  7.86432E+001	  4.95446E-006	  1.55720E-004	  2.82794E-004	  1.98690E-004
  8.51968E+001	  3.16523E-004	  5.16497E-004	  2.26570E-003	 -2.55064E-004
  9.17504E+001	 -4.61983E-004	 -2.75161E-004	 -1.07827E-003	  1.39596E-003
  9.83040E+001	  2.37285E-004	  2.76319E-004	  5.82162E-004	 -1.70897E-004
  1.04858E+002	  2.33756E-004	  5.68338E-005	  1.06931E-003	 -4.15819E-004
  1.17965E+002	 -1.23282E-004	  4.59871E-004	  3.42213E-004	  2.20618E-004
  1.31072E+002	 -2.41249E-004	 -2.07567E-004	  5.70801E-004	 -2.06503E-004
  1.44179E+002	 -4.25571E-005	 -1.23222E-003	  6.65249E-004	 -6.90370E-004
  1.57286E+002	  2.41168E-004	  3.27417E-004	  1.41553E-003	  2.36425E-004
  1.70394E+002	  1.46248E-004	 -2.37314E-004	  6.13632E-004	 -2.21007E-005
  1.83501E+002	 -5.32321E-004	  2.96195E-004	  1.10324E-003	 -6.01854E-004
  1.96608E+002	 -3.83470E-004	 -1.21932E-004	  1.98334E-004	  7.84529E-004
  2.09715E+002	 -3.95912E-004	 -4.22984E-005	 -2.37051E-004	 -9.66978E-005
  2.35930E+002	 -9.07784E-004	 -4.51064E-004	 -5.23823E-004	 -2.01564E-004
  2.62144E+002	  3.82662E-004	  3.71287E-004	  2.07673E-004	  9.12918E-006
  2.88358E+002	 -6.33954E-005	  6.98065E-004	  5.12147E-004	 -3.53478E-004
  3.14573E+002	 -3.52093E-004	 -3.34874E-004	  4.70809E-004	  3.05672E-004
  3.40787E+002	 -1.58967E-005	  1.73912E-004	 -4.01342E-004	  3.88912E-004
  3.67002E+002	  4.50126E-004	  4.10051E-004	  1.41559E-004	  4.42879E-004
  3.93216E+002	  2.58446E-004	 -8.41586E-004	 -2.15925E-004	 -4.67982E-004

"Count Rate"
       0.01311	      41.12244	      44.55566	      42.19055	      39.82544
       0.02621	      43.48755	      46.53931	      44.09790	      44.78455
       0.03932	      44.40308	      42.41943	      46.23413	      46.76819
       0.05243	      43.56384	      44.32678	      40.58838	      41.96167
       0.06554	      37.53662	      45.70007	      44.86084	      44.17419
       0.07864	      37.46033	      51.26953	      42.64832	      42.49573
       0.09175	      46.99707	      40.28320	      41.80908	      44.78455
       0.10486	      43.33496	      43.48755	      39.59656	      46.69189
       0.11796	      44.93713	      42.26685	      40.66467	      43.02979
       0.13107	      40.51208	      44.93713	      47.53113	      39.52026
       0.14418	      43.25867	      44.47937	      39.59656	      44.78455
       0.15729	      47.37854	      47.37854	      44.40308	      48.75183
       0.17039	      43.10608	      45.01343	      41.96167	      43.33496
       0.18350	      43.18237	      44.40308	      43.71643	      45.85266
       0.19661	      44.70825	      42.49573	      42.19055	      41.73279
       0.20972	      41.12244	      43.79272	      48.37036	      45.70007
       0.22282	      45.62378	      40.28320	      42.49573	      41.65649
       0.23593	      44.40308	      45.85266	      43.86902	      42.80090
       0.24904	      45.08972	      42.41943	      47.07336	      44.40308
       0.26214	      49.43848	      47.45483	      44.63196	      45.16602
       0.27525	      44.09790	      44.09790	      39.21509	      45.08972
       0.28836	      43.02979	      43.86902	      43.18237	      46.61560
       0.30147	      41.42761	      46.08154	      41.12244	      46.69189
       0.31457	      41.80908	      50.96436	      47.37854	      43.56384
       0.32768	      42.95349	      42.80090	      46.23413	      42.95349
       0.34079	      39.36768	      42.26685	      45.70007	      42.26685
       0.35389	      44.40308	      45.77637	      49.36218	      48.59924
       0.36700	      41.73279	      46.84448	      44.55566	      40.28320
       0.38011	      41.65649	      49.13330	      41.73279	      42.95349
       0.39322	      43.18237	      48.52295	      44.78455	      47.68372
       0.40632	      43.86902	      43.33496	      45.85266	      44.25049
       0.41943	      45.31860	      47.22595	      47.45483	      44.86084
       0.43254	      40.43579	      49.28589	      43.94531	      42.64832
       0.44564	      41.73279	      45.01343	      44.78455	      40.74097
       0.45875	      40.13062	      40.28320	      44.47937	      44.32678
       0.47186	      41.58020	      47.60742	      45.39490	      48.98071
       0.48497	      43.64014	      50.35400	      49.43848	      48.44666
       0.49807	      45.70007	      50.20142	      45.70007	      43.71643
       0.51118	      47.60742	      46.99707	      45.77637	      48.98071
       0.52429	      47.14966	      41.50391	      49.36218	      46.69189
       0.53740	      45.31860	      41.27502	      46.38672	      42.11426
       0.55050	      42.72461	      45.01343	      41.50391	      52.87170
       0.56361	      49.05701	      45.08972	      47.60742	      43.41125
       0.57672	      47.83630	      49.05701	      41.65649	      44.47937
       0.58982	      44.17419	      45.54749	      47.14966	      43.02979
       0.60293	      45.39490	      48.14148	      45.01343	      43.79272
       0.61604	      43.48755	      39.29138	      45.47119	      44.47937
       0.62915	      44.93713	      47.07336	      49.97253	      45.77637
       0.64225	      46.31042	      48.98071	      49.74365	      47.76001
       0.65536	      40.58838	      47.68372	      44.93713	      43.02979
       0.66847	      44.17419	      44.70825	      48.75183	      45.16602
       0.68157	      47.14966	      50.50659	      46.31042	      42.19055
       0.69468	      46.99707	      48.52295	      44.09790	      41.96167
       0.70779	      46.53931	      43.71643	      44.25049	      43.48755
       0.72090	      42.49573	      50.12512	      46.00525	      45.70007
       0.73400	      43.86902	      46.61560	      46.61560	      43.94531
       0.74711	      43.71643	      49.28589	      46.38672	      46.38672
