ALV-7004/USB-FAST
Date :	"11/11/2025"
Time :	"3:59:24 PM"
Samplename : 	""
SampMemo(0) : 	""
SampMemo(1) : 	""
SampMemo(2) : 	""
SampMemo(3) : 	""
SampMemo(4) : 	""
SampMemo(5) : 	""
SampMemo(6) : 	""
SampMemo(7) : 	""
SampMemo(8) : 	""
SampMemo(9) : 	""
Temperature [K] :	     298.16000
Viscosity [cp]  :	       0.89000
Refractive Index:	       1.33200
Wavelength [nm] :	       0.00000
Angle [°]       :	       0.00000
Duration [s]    :	         1
FloatDur [ms]   :	          944
Stop TP [ms]   :	     68315
Runs            :	         1
Mode            :	"A-CH0+1  A-CH2+3 "
MeanCR0 [kHz]   :	      56.73409
MeanCR1 [kHz]   :	      58.65733
MeanCR2 [kHz]   :	      58.14870
MeanCR3 [kHz]   :	      56.47447

"Correlation"
  3.12500E-006	 -1.00000E+000	 -1.00000E+000	 -1.00000E+000	 -1.00000E+000
  6.25000E-006	 -1.00000E+000	 -1.00000E+000	 -1.00000E+000	 -1.00000E+000
  9.37500E-006	 -1.00000E+000	 -1.00000E+000	 -1.00000E+000	 -1.00000E+000
  1.25000E-005	 -1.00000E+000	 -1.00000E+000	 -1.00000E+000	 -1.00000E+000
  1.56250E-005	 -1.00000E+000	 -1.00000E+000	 -1.00000E+000	 -1.00000E+000
  1.87500E-005	 -1.00000E+000	 -1.00000E+000	 -1.00000E+000	 -1.00000E+000
  2.18750E-005	 -1.00000E+000	  9.71029E-001	  1.10594E+000	 -6.81049E-001
  2.50000E-005	  1.31164E+001	  1.11218E+001	  1.10340E+001	  2.30277E+001
  2.81250E-005	  3.63524E+000	  7.73926E-001	  2.61019E+000	  6.86747E+000
  3.12500E-005	  1.73900E+000	  1.36523E+000	  9.05378E-001	  3.67795E+000
  3.43750E-005	  1.84435E+000	  6.75375E-001	  1.10594E+000	  5.48534E+000
  3.75000E-005	  1.21227E+000	  1.46379E+000	  1.30651E+000	  2.61478E+000
  4.06250E-005	  1.42297E+000	  3.79720E-001	  1.40679E+000	  3.57164E+000
  4.37500E-005	  8.96234E-001	  1.36523E+000	  8.05095E-001	  2.61478E+000
  4.68750E-005	  1.63366E+000	  5.76823E-001	  6.04529E-001	  2.29583E+000
  5.00000E-005	  1.10693E+000	  1.16813E+000	  6.04529E-001	  1.17950E+000
  5.62500E-005	  7.38214E-001	  9.71029E-001	  7.54953E-001	  1.44529E+000
  6.25000E-005	  1.21227E+000	  6.26099E-001	  1.30651E+000	  1.71109E+000
  6.87500E-005	  1.05425E+000	  5.27547E-001	  9.55519E-001	  1.33898E+000
  7.50000E-005	  1.06136E-001	  8.72477E-001	  4.03962E-001	  1.28582E+000
  8.12500E-005	  7.38214E-001	  7.24650E-001	  4.03962E-001	  1.17950E+000
  8.75000E-005	  2.64156E-001	  6.26099E-001	  6.54670E-001	  9.66866E-001
  9.37500E-005	  5.27522E-001	  3.30444E-001	  7.54953E-001	  5.94756E-001
  1.00000E-004	  4.22175E-001	  6.75374E-001	  8.30165E-001	  7.27653E-001
  1.12500E-004	  5.80195E-001	  7.00012E-001	  5.54387E-001	  5.41598E-001
  1.25000E-004	  6.32868E-001	  7.24650E-001	  2.53538E-001	  7.54232E-001
  1.37500E-004	  5.01185E-001	  7.24650E-001	  5.04245E-001	  4.35281E-001
  1.50000E-004	  7.64551E-001	  8.97115E-001	  8.05094E-001	  7.54232E-001
  1.62500E-004	  5.80195E-001	  6.75374E-001	  8.30165E-001	  4.61860E-001
  1.75000E-004	  4.48512E-001	  3.05806E-001	  4.03962E-001	  7.54232E-001
  1.87500E-004	  6.85541E-001	  3.79720E-001	  6.54670E-001	  7.01073E-001
  2.00000E-004	  7.25046E-001	  5.27547E-001	  4.03962E-001	  9.26997E-001
  2.25000E-004	  7.25046E-001	  4.78271E-001	  3.78891E-001	  4.88439E-001
  2.50000E-004	  6.06531E-001	  4.65952E-001	  4.91710E-001	  4.35280E-001
  2.75000E-004	  5.01185E-001	  3.92039E-001	  4.91710E-001	  5.54887E-001
  3.00000E-004	  2.64156E-001	  5.39866E-001	  5.79457E-001	  7.80811E-001
  3.25000E-004	  7.11877E-001	  6.63055E-001	  6.54670E-001	  4.48570E-001
  3.50000E-004	  7.25046E-001	  6.50736E-001	  5.29316E-001	  5.68177E-001
  3.75000E-004	  3.82670E-001	  4.16676E-001	  3.03679E-001	  4.75149E-001
  4.00000E-004	  3.56333E-001	  4.72111E-001	  4.16497E-001	  4.35280E-001
  4.50000E-004	  6.98708E-001	  3.36603E-001	  5.91992E-001	  5.15018E-001
  5.00000E-004	  5.07768E-001	  6.56895E-001	  6.04527E-001	  6.08045E-001
  5.50000E-004	  3.89254E-001	  3.79719E-001	  6.48401E-001	  4.68504E-001
  6.00000E-004	  5.73610E-001	  4.35154E-001	  5.35583E-001	  5.61531E-001
  6.50000E-004	  3.95838E-001	  5.70662E-001	  5.10512E-001	  4.28635E-001
  7.00000E-004	  4.94600E-001	  6.56895E-001	  5.35583E-001	  4.41925E-001
  7.50000E-004	  3.82670E-001	  6.56895E-001	  3.60088E-001	  5.08373E-001
  8.00000E-004	  5.11059E-001	  4.53631E-001	  6.07660E-001	  5.24983E-001
  9.00000E-004	  4.58386E-001	  4.99827E-001	  3.66354E-001	  5.54885E-001
  1.00000E-003	  5.63732E-001	  4.44392E-001	  4.22763E-001	  5.21661E-001
  1.10000E-003	  5.50564E-001	  4.59791E-001	  5.10511E-001	  4.12022E-001
  1.20000E-003	  4.55094E-001	  4.50552E-001	  3.78890E-001	  5.38273E-001
  1.30000E-003	  5.27519E-001	  4.01276E-001	  3.31882E-001	  3.18994E-001
  1.40000E-003	  4.02421E-001	  5.05987E-001	  4.10228E-001	  3.42251E-001
  1.50000E-003	  5.47272E-001	  4.28994E-001	  3.72622E-001	  4.68503E-001
  1.60000E-003	  5.20933E-001	  4.41310E-001	  4.41564E-001	  5.15014E-001
  1.80000E-003	  5.86774E-001	  3.95114E-001	  4.38430E-001	  4.45243E-001
  2.00000E-003	  4.76490E-001	  4.84426E-001	  4.35296E-001	  3.88763E-001
  2.20000E-003	  4.07356E-001	  4.50549E-001	  4.57233E-001	  4.88435E-001
  2.40000E-003	  4.02418E-001	  4.38230E-001	  4.61934E-001	  4.20325E-001
  2.60000E-003	  5.02826E-001	  5.15223E-001	  4.85438E-001	  3.77134E-001
  2.80000E-003	  3.87604E-001	  5.07524E-001	  3.63218E-001	  3.80457E-001
  3.00000E-003	  4.35339E-001	  4.47469E-001	  4.07092E-001	  4.78467E-001
  3.20000E-003	  4.27927E-001	  4.98280E-001	  5.13664E-001	  4.65173E-001
  3.60000E-003	  4.14759E-001	  4.30526E-001	  3.79691E-001	  4.33610E-001
  4.00000E-003	  4.31219E-001	  4.11278E-001	  3.78124E-001	  4.50222E-001
  4.40000E-003	  4.49325E-001	  4.42845E-001	  4.58822E-001	  3.53042E-001
  4.80000E-003	  4.18874E-001	  4.09738E-001	  4.09463E-001	  4.17829E-001
  5.20000E-003	  3.23404E-001	  4.43615E-001	  4.59605E-001	  4.40255E-001
  5.60000E-003	  3.99945E-001	  4.17437E-001	  3.72640E-001	  4.23643E-001
  6.00000E-003	  4.46856E-001	  4.52854E-001	  4.05546E-001	  4.31118E-001
  6.40000E-003	  4.10661E-001	  3.96640E-001	  4.12587E-001	  3.84180E-001
  7.20000E-003	  4.04899E-001	  4.07804E-001	  4.12196E-001	  3.57601E-001
  8.00000E-003	  3.99961E-001	  4.03954E-001	  3.71064E-001	  3.61754E-001
  8.80000E-003	  4.34528E-001	  3.62378E-001	  3.94176E-001	  3.97054E-001
  9.60000E-003	  3.82678E-001	  3.73542E-001	  3.97701E-001	  4.17819E-001
  1.04000E-002	  3.79386E-001	  3.52369E-001	  4.03186E-001	  4.19480E-001
  1.12000E-002	  3.82266E-001	  3.93945E-001	  3.96526E-001	  3.48049E-001
  1.20000E-002	  3.91731E-001	  3.88941E-001	  3.58920E-001	  3.67984E-001
  1.28000E-002	  3.83739E-001	  3.71071E-001	  3.76725E-001	  3.75856E-001
  1.44000E-002	  3.36003E-001	  3.87047E-001	  3.76725E-001	  3.43878E-001
  1.60000E-002	  3.68925E-001	  3.51630E-001	  4.01012E-001	  3.39310E-001
  1.76000E-002	  3.21600E-001	  3.35076E-001	  3.45779E-001	  3.57790E-001
  1.92000E-002	  3.19312E-001	  3.37218E-001	  3.47541E-001	  3.38480E-001
  2.08000E-002	  3.47295E-001	  3.40875E-001	  3.49892E-001	  2.96951E-001
  2.24000E-002	  3.20546E-001	  3.57621E-001	  3.13069E-001	  2.83893E-001
  2.40000E-002	  3.46703E-001	  3.40682E-001	  3.18358E-001	  3.40166E-001
  2.56000E-002	  2.86452E-001	  3.17113E-001	  3.12616E-001	  3.18065E-001
  2.88000E-002	  2.98411E-001	  2.88527E-001	  3.16044E-001	  2.92628E-001
  3.20000E-002	  3.11168E-001	  2.77169E-001	  3.01941E-001	  2.73340E-001
  3.52000E-002	  2.74233E-001	  2.72599E-001	  2.77653E-001	  2.73444E-001
  3.84000E-002	  2.69294E-001	  2.55755E-001	  2.65435E-001	  2.49044E-001
  4.16000E-002	  2.42876E-001	  2.39897E-001	  2.57991E-001	  2.50187E-001
  4.48000E-002	  2.37400E-001	  2.39319E-001	  2.70135E-001	  2.32247E-001
  4.80000E-002	  2.48306E-001	  1.92927E-001	  2.26946E-001	  2.28094E-001
  5.12000E-002	  2.04649E-001	  2.16303E-001	  2.33492E-001	  2.17662E-001
  5.76000E-002	  1.99218E-001	  2.02489E-001	  1.97473E-001	  1.98009E-001
  6.40000E-002	  1.91501E-001	  1.94045E-001	  2.07050E-001	  1.91260E-001
  7.04000E-002	  1.71283E-001	  1.75810E-001	  1.92652E-001	  1.70887E-001
  7.68000E-002	  1.52998E-001	  1.64864E-001	  1.76910E-001	  1.51367E-001
  8.32000E-002	  1.44818E-001	  1.53430E-001	  1.73972E-001	  1.49082E-001
  8.96000E-002	  1.22367E-001	  1.37892E-001	  1.49926E-001	  1.20758E-001
  9.60000E-002	  1.14290E-001	  1.21000E-001	  1.36850E-001	  1.34671E-001
  1.02400E-001	  1.06562E-001	  1.22481E-001	  1.35193E-001	  1.29999E-001
  1.15200E-001	  9.75843E-002	  1.00845E-001	  1.16437E-001	  1.05520E-001
  1.28000E-001	  9.00579E-002	  9.62245E-002	  1.05229E-001	  1.00822E-001
  1.40800E-001	  9.15241E-002	  7.68987E-002	  8.87859E-002	  7.16182E-002
  1.53600E-001	  6.15570E-002	  6.21987E-002	  8.49506E-002	  7.82433E-002
  1.66400E-001	  4.98531E-002	  6.14767E-002	  7.78737E-002	  6.38426E-002
  1.79200E-001	  6.28174E-002	  3.67952E-002	  6.77848E-002	  5.74373E-002
  1.92000E-001	  5.03479E-002	  4.53677E-002	  5.22298E-002	  5.42445E-002
  2.04800E-001	  4.22747E-002	  3.75812E-002	  5.41917E-002	  4.13328E-002
  2.30400E-001	  3.28641E-002	  2.81530E-002	  4.53546E-002	  3.67904E-002
  2.56000E-001	  2.13307E-002	  2.23886E-002	  2.96336E-002	  2.54607E-002
  2.81600E-001	  1.75993E-002	  1.86042E-002	  3.39664E-002	  1.63494E-002
  3.07200E-001	  9.62279E-003	  1.79784E-002	  1.63737E-002	  1.87894E-002
  3.32800E-001	  4.15018E-003	  2.10833E-002	  2.38038E-002	  1.07338E-002
  3.58400E-001	  8.34314E-003	  6.22649E-003	  1.42477E-002	  4.08238E-003
  3.84000E-001	 -1.01497E-002	  6.86989E-003	  1.22142E-002	  6.41982E-003
  4.09600E-001	 -3.36516E-003	  4.51729E-003	  1.02590E-002	  6.66743E-003
  4.60800E-001	  2.23602E-003	 -4.16943E-004	  1.14171E-002	  7.80976E-004
  5.12000E-001	  7.21554E-003	 -1.36714E-005	  4.66314E-003	 -1.15304E-003
  5.63200E-001	  5.28142E-004	  4.79765E-004	 -2.21389E-003	  8.18218E-004
  6.14400E-001	 -7.36882E-004	  4.49675E-004	  2.53663E-003	  3.22528E-003
  6.65600E-001	  2.19098E-003	 -1.45196E-003	  4.51003E-003	  1.36060E-002
  7.16800E-001	  7.45217E-003	 -1.27142E-003	 -2.54411E-003	  1.48966E-002
  7.68000E-001	  3.51519E-005	 -5.74891E-003	  8.15220E-004	  5.86507E-003
  8.19200E-001	  3.94308E-003	 -2.26592E-003	 -6.09041E-005	  5.43813E-003
  9.21600E-001	  1.00541E-002	  1.92099E-003	  4.47760E-003	  7.51181E-003
  1.02400E+000	  9.79620E-003	  3.23326E-003	  7.36953E-003	 -3.87457E-003
  1.12640E+000	  7.49599E-003	 -8.65285E-003	 -1.59180E-004	 -1.02034E-002
  1.22880E+000	  5.67513E-003	 -6.52518E-004	  2.44742E-003	 -4.46994E-003
  1.33120E+000	  7.17001E-003	 -7.58576E-003	  7.64250E-003	  3.71213E-003
  1.43360E+000	  7.45783E-003	  2.51513E-003	 -1.75503E-003	 -7.92445E-004
  1.53600E+000	  8.74279E-004	  5.42727E-003	 -4.06105E-004	 -5.98156E-004
  1.63840E+000	 -4.92594E-003	  2.18343E-003	 -3.55581E-003	  1.71786E-003
  1.84320E+000	 -4.41061E-003	 -1.70438E-003	 -9.57474E-003	  6.72845E-004
  2.04800E+000	  5.11054E-003	  2.18123E-003	 -3.98604E-004	  2.84530E-003
  2.25280E+000	  4.40767E-003	 -5.59901E-003	  8.27847E-004	 -1.14763E-003
  2.45760E+000	 -1.69656E-003	  6.80144E-003	 -4.39076E-003	 -8.35636E-003
  2.66240E+000	 -2.86132E-003	  6.76438E-003	 -1.46491E-004	 -3.64451E-003
  2.86720E+000	  3.15119E-003	  3.54595E-003	 -6.89965E-004	 -6.89318E-004
  3.07200E+000	 -5.31642E-003	  4.65119E-003	  4.29656E-003	  9.72502E-003
  3.27680E+000	 -5.31882E-003	  3.99632E-004	  2.22851E-004	  2.05360E-003
  3.68640E+000	 -3.34315E-003	 -1.42713E-003	  2.19819E-003	  3.04937E-003
  4.09600E+000	 -4.62193E-003	  5.03141E-003	  5.52821E-003	  2.97768E-004
  4.50560E+000	 -2.01567E-003	  8.85177E-003	 -2.02364E-004	  3.94386E-003
  4.91520E+000	 -1.21833E-002	  5.52948E-003	  5.93867E-004	  3.82542E-003
  5.32480E+000	 -3.61041E-003	 -2.43758E-003	  3.28806E-003	  2.80128E-003
  5.73440E+000	  2.55334E-003	  3.33648E-003	 -8.15046E-004	 -7.66181E-004
  6.14400E+000	 -2.18955E-003	 -2.19262E-003	 -3.07153E-003	 -2.27903E-003
  6.55360E+000	 -2.74810E-003	 -1.89017E-003	 -2.68661E-004	  3.06596E-003
  7.37280E+000	  5.91293E-003	  4.69349E-004	 -1.03560E-003	  4.38952E-003
  8.19200E+000	  1.85112E-004	  2.47358E-004	  2.13487E-003	  2.69136E-003
  9.01120E+000	  1.67337E-003	  6.68239E-005	 -3.83874E-003	 -3.72382E-003
  9.83040E+000	  1.96901E-003	 -2.78883E-003	 -1.22999E-003	  5.79574E-004
  1.06496E+001	 -1.44147E-003	  7.45827E-004	  2.65198E-003	  1.45511E-004
  1.14688E+001	 -2.59775E-003	 -2.95556E-003	  5.43501E-003	 -5.37949E-003
  1.22880E+001	 -3.94002E-003	 -9.32389E-004	 -2.73715E-003	  1.34800E-003
  1.31072E+001	 -1.91222E-003	 -1.22662E-004	  1.44552E-005	  1.26899E-003
  1.47456E+001	 -1.77735E-003	  3.29707E-003	 -2.47854E-004	 -2.01932E-004
  1.63840E+001	 -2.72115E-003	  3.96427E-003	 -2.49977E-003	 -5.14811E-004
  1.80224E+001	  2.23168E-003	  2.68307E-003	 -1.79357E-003	  2.17362E-003
  1.96608E+001	  3.77094E-003	 -1.75276E-003	 -6.98645E-006	  5.76566E-003
  2.12992E+001	 -3.41488E-003	 -1.10885E-003	  9.26047E-004	 -5.86787E-003
  2.29376E+001	 -2.90490E-003	  1.13654E-004	 -1.12114E-003	 -5.23261E-006
  2.45760E+001	  6.04694E-004	  6.36210E-004	  4.74991E-003	 -2.69654E-003
  2.62144E+001	  3.26016E-004	 -5.29556E-004	 -1.48612E-003	 -1.13387E-003
  2.94912E+001	 -3.00683E-003	 -9.19440E-004	 -1.47575E-003	 -6.08666E-004
  3.27680E+001	  2.41893E-003	  8.22265E-004	  6.20894E-005	  3.42050E-003
  3.60448E+001	 -7.27983E-005	 -1.33968E-004	 -3.42563E-003	 -8.45710E-004
  3.93216E+001	 -3.99076E-004	 -3.96668E-004	 -3.33844E-003	  1.23321E-004
  4.25984E+001	  7.28881E-004	 -1.95140E-003	  1.41937E-003	 -4.95745E-003
  4.58752E+001	  4.17941E-004	 -1.79871E-003	 -6.41113E-004	 -1.91260E-003
  4.91520E+001	 -1.30144E-003	 -1.62007E-003	 -1.17838E-003	 -5.69574E-004
  5.24288E+001	  1.48387E-003	  3.60379E-004	 -8.32722E-004	  2.91557E-004
  5.89824E+001	  6.56569E-004	  2.96593E-004	  2.49807E-003	  3.34901E-004
  6.55360E+001	 -5.64720E-004	 -2.98524E-003	  9.18041E-004	  1.40878E-003
  7.20896E+001	  4.76950E-004	 -1.59530E-003	  1.01332E-003	  1.50864E-003
  7.86432E+001	  1.20752E-003	 -1.14000E-003	 -2.81270E-003	  2.84528E-004
  8.51968E+001	 -1.47356E-003	 -1.96017E-003	 -1.52967E-004	  8.58068E-004
  9.17504E+001	  1.26528E-003	  2.45172E-005	 -4.93259E-004	  1.55823E-003
  9.83040E+001	 -1.81923E-003	 -8.19810E-004	  8.62967E-004	  1.09630E-003
  1.04858E+002	 -3.75818E-004	  9.59118E-004	 -2.12049E-004	 -1.12934E-003
  1.17965E+002	  1.26927E-004	  1.05413E-004	 -1.25247E-004	  1.54288E-003
  1.31072E+002	  5.31780E-004	 -5.90596E-004	 -3.44413E-004	 -2.03197E-004
  1.44179E+002	 -3.29309E-004	  5.47180E-004	 -2.01179E-003	  6.16290E-004
  1.57286E+002	 -1.42832E-004	  1.02530E-003	  9.05493E-004	  1.41206E-003
  1.70394E+002	 -8.05280E-004	 -2.03078E-004	 -1.02751E-003	 -1.36715E-003
  1.83501E+002	 -1.28000E-004	 -1.42103E-003	  8.00623E-004	  1.40588E-004
  1.96608E+002	 -3.13192E-004	 -6.53407E-004	 -4.25774E-004	 -3.59195E-004
  2.09715E+002	 -2.78165E-004	 -8.82336E-004	  7.82560E-004	  1.20807E-003
  2.35930E+002	  7.88538E-005	 -5.27240E-004	 -3.10666E-004	  2.06901E-004
  2.62144E+002	  1.03898E-004	  4.19211E-004	  5.20617E-004	 -1.27483E-003
  2.88358E+002	 -3.49196E-004	  3.90307E-004	  4.03505E-004	  1.94417E-003
  3.14573E+002	  1.14319E-004	 -2.53105E-004	  1.64262E-004	 -1.44778E-003
  3.40787E+002	  4.63089E-004	 -8.25367E-004	 -4.39760E-004	  1.95042E-004
  3.67002E+002	 -6.42580E-005	  3.88982E-004	 -2.06030E-004	  6.63608E-004
  3.93216E+002	 -4.44349E-004	  8.60530E-004	  4.10653E-004	  3.00225E-004

"Count Rate"
       0.01311	      50.50659	      52.71912	      54.62646	      60.88257
       0.02621	      56.61011	      55.61829	      62.56104	      48.75183
       0.03932	      55.08423	      58.28857	      57.60193	      50.96436
       0.05243	      64.16321	      53.40576	      50.43030	      61.34033
       0.06554	      65.91797	      62.48474	      56.38123	      59.12781
       0.07864	      48.44666	      51.34583	      64.16321	      62.63733
       0.09175	      53.78723	      56.76270	      64.54468	      61.11145
       0.10486	      61.64551	      53.10059	      56.38123	      54.93164
       0.11796	      48.75183	      49.74365	      52.94800	      56.07605
       0.13107	      54.93164	      62.25586	      57.90710	      59.73816
       0.14418	      48.75183	      68.13049	      57.52563	      61.41663
       0.15729	      51.19324	      64.92615	      62.10327	      53.32947
       0.17039	      52.64282	      56.99158	      51.57471	      53.78723
       0.18350	      55.77087	      50.65918	      52.56653	      52.71912
       0.19661	      51.11694	      62.25586	      55.23682	      55.46570
       0.20972	      55.54199	      52.03247	      67.90161	      59.66187
       0.22282	      50.73547	      50.04883	      52.41394	      68.96973
       0.23593	      57.90710	      58.89893	      56.91528	      52.79541
       0.24904	      53.63464	      65.99426	      58.05969	      46.15784
       0.26214	      56.91528	      58.89893	      57.60193	      54.01611
       0.27525	      54.55017	      55.46570	      57.60193	      54.01611
       0.28836	      58.36487	      66.90979	      67.90161	      58.89893
       0.30147	      51.26953	      60.80627	      54.85535	      63.24768
       0.31457	      55.84717	      61.72180	      63.85803	      53.17688
       0.32768	      66.52832	      48.67554	      55.31311	      57.22046
       0.34079	      54.77905	      52.64282	      50.04883	      59.58557
       0.35389	      59.81445	      58.21228	      61.49292	      54.47388
       0.36700	      59.28040	      57.37305	      58.97522	      53.10059
       0.38011	      61.34033	      46.69189	      62.10327	      55.54199
       0.39322	      51.42212	      54.85535	      55.46570	      57.98340
       0.40632	      48.98071	      51.87988	      57.37305	      50.27771
       0.41943	      60.42480	      62.25586	      59.89075	      67.82532
       0.43254	      57.67822	      55.99976	      47.60742	      50.27771
       0.44564	      59.50928	      64.92615	      53.93982	      62.56104
       0.45875	      60.88257	      65.46021	      49.13330	      47.53113
       0.47186	      51.34583	      58.05969	      63.40027	      53.10059
       0.48497	      52.33765	      58.74634	      62.94250	      58.21228
       0.49807	      54.47388	      57.06787	      58.13599	      54.01611
       0.51118	      61.56921	      57.60193	      59.81445	      65.38391
       0.52429	      54.01611	      60.50110	      52.26135	      54.70276
       0.53740	      55.08423	      62.10327	      56.83899	      54.70276
       0.55050	      55.61829	      62.56104	      54.77905	      51.49841
       0.56361	      55.92346	      61.34033	      60.88257	      54.39758
       0.57672	      56.91528	      61.34033	      61.72180	      63.55286
       0.58982	      56.22864	      58.44116	      55.54199	      50.81177
       0.60293	      55.00793	      55.77087	      61.03516	      53.71094
       0.61604	      55.31311	      57.52563	      59.28040	      54.93164
       0.62915	      58.89893	      54.32129	      61.03516	      58.59375
       0.64225	      54.85535	      57.75452	      54.62646	      50.20142
       0.65536	      57.37305	      59.58557	      60.57739	      54.85535
       0.66847	      62.33215	      59.66187	      56.61011	      54.32129
       0.68157	      51.49841	      57.37305	      53.17688	      53.55835
       0.69468	      58.74634	      56.61011	      56.99158	      55.38940
       0.70779	      59.20410	      59.05151	      49.05701	      48.06519
       0.72090	      53.86353	      59.35669	      58.67004	      58.21228
       0.73400	      50.88806	      58.21228	      52.10876	      55.38940
       0.74711	      56.61011	      53.32947	      59.05151	      51.87988
