ALV-7004/USB-FAST
Date :	"11/11/2025"
Time :	"3:58:43 PM"
Samplename : 	""
SampMemo(0) : 	""
SampMemo(1) : 	""
SampMemo(2) : 	""
SampMemo(3) : 	""
SampMemo(4) : 	""
SampMemo(5) : 	""
SampMemo(6) : 	""
SampMemo(7) : 	""
SampMemo(8) : 	""
SampMemo(9) : 	""
Temperature [K] :	     298.16000
Viscosity [cp]  :	       0.89000
Refractive Index:	       1.33200
Wavelength [nm] :	       0.00000
Angle [°]       :	       0.00000
Duration [s]    :	         1
FloatDur [ms]   :	          944
Stop TP [ms]   :	     68135
Runs            :	         1
Mode            :	"A-CH0+1  A-CH2+3 "
MeanCR0 [kHz]   :	      56.50202
MeanCR1 [kHz]   :	      58.65415
MeanCR2 [kHz]   :	      57.39742
MeanCR3 [kHz]   :	      56.54229

"Correlation"
  3.12500E-006	 -1.00000E+000	 -1.00000E+000	 -1.00000E+000	 -1.00000E+000
  6.25000E-006	 -1.00000E+000	 -1.00000E+000	 -1.00000E+000	 -1.00000E+000
  9.37500E-006	 -1.00000E+000	 -1.00000E+000	 -1.00000E+000	 -1.00000E+000
  1.25000E-005	 -1.00000E+000	 -1.00000E+000	 -1.00000E+000	 -1.00000E+000
  1.56250E-005	 -1.00000E+000	 -1.00000E+000	 -1.00000E+000	 -1.00000E+000
  1.87500E-005	 -1.00000E+000	 -1.00000E+000	 -1.00000E+000	 -1.00000E+000
  2.18750E-005	 -7.87573E-001	 -1.12941E-001	  6.46807E-001	 -7.87876E-001
  2.50000E-005	  1.36575E+001	  1.23059E+001	  1.24832E+001	  2.72126E+001
  2.81250E-005	  2.29262E+000	  1.26693E+000	  1.57314E+000	  7.48498E+000
  3.12500E-005	  1.44291E+000	  2.15399E+000	  6.46807E-001	  3.87886E+000
  3.43750E-005	  1.23048E+000	  1.36549E+000	  1.16143E+000	  5.04555E+000
  3.75000E-005	  2.74561E-001	  1.06980E+000	  1.16143E+000	  3.77280E+000
  4.06250E-005	  3.80775E-001	  1.46405E+000	  5.43882E-001	  3.87886E+000
  4.37500E-005	  6.99415E-001	  7.74118E-001	  4.40956E-001	  2.50005E+000
  4.68750E-005	  1.12427E+000	  4.78432E-001	  4.40956E-001	  2.50005E+000
  5.00000E-005	  1.49602E+000	  5.27713E-001	  8.01195E-001	  2.39399E+000
  5.62500E-005	  1.01806E+000	  5.76994E-001	  5.95345E-001	  1.54549E+000
  6.25000E-005	  8.58735E-001	  9.21961E-001	  6.98270E-001	  1.38640E+000
  6.87500E-005	  8.58735E-001	  3.79870E-001	  6.98270E-001	  1.12124E+000
  7.50000E-005	  6.46308E-001	  5.76994E-001	  4.40956E-001	  1.38640E+000
  8.12500E-005	  7.52522E-001	  5.76994E-001	  9.55584E-001	  1.59852E+000
  8.75000E-005	  4.33881E-001	  6.75556E-001	  3.38031E-001	  9.62151E-001
  9.37500E-005	  2.21455E-001	  8.72680E-001	  5.95345E-001	  1.28034E+000
  1.00000E-004	  3.80775E-001	  8.97321E-001	  7.49732E-001	  8.56089E-001
  1.12500E-004	  5.40095E-001	  8.23399E-001	  9.81315E-001	  6.70480E-001
  1.25000E-004	  7.52522E-001	  9.71242E-001	  3.38031E-001	  7.76542E-001
  1.37500E-004	  5.66648E-001	  4.53791E-001	  2.09374E-001	  1.14776E+000
  1.50000E-004	  6.72862E-001	  5.76994E-001	  5.69613E-001	  5.37902E-001
  1.62500E-004	  5.93202E-001	  5.27713E-001	  3.89493E-001	  7.23511E-001
  1.75000E-004	  5.66648E-001	  3.55229E-001	  5.69613E-001	  7.23511E-001
  1.87500E-004	  5.40095E-001	  5.03072E-001	  5.69613E-001	  5.90933E-001
  2.00000E-004	  4.86988E-001	  4.53791E-001	  3.50896E-001	  8.29573E-001
  2.25000E-004	  7.92351E-001	  6.01634E-001	  5.69613E-001	  3.39035E-001
  2.50000E-004	  3.67498E-001	  5.64673E-001	  6.08210E-001	  5.11386E-001
  2.75000E-004	  6.33031E-001	  2.93627E-001	  4.40956E-001	  6.96995E-001
  3.00000E-004	  5.13541E-001	  5.76993E-001	  4.15225E-001	  7.10253E-001
  3.25000E-004	  5.66648E-001	  2.93627E-001	  6.72538E-001	  4.31840E-001
  3.50000E-004	  3.67498E-001	  4.41471E-001	  3.38030E-001	  1.79942E-001
  3.75000E-004	  5.66648E-001	  5.27712E-001	  3.76628E-001	  6.70479E-001
  4.00000E-004	  5.99839E-001	  5.03071E-001	  3.63761E-001	  4.05323E-001
  4.50000E-004	  5.06902E-001	  4.10669E-001	  5.95343E-001	  3.78808E-001
  5.00000E-004	  7.06052E-001	  6.01633E-001	  3.38030E-001	  3.65550E-001
  5.50000E-004	  4.20604E-001	  6.75555E-001	  4.15224E-001	  4.78241E-001
  6.00000E-004	  3.34305E-001	  6.26274E-001	  3.76627E-001	  4.51726E-001
  6.50000E-004	  4.27242E-001	  5.83153E-001	  4.66687E-001	  5.31272E-001
  7.00000E-004	  5.46732E-001	  4.66110E-001	  6.21075E-001	  5.77674E-001
  7.50000E-004	  5.60009E-001	  3.98349E-001	  4.02358E-001	  4.18581E-001
  8.00000E-004	  4.47156E-001	  4.93830E-001	  4.66685E-001	  5.57786E-001
  9.00000E-004	  5.23497E-001	  3.95268E-001	  4.98850E-001	  4.81554E-001
  1.00000E-003	  4.07326E-001	  4.75349E-001	  5.31014E-001	  4.78240E-001
  1.10000E-003	  5.06901E-001	  6.35513E-001	  4.95633E-001	  6.00874E-001
  1.20000E-003	  4.90305E-001	  5.15390E-001	  4.50603E-001	  3.72178E-001
  1.30000E-003	  5.40093E-001	  4.99990E-001	  4.24872E-001	  5.01441E-001
  1.40000E-003	  4.70390E-001	  4.99990E-001	  4.66685E-001	  4.18580E-001
  1.50000E-003	  5.33454E-001	  5.18470E-001	  4.18439E-001	  3.52291E-001
  1.60000E-003	  4.93622E-001	  4.49166E-001	  5.18145E-001	  4.89838E-001
  1.80000E-003	  3.99026E-001	  3.72165E-001	  4.07179E-001	  4.99781E-001
  2.00000E-003	  4.30558E-001	  4.78427E-001	  4.55425E-001	  5.16353E-001
  2.20000E-003	  4.62090E-001	  4.90747E-001	  5.40660E-001	  4.84866E-001
  2.40000E-003	  4.58770E-001	  4.38386E-001	  5.06888E-001	  4.68294E-001
  2.60000E-003	  4.43834E-001	  4.84587E-001	  4.94022E-001	  5.34583E-001
  2.80000E-003	  4.13962E-001	  4.19906E-001	  3.70191E-001	  4.41779E-001
  3.00000E-003	  5.81579E-001	  3.96831E-001	  3.95922E-001	  3.87090E-001
  3.20000E-003	  4.91957E-001	  4.15332E-001	  4.32906E-001	  4.74918E-001
  3.60000E-003	  5.16851E-001	  4.21492E-001	  4.57833E-001	  4.31002E-001
  4.00000E-003	  4.08978E-001	  4.14562E-001	  4.52204E-001	  4.02001E-001
  4.40000E-003	  4.77021E-001	  3.79140E-001	  4.06370E-001	  4.05315E-001
  4.80000E-003	  3.70808E-001	  4.47700E-001	  3.85464E-001	  4.08629E-001
  5.20000E-003	  4.23085E-001	  4.03807E-001	  4.61049E-001	  4.50060E-001
  5.60000E-003	  4.19766E-001	  3.89946E-001	  4.50596E-001	  4.13601E-001
  6.00000E-003	  3.50893E-001	  3.66844E-001	  4.53008E-001	  3.99515E-001
  6.40000E-003	  3.88639E-001	  3.92272E-001	  4.20835E-001	  4.24363E-001
  7.20000E-003	  4.09799E-001	  4.18865E-001	  3.93897E-001	  3.92877E-001
  8.00000E-003	  4.16852E-001	  4.12319E-001	  3.70579E-001	  3.28660E-001
  8.80000E-003	  4.13533E-001	  3.70350E-001	  3.48868E-001	  4.04477E-001
  9.60000E-003	  3.81197E-001	  4.10779E-001	  3.85052E-001	  3.58490E-001
  1.04000E-002	  3.72484E-001	  3.95377E-001	  3.97114E-001	  3.84591E-001
  1.12000E-002	  3.67505E-001	  3.64189E-001	  3.72187E-001	  3.88734E-001
  1.20000E-002	  3.95718E-001	  3.49173E-001	  3.40827E-001	  3.87905E-001
  1.28000E-002	  3.88024E-001	  3.65183E-001	  3.57896E-001	  3.84831E-001
  1.44000E-002	  3.88024E-001	  3.92136E-001	  3.61313E-001	  3.25584E-001
  1.60000E-002	  4.02130E-001	  3.63257E-001	  3.36588E-001	  3.43814E-001
  1.76000E-002	  3.61886E-001	  3.25547E-001	  3.59705E-001	  3.26620E-001
  1.92000E-002	  3.70417E-001	  3.68480E-001	  3.25732E-001	  3.58522E-001
  2.08000E-002	  3.63778E-001	  3.13441E-001	  3.40407E-001	  3.17298E-001
  2.24000E-002	  3.48634E-001	  3.33513E-001	  3.60710E-001	  3.18127E-001
  2.40000E-002	  3.20629E-001	  3.46798E-001	  2.84523E-001	  3.17091E-001
  2.56000E-002	  3.17659E-001	  3.18338E-001	  2.92629E-001	  2.87999E-001
  2.88000E-002	  3.31974E-001	  2.97374E-001	  3.07706E-001	  2.76733E-001
  3.20000E-002	  2.92453E-001	  2.90346E-001	  2.57150E-001	  2.76733E-001
  3.52000E-002	  3.20563E-001	  2.72054E-001	  2.66196E-001	  2.68503E-001
  3.84000E-002	  2.64989E-001	  2.39322E-001	  2.48731E-001	  2.40951E-001
  4.16000E-002	  2.59076E-001	  2.42861E-001	  2.62098E-001	  2.62519E-001
  4.48000E-002	  2.56921E-001	  2.29383E-001	  2.25814E-001	  2.32999E-001
  4.80000E-002	  2.51424E-001	  2.32101E-001	  2.23704E-001	  2.25541E-001
  5.12000E-002	  2.36685E-001	  2.23555E-001	  2.11622E-001	  2.26481E-001
  5.76000E-002	  2.28957E-001	  2.10199E-001	  1.83731E-001	  2.03691E-001
  6.40000E-002	  1.92151E-001	  1.68080E-001	  1.87952E-001	  1.80124E-001
  7.04000E-002	  1.82992E-001	  1.66684E-001	  1.62473E-001	  1.64430E-001
  7.68000E-002	  1.73322E-001	  1.50008E-001	  1.54232E-001	  1.52879E-001
  8.32000E-002	  1.62481E-001	  1.47023E-001	  1.24180E-001	  1.46871E-001
  8.96000E-002	  1.57004E-001	  1.37369E-001	  1.20783E-001	  1.20775E-001
  9.60000E-002	  1.30809E-001	  1.37829E-001	  1.10582E-001	  1.24090E-001
  1.02400E-001	  1.18905E-001	  1.09417E-001	  1.14467E-001	  1.13157E-001
  1.15200E-001	  9.78999E-002	  9.18226E-002	  9.81856E-002	  8.86452E-002
  1.28000E-001	  8.50456E-002	  8.56609E-002	  7.93211E-002	  8.55373E-002
  1.40800E-001	  7.22727E-002	  7.27358E-002	  5.53262E-002	  6.62224E-002
  1.53600E-001	  6.84798E-002	  5.01831E-002	  6.01699E-002	  6.55668E-002
  1.66400E-001	  5.76174E-002	  5.19452E-002	  4.67216E-002	  4.58849E-002
  1.79200E-001	  4.67688E-002	  4.59332E-002	  4.70482E-002	  3.97927E-002
  1.92000E-001	  3.76577E-002	  3.68247E-002	  3.09421E-002	  3.22955E-002
  2.04800E-001	  3.17181E-002	  3.02045E-002	  2.77316E-002	  3.30865E-002
  2.30400E-001	  2.40510E-002	  2.68639E-002	  2.82155E-002	  2.08492E-002
  2.56000E-001	  1.12018E-002	  1.60363E-002	  1.67307E-002	  1.50279E-002
  2.81600E-001	  9.17309E-003	  1.57050E-002	  1.73779E-002	  6.65524E-003
  3.07200E-001	 -3.81525E-004	  1.88760E-002	  1.02470E-002	  7.58064E-003
  3.32800E-001	 -1.84593E-003	  1.06078E-002	  4.95749E-003	  7.58172E-003
  3.58400E-001	 -4.50671E-003	  1.56024E-002	  1.19813E-002	  8.49029E-003
  3.84000E-001	  8.36882E-003	  6.84053E-003	  6.76685E-003	 -2.34799E-003
  4.09600E-001	 -9.49776E-004	  4.47152E-003	 -2.00455E-003	 -2.56412E-003
  4.60800E-001	 -6.62481E-003	  7.68551E-003	  3.84833E-003	  8.23011E-004
  5.12000E-001	 -3.49177E-003	  5.51827E-003	  9.11331E-003	  4.38577E-003
  5.63200E-001	  3.19641E-003	  1.00138E-002	  1.08600E-003	  3.11800E-003
  6.14400E-001	  6.80215E-004	  8.91860E-003	  2.73718E-003	  7.68400E-003
  6.65600E-001	  2.07586E-003	  3.65762E-004	  8.46335E-003	  1.56452E-002
  7.16800E-001	  8.80570E-003	 -6.44154E-003	  4.48963E-003	  1.47501E-002
  7.68000E-001	  7.82659E-003	 -8.77096E-003	  1.02047E-002	  1.23724E-002
  8.19200E-001	  2.09169E-003	 -6.60046E-003	  4.59026E-003	  9.92929E-003
  9.21600E-001	  4.30121E-003	 -6.75095E-003	 -2.03638E-003	  6.61170E-003
  1.02400E+000	  8.35157E-003	 -9.26278E-003	 -3.84519E-003	  4.13896E-003
  1.12640E+000	  2.83496E-003	 -2.74521E-003	 -3.30219E-003	 -3.26223E-005
  1.22880E+000	  5.86091E-003	  5.19514E-004	  3.68752E-003	 -1.23097E-003
  1.33120E+000	 -2.46782E-003	 -2.70599E-003	  1.04139E-002	  1.87069E-004
  1.43360E+000	 -2.31130E-003	 -6.10624E-003	  6.88513E-003	  9.25291E-003
  1.53600E+000	  3.06730E-003	  9.92216E-004	  1.02944E-002	 -2.81709E-003
  1.63840E+000	  4.92370E-004	 -5.31261E-003	  5.99807E-003	 -5.22999E-003
  1.84320E+000	 -4.99795E-003	 -3.53456E-003	 -3.59734E-003	 -2.64796E-003
  2.04800E+000	 -7.51441E-003	  2.14852E-003	 -1.64585E-003	 -1.99373E-003
  2.25280E+000	 -3.99856E-003	 -3.05048E-003	 -4.09345E-003	 -1.54089E-003
  2.45760E+000	  3.42764E-003	 -3.59296E-003	 -6.79010E-004	  3.84152E-004
  2.66240E+000	 -2.32885E-003	 -3.40786E-003	  1.12661E-003	 -3.46330E-003
  2.86720E+000	 -6.48011E-003	 -4.51321E-003	 -1.58020E-003	 -4.99179E-003
  3.07200E+000	  4.89425E-003	 -2.07991E-003	 -3.21473E-003	 -6.15754E-004
  3.27680E+000	 -1.91355E-003	  2.46982E-003	 -6.43162E-003	  3.53832E-003
  3.68640E+000	  2.47557E-003	 -2.25739E-003	 -2.48822E-003	 -3.06017E-003
  4.09600E+000	  5.83697E-004	 -1.66759E-003	 -6.69481E-003	  3.16523E-003
  4.50560E+000	 -3.08360E-003	  6.14073E-004	 -4.54938E-003	  1.39378E-003
  4.91520E+000	 -1.60021E-003	  8.13348E-004	  2.27866E-003	 -4.24469E-003
  5.32480E+000	  2.18205E-003	  8.81059E-003	  6.26936E-003	  1.86945E-003
  5.73440E+000	  1.88597E-003	  5.45978E-003	  2.36817E-004	  4.24838E-003
  6.14400E+000	  4.35229E-003	 -3.10231E-003	  4.55234E-003	  4.57868E-003
  6.55360E+000	  3.45308E-003	 -3.39445E-003	 -1.66633E-004	 -5.44790E-004
  7.37280E+000	  2.42748E-003	 -1.30108E-003	 -4.29527E-003	 -3.35669E-003
  8.19200E+000	  1.20197E-003	 -1.10393E-003	 -3.91392E-003	 -6.16898E-005
  9.01120E+000	 -3.72743E-003	  7.09142E-004	  1.46236E-003	  2.49824E-003
  9.83040E+000	  4.16895E-004	  3.24214E-003	  6.07631E-003	 -1.42585E-003
  1.06496E+001	  4.42455E-003	 -2.61517E-003	  2.69425E-003	 -5.30726E-004
  1.14688E+001	 -2.72201E-003	  2.28069E-003	  2.91153E-003	 -6.82268E-004
  1.22880E+001	  1.62600E-003	 -2.05397E-003	 -3.02355E-004	 -2.36062E-003
  1.31072E+001	  2.21774E-003	 -6.83993E-004	 -1.03240E-004	 -3.31999E-003
  1.47456E+001	 -4.29108E-003	 -5.83674E-003	 -1.39822E-003	  1.51439E-003
  1.63840E+001	 -3.61606E-003	  5.08973E-004	  3.08028E-003	 -2.35636E-004
  1.80224E+001	  2.27640E-004	  3.12298E-004	  2.63716E-003	  2.01280E-003
  1.96608E+001	  1.95290E-003	 -1.74343E-003	  2.22488E-004	  8.11107E-004
  2.12992E+001	 -4.05713E-003	  2.90535E-003	  3.35301E-003	 -7.68843E-004
  2.29376E+001	  1.11085E-003	 -2.41961E-003	  9.87506E-004	 -2.09938E-004
  2.45760E+001	  3.51157E-003	  5.23222E-004	 -6.94397E-004	 -4.17511E-004
  2.62144E+001	  4.99296E-004	  1.15043E-003	 -2.96800E-004	 -2.45200E-004
  2.94912E+001	 -1.46782E-003	  2.76126E-003	 -1.23590E-003	 -3.04331E-004
  3.27680E+001	  1.60572E-003	 -1.51464E-003	  1.04797E-004	  6.89253E-004
  3.60448E+001	 -1.21016E-003	 -8.51372E-004	 -1.13988E-003	  1.74353E-003
  3.93216E+001	  4.51030E-004	 -1.34648E-003	  1.21447E-003	 -2.78498E-003
  4.25984E+001	 -1.36991E-003	  6.19115E-004	 -1.37301E-003	 -1.11807E-003
  4.58752E+001	 -8.22826E-004	  1.04343E-003	 -1.95694E-003	  2.95331E-004
  4.91520E+001	  1.23252E-003	  5.62720E-004	 -3.97181E-004	  2.43358E-004
  5.24288E+001	  9.07470E-004	  8.06070E-004	 -1.09516E-003	  1.38232E-003
  5.89824E+001	  1.41325E-003	  1.81417E-003	 -4.24140E-004	  4.87965E-004
  6.55360E+001	  2.07584E-005	 -2.20199E-003	 -1.33042E-003	  1.84347E-004
  7.20896E+001	 -1.86380E-003	 -1.12285E-003	  1.36118E-003	  8.36836E-005
  7.86432E+001	 -1.56556E-003	  2.28480E-004	  7.09995E-004	 -2.39284E-004
  8.51968E+001	  2.63297E-004	 -8.18548E-004	 -6.21999E-004	  8.44433E-004
  9.17504E+001	 -3.11212E-003	 -2.55767E-005	  1.64444E-003	 -2.64559E-004
  9.83040E+001	  5.54676E-005	 -1.94296E-006	 -1.07374E-003	 -3.56378E-005
  1.04858E+002	  1.49344E-003	 -5.07482E-004	 -1.11217E-004	  4.49975E-004
  1.17965E+002	 -4.79737E-004	  8.93171E-004	 -5.26426E-004	 -1.10090E-003
  1.31072E+002	 -5.01751E-004	 -6.79361E-004	 -1.40795E-003	 -5.23760E-004
  1.44179E+002	  1.89279E-005	 -3.45857E-004	 -1.48592E-004	 -1.58466E-004
  1.57286E+002	  6.80078E-004	 -3.68521E-004	 -6.83856E-004	 -6.01001E-004
  1.70394E+002	  6.85346E-004	  1.36839E-004	 -5.63964E-004	  7.25346E-004
  1.83501E+002	 -6.48850E-004	 -6.78233E-005	 -7.57979E-005	  3.44888E-005
  1.96608E+002	 -4.00673E-004	 -1.44912E-003	 -5.45758E-004	 -3.39008E-004
  2.09715E+002	 -1.21429E-003	 -1.51867E-003	 -6.22914E-004	 -7.73548E-004
  2.35930E+002	 -2.03728E-004	  6.89719E-004	  6.48942E-004	 -2.95268E-004
  2.62144E+002	 -9.88886E-004	  3.83387E-004	  7.98458E-004	 -4.51437E-004
  2.88358E+002	  1.56634E-004	  2.80623E-004	 -1.58278E-004	  8.98082E-004
  3.14573E+002	 -1.46198E-003	  8.24570E-004	  1.25577E-004	 -1.84988E-004
  3.40787E+002	  1.64766E-003	 -7.35773E-005	  1.68486E-006	  8.91052E-004
  3.67002E+002	  3.10476E-004	 -2.54547E-004	  2.96780E-004	  7.20089E-004
  3.93216E+002	  5.02954E-004	 -3.32915E-004	  7.72603E-004	  1.68764E-004

"Count Rate"
       0.01311	      56.68640	      64.23950	      51.72729	      55.00793
       0.02621	      56.99158	      62.56104	      52.94800	      59.28040
       0.03932	      55.23682	      53.32947	      55.61829	      56.07605
       0.05243	      54.85535	      59.05151	      63.93433	      57.44934
       0.06554	      56.76270	      61.56921	      59.20410	      47.76001
       0.07864	      54.16870	      54.70276	      53.55835	      61.64551
       0.09175	      61.64551	      53.02429	      63.32397	      50.43030
       0.10486	      53.78723	      62.10327	      51.57471	      52.41394
       0.11796	      62.94250	      54.85535	      55.92346	      51.65100
       0.13107	      50.58289	      60.04333	      58.21228	      58.51746
       0.14418	      56.15234	      55.23682	      55.23682	      47.91260
       0.15729	      60.72998	      58.28857	      53.17688	      55.92346
       0.17039	      55.38940	      59.43298	      58.67004	      54.70276
       0.18350	      48.98071	      52.64282	      52.71912	      49.36218
       0.19661	      53.40576	      57.98340	      46.46301	      51.87988
       0.20972	      56.99158	      52.41394	      47.14966	      51.42212
       0.22282	      60.80627	      57.60193	      45.08972	      55.92346
       0.23593	      51.87988	      62.33215	      59.43298	      54.62646
       0.24904	      47.37854	      60.27222	      50.73547	      63.47656
       0.26214	      65.99426	      59.89075	      59.50928	      55.61829
       0.27525	      54.85535	      57.14417	      60.88257	      50.65918
       0.28836	      55.69458	      62.71362	      53.10059	      51.95618
       0.30147	      58.51746	      52.18506	      64.08691	      63.17139
       0.31457	      53.86353	      62.63733	      62.48474	      55.99976
       0.32768	      56.15234	      54.24500	      58.97522	      61.41663
       0.34079	      50.50659	      54.01611	      54.01611	      53.48206
       0.35389	      53.25317	      49.74365	      52.56653	      62.02698
       0.36700	      53.40576	      58.51746	      55.77087	      52.33765
       0.38011	      57.90710	      48.52295	      62.71362	      55.69458
       0.39322	      55.31311	      58.21228	      59.20410	      58.51746
       0.40632	      51.57471	      53.40576	      57.52563	      51.04065
       0.41943	      60.19592	      61.26404	      58.21228	      56.45752
       0.43254	      63.85803	      60.42480	      54.32129	      64.46838
       0.44564	      60.88257	      56.45752	      53.48206	      53.63464
       0.45875	      54.39758	      56.99158	      52.79541	      53.02429
       0.47186	      56.83899	      53.55835	      60.88257	      50.12512
       0.48497	      76.59912	      66.52832	      54.16870	      50.27771
       0.49807	      62.71362	      63.01880	      61.56921	      59.66187
       0.51118	      52.10876	      56.76270	      52.03247	      51.49841
       0.52429	      51.49841	      53.71094	      52.41394	      51.42212
       0.53740	      48.44666	      60.04333	      55.16052	      62.10327
       0.55050	      53.55835	      60.27222	      59.28040	      48.82813
       0.56361	      55.16052	      60.50110	      59.20410	      47.60742
       0.57672	      56.83899	      66.52832	      64.01062	      57.44934
       0.58982	      62.56104	      51.95618	      51.26953	      63.70544
       0.60293	      55.54199	      63.78174	      51.34583	      60.88257
       0.61604	      55.08423	      57.29675	      55.16052	      54.24500
       0.62915	      62.40845	      49.13330	      57.37305	      53.02429
       0.64225	      52.03247	      54.16870	      60.19592	      56.91528
       0.65536	      54.24500	      54.32129	      63.01880	      54.47388
       0.66847	      51.04065	      58.51746	      57.29675	      54.24500
       0.68157	      56.15234	      58.36487	      61.56921	      53.40576
       0.69468	      47.45483	      52.49023	      59.58557	      57.44934
       0.70779	      57.67822	      58.21228	      50.04883	      55.00793
       0.72090	      52.03247	      62.86621	      54.01611	      57.14417
       0.73400	      59.73816	      57.75452	      60.65369	      60.57739
       0.74711	      53.40576	      51.04065	      56.99158	      53.32947
