ALV-7004/USB-FAST
Date :	"11/11/2025"
Time :	"3:57:34 PM"
Samplename : 	""
SampMemo(0) : 	""
SampMemo(1) : 	""
SampMemo(2) : 	""
SampMemo(3) : 	""
SampMemo(4) : 	""
SampMemo(5) : 	""
SampMemo(6) : 	""
SampMemo(7) : 	""
SampMemo(8) : 	""
SampMemo(9) : 	""
Temperature [K] :	     298.16000
Viscosity [cp]  :	       0.89000
Refractive Index:	       1.33200
Wavelength [nm] :	       0.00000
Angle [°]       :	       0.00000
Duration [s]    :	         1
FloatDur [ms]   :	          944
Stop TP [ms]   :	     67834
Runs            :	         1
Mode            :	"A-CH0+1  A-CH2+3 "
MeanCR0 [kHz]   :	      49.87293
MeanCR1 [kHz]   :	      52.18718
MeanCR2 [kHz]   :	      51.51325
MeanCR3 [kHz]   :	      49.52219

"Correlation"
  3.12500E-006	 -1.00000E+000	 -1.00000E+000	 -1.00000E+000	 -1.00000E+000
  6.25000E-006	 -1.00000E+000	 -1.00000E+000	 -1.00000E+000	 -1.00000E+000
  9.37500E-006	 -1.00000E+000	 -1.00000E+000	 -1.00000E+000	 -1.00000E+000
  1.25000E-005	 -1.00000E+000	 -1.00000E+000	 -1.00000E+000	 -1.00000E+000
  1.56250E-005	 -1.00000E+000	 -1.00000E+000	 -1.00000E+000	 -1.00000E+000
  1.87500E-005	 -1.00000E+000	 -1.00000E+000	 -1.00000E+000	 -1.00000E+000
  2.18750E-005	 -8.63674E-001	  6.18539E-001	  5.33384E-001	 -5.85209E-001
  2.50000E-005	  1.45411E+001	  1.36914E+001	  1.25449E+001	  2.84501E+001
  2.81250E-005	  3.77140E+000	  1.86357E+000	  1.93899E+000	  8.40193E+000
  3.12500E-005	  1.45386E+000	  6.18539E-001	  1.30008E+000	  3.97749E+000
  3.43750E-005	  1.31754E+000	  1.20527E-001	  1.55564E+000	  4.66881E+000
  3.75000E-005	  1.59019E+000	  1.49006E+000	  4.05602E-001	  3.42444E+000
  4.06250E-005	  9.08560E-001	  1.86357E+000	  1.42786E+000	  3.97749E+000
  4.37500E-005	  1.31754E+000	  2.45030E-001	  1.50038E-001	  3.14791E+000
  4.68750E-005	  9.06058E-002	  3.69533E-001	  6.61166E-001	  2.87138E+000
  5.00000E-005	  8.40397E-001	  8.67545E-001	  1.17229E+000	  1.97267E+000
  5.62500E-005	  7.72234E-001	  7.43042E-001	  5.97275E-001	  1.62701E+000
  6.25000E-005	  7.72234E-001	  7.43042E-001	  7.88948E-001	  1.28135E+000
  6.87500E-005	  6.35909E-001	  7.43042E-001	  6.61166E-001	  1.35048E+000
  7.50000E-005	  1.58769E-001	  7.43042E-001	  1.10840E+000	  1.28135E+000
  8.12500E-005	  8.40397E-001	  8.05294E-001	  6.61166E-001	  1.00482E+000
  8.75000E-005	  7.04071E-001	  8.05294E-001	  9.80621E-001	  1.48874E+000
  9.37500E-005	  4.31420E-001	  2.45030E-001	  1.04451E+000	  8.66559E-001
  1.00000E-004	  3.97338E-001	  4.62910E-001	  8.20893E-001	  1.14309E+000
  1.12500E-004	  6.35908E-001	  4.62910E-001	  3.73656E-001	  9.70256E-001
  1.25000E-004	  5.67746E-001	  4.31785E-001	  5.65329E-001	  4.86334E-001
  1.37500E-004	  7.72234E-001	  5.25162E-001	  6.29220E-001	  5.55465E-001
  1.50000E-004	  8.06315E-001	  8.05294E-001	  5.65329E-001	  5.20899E-001
  1.62500E-004	  6.01827E-001	  8.36419E-001	  6.29220E-001	  3.13504E-001
  1.75000E-004	  3.29176E-001	  4.62910E-001	  4.05602E-001	  4.86334E-001
  1.87500E-004	  4.99583E-001	  5.87413E-001	  5.65329E-001	  1.75240E-001
  2.00000E-004	  6.87030E-001	  4.16221E-001	  6.29220E-001	  3.99918E-001
  2.25000E-004	  3.80297E-001	  6.80790E-001	  4.21574E-001	  5.38182E-001
  2.50000E-004	  3.29175E-001	  2.91718E-001	  4.69492E-001	  8.14709E-001
  2.75000E-004	  2.78053E-001	  3.22844E-001	  5.33383E-001	  5.38182E-001
  3.00000E-004	  2.26931E-001	  7.11916E-001	  4.69492E-001	  5.72748E-001
  3.25000E-004	  5.84786E-001	  5.40724E-001	  3.57683E-001	  7.11012E-001
  3.50000E-004	  7.72234E-001	  5.40724E-001	  4.05601E-001	  6.76446E-001
  3.75000E-004	  3.97338E-001	  3.85096E-001	  5.33383E-001	  5.55465E-001
  4.00000E-004	  2.69532E-001	  5.09598E-001	  6.93110E-001	  7.28294E-001
  4.50000E-004	  5.67744E-001	  3.92877E-001	  5.81301E-001	  5.03616E-001
  5.00000E-004	  5.08102E-001	  4.86254E-001	  6.05260E-001	  5.72747E-001
  5.50000E-004	  4.91061E-001	  5.25161E-001	  6.93110E-001	  5.46823E-001
  6.00000E-004	  5.59224E-001	  4.86254E-001	  7.33042E-001	  5.55464E-001
  6.50000E-004	  4.65500E-001	  7.11915E-001	  5.65328E-001	  4.60408E-001
  7.00000E-004	  5.16622E-001	  4.47347E-001	  6.05260E-001	  4.51767E-001
  7.50000E-004	  4.48460E-001	  4.24002E-001	  3.81642E-001	  4.08559E-001
  8.00000E-004	  4.78280E-001	  5.79630E-001	  4.49525E-001	  4.47445E-001
  9.00000E-004	  5.54963E-001	  5.13487E-001	  4.53518E-001	  4.86331E-001
  1.00000E-003	  4.65499E-001	  4.43455E-001	  4.61504E-001	  4.56086E-001
  1.10000E-003	  5.42182E-001	  3.73422E-001	  4.93450E-001	  5.72746E-001
  1.20000E-003	  3.58995E-001	  4.47345E-001	  4.73484E-001	  5.68425E-001
  1.30000E-003	  3.80296E-001	  5.25160E-001	  5.29388E-001	  5.16576E-001
  1.40000E-003	  4.27158E-001	  4.43455E-001	  3.89627E-001	  6.33236E-001
  1.50000E-003	  3.24913E-001	  4.16220E-001	  4.21572E-001	  5.12256E-001
  1.60000E-003	  4.61236E-001	  4.62906E-001	  4.57509E-001	  4.45313E-001
  1.80000E-003	  5.25139E-001	  4.08436E-001	  4.77474E-001	  4.23709E-001
  2.00000E-003	  4.69757E-001	  3.87037E-001	  3.29727E-001	  3.89142E-001
  2.20000E-003	  4.91058E-001	  4.23999E-001	  4.31553E-001	  4.30190E-001
  2.40000E-003	  4.99578E-001	  4.76523E-001	  4.57509E-001	  4.19418E-001
  2.60000E-003	  4.22895E-001	  5.36829E-001	  5.19403E-001	  4.62627E-001
  2.80000E-003	  4.29285E-001	  4.27889E-001	  2.49863E-001	  3.45963E-001
  3.00000E-003	  4.65497E-001	  3.77310E-001	  4.61502E-001	  4.47504E-001
  3.20000E-003	  3.79224E-001	  4.38584E-001	  4.55537E-001	  3.97839E-001
  3.60000E-003	  4.28215E-001	  3.90923E-001	  4.69513E-001	  3.92438E-001
  4.00000E-003	  3.92004E-001	  3.52989E-001	  3.98633E-001	  4.35648E-001
  4.40000E-003	  3.95199E-001	  4.19130E-001	  3.92643E-001	  4.56172E-001
  4.80000E-003	  3.54728E-001	  3.18945E-001	  4.15605E-001	  3.64322E-001
  5.20000E-003	  3.48338E-001	  4.11349E-001	  4.32576E-001	  4.36697E-001
  5.60000E-003	  3.83484E-001	  3.79251E-001	  3.29750E-001	  4.26975E-001
  6.00000E-003	  3.56858E-001	  3.75360E-001	  3.93642E-001	  4.11852E-001
  6.40000E-003	  3.26495E-001	  4.18148E-001	  4.14626E-001	  3.95129E-001
  7.20000E-003	  3.76552E-001	  3.63192E-001	  3.95158E-001	  3.99990E-001
  8.00000E-003	  3.69096E-001	  3.46657E-001	  3.96656E-001	  3.75144E-001
  8.80000E-003	  3.34483E-001	  3.63192E-001	  3.79656E-001	  3.58941E-001
  9.60000E-003	  3.55784E-001	  3.43739E-001	  3.11272E-001	  4.09172E-001
  1.04000E-002	  3.19040E-001	  3.54925E-001	  3.11272E-001	  4.00530E-001
  1.12000E-002	  2.94544E-001	  3.30122E-001	  3.80654E-001	  3.30855E-001
  1.20000E-002	  3.03597E-001	  3.19909E-001	  3.76162E-001	  3.43277E-001
  1.28000E-002	  3.40056E-001	  3.22323E-001	  3.39012E-001	  3.41127E-001
  1.44000E-002	  3.19022E-001	  3.16487E-001	  3.18546E-001	  2.83874E-001
  1.60000E-002	  3.03313E-001	  2.72231E-001	  3.36766E-001	  3.12771E-001
  1.76000E-002	  3.09703E-001	  2.88280E-001	  3.31774E-001	  3.31405E-001
  1.92000E-002	  2.86273E-001	  2.98249E-001	  2.68130E-001	  2.84685E-001
  2.08000E-002	  2.77753E-001	  2.40133E-001	  2.87598E-001	  2.57408E-001
  2.24000E-002	  2.70564E-001	  2.68583E-001	  2.55875E-001	  2.84955E-001
  2.40000E-002	  2.31957E-001	  2.35027E-001	  2.77339E-001	  2.60352E-001
  2.56000E-002	  2.34612E-001	  2.58605E-001	  2.73863E-001	  2.50109E-001
  2.88000E-002	  2.23297E-001	  2.41219E-001	  2.47781E-001	  2.36741E-001
  3.20000E-002	  2.19968E-001	  2.25900E-001	  2.55144E-001	  2.14461E-001
  3.52000E-002	  1.67916E-001	  2.06933E-001	  2.20827E-001	  2.10546E-001
  3.84000E-002	  2.02662E-001	  1.86143E-001	  1.83739E-001	  1.86266E-001
  4.16000E-002	  1.58223E-001	  1.82982E-001	  2.00711E-001	  1.95448E-001
  4.48000E-002	  1.30665E-001	  1.43103E-001	  1.82616E-001	  1.76138E-001
  4.80000E-002	  1.49835E-001	  1.47845E-001	  1.77226E-001	  1.48996E-001
  5.12000E-002	  1.41641E-001	  1.47086E-001	  1.50944E-001	  1.32823E-001
  5.76000E-002	  1.15280E-001	  1.16287E-001	  1.58368E-001	  1.35051E-001
  6.40000E-002	  1.03630E-001	  1.21880E-001	  1.32601E-001	  1.08450E-001
  7.04000E-002	  8.68118E-002	  9.57163E-002	  1.07854E-001	  8.84449E-002
  7.68000E-002	  8.61231E-002	  8.02143E-002	  1.09374E-001	  7.26229E-002
  8.32000E-002	  6.69515E-002	  5.79466E-002	  9.14043E-002	  7.06650E-002
  8.96000E-002	  6.29574E-002	  5.13808E-002	  7.67195E-002	  5.61041E-002
  9.60000E-002	  3.70845E-002	  5.39342E-002	  6.05597E-002	  5.96826E-002
  1.02400E-001	  4.47598E-002	  3.92483E-002	  5.81196E-002	  4.02698E-002
  1.15200E-001	  3.46637E-002	  4.10939E-002	  3.27205E-002	  3.84131E-002
  1.28000E-001	  2.77510E-002	  2.58084E-002	  4.80099E-002	  4.49622E-002
  1.40800E-001	  2.78956E-002	  2.55252E-002	  2.74784E-002	  1.95638E-002
  1.53600E-001	  1.23967E-002	  3.57515E-002	  2.56999E-002	  1.36897E-002
  1.66400E-001	  3.10357E-002	  1.06354E-002	  2.13525E-002	  2.33431E-003
  1.79200E-001	  1.59698E-002	  1.45981E-002	  9.23510E-003	  6.68935E-003
  1.92000E-001	  8.38122E-003	  1.32602E-002	  1.65681E-002	  1.12807E-002
  2.04800E-001	  1.41043E-002	  8.53356E-003	  8.30248E-003	  1.36384E-002
  2.30400E-001	  4.28024E-003	  5.42530E-003	 -6.90235E-003	  8.18109E-003
  2.56000E-001	  4.01396E-003	  1.81079E-002	 -4.26408E-003	  1.38024E-002
  2.81600E-001	  8.99010E-003	  1.40969E-003	  4.38585E-003	  2.35425E-002
  3.07200E-001	  1.08212E-003	  1.01841E-002	  3.39233E-004	  6.70314E-003
  3.32800E-001	  1.88836E-003	 -1.85044E-003	  4.31837E-003	  2.48315E-003
  3.58400E-001	  5.22167E-003	 -5.52046E-003	  8.76564E-003	 -4.42074E-003
  3.84000E-001	 -1.42940E-003	 -1.13497E-002	  1.06017E-002	  5.74098E-003
  4.09600E-001	  9.24143E-004	 -1.10664E-002	  4.41020E-003	  4.24343E-003
  4.60800E-001	  1.01916E-004	 -1.15611E-002	  7.08730E-003	  2.58860E-003
  5.12000E-001	  6.29169E-003	 -1.05228E-002	  1.87303E-003	  1.03261E-002
  5.63200E-001	  9.29809E-004	 -6.89042E-003	 -1.65996E-003	  7.71256E-003
  6.14400E-001	  1.73937E-003	 -1.34821E-003	  4.06265E-004	  8.17786E-003
  6.65600E-001	 -5.65314E-004	  2.78609E-003	 -1.02405E-002	  1.80340E-003
  7.16800E-001	 -6.48024E-003	 -2.10139E-003	 -1.10195E-002	  8.48929E-003
  7.68000E-001	 -4.44366E-003	  2.76681E-003	 -1.40033E-002	  2.44049E-003
  8.19200E-001	 -2.74746E-003	 -2.25007E-003	 -2.99607E-003	  3.50594E-003
  9.21600E-001	 -6.31181E-004	  6.64276E-003	 -1.55745E-003	 -3.49461E-003
  1.02400E+000	 -1.75598E-003	  7.96458E-004	  2.95079E-003	 -2.75725E-003
  1.12640E+000	 -1.80141E-003	  4.33664E-004	  1.86823E-003	  1.13328E-003
  1.22880E+000	 -6.50713E-004	 -2.05717E-003	 -4.54321E-004	 -4.18724E-003
  1.33120E+000	  4.36142E-004	  2.98795E-003	 -2.68643E-003	  2.19432E-004
  1.43360E+000	  5.68003E-003	  9.13820E-004	 -9.84998E-004	 -2.32364E-003
  1.53600E+000	  3.21117E-003	 -2.82985E-003	 -4.84090E-003	  3.32428E-003
  1.63840E+000	 -3.64234E-004	 -3.96029E-003	 -3.81806E-003	 -6.45605E-003
  1.84320E+000	  4.00220E-003	 -1.04469E-003	 -4.54236E-003	 -2.04783E-003
  2.04800E+000	  2.30851E-003	 -4.39618E-003	  3.15183E-003	 -6.15209E-003
  2.25280E+000	 -2.01309E-003	 -5.87803E-003	 -4.80064E-004	 -5.53179E-003
  2.45760E+000	 -3.40550E-003	  2.54299E-003	 -4.77305E-003	 -2.32173E-003
  2.66240E+000	 -2.43854E-005	 -2.23498E-003	  5.46440E-003	 -5.18046E-003
  2.86720E+000	 -3.06208E-003	 -2.12555E-004	  1.72628E-004	  2.16434E-003
  3.07200E+000	  2.81401E-003	 -6.82041E-004	 -5.31369E-003	  4.48777E-004
  3.27680E+000	 -7.53968E-004	 -1.37808E-003	 -2.95784E-003	 -1.18851E-003
  3.68640E+000	 -3.40656E-003	  5.69361E-004	  1.53515E-003	  2.95650E-005
  4.09600E+000	  2.12114E-004	  3.39147E-003	  4.75432E-003	 -1.86685E-003
  4.50560E+000	 -1.16905E-003	 -8.04202E-004	 -3.25888E-004	  6.14982E-004
  4.91520E+000	 -9.26526E-004	  1.85671E-003	  5.71277E-003	  1.87344E-003
  5.32480E+000	 -3.48541E-003	 -4.40213E-003	  3.49196E-003	 -2.06473E-003
  5.73440E+000	 -4.40470E-005	 -1.02753E-003	  5.26084E-003	  5.27515E-003
  6.14400E+000	  2.46747E-003	  3.71983E-003	 -2.90047E-003	  2.97879E-004
  6.55360E+000	 -4.45055E-004	  3.37672E-003	 -2.72349E-003	  1.68916E-003
  7.37280E+000	  9.74413E-004	 -2.23729E-003	  1.62846E-003	  3.94761E-004
  8.19200E+000	 -1.19509E-003	  1.20991E-004	  2.21048E-004	 -2.02789E-003
  9.01120E+000	 -4.53984E-003	 -1.29953E-003	 -3.49493E-003	 -2.42181E-003
  9.83040E+000	  3.74721E-003	 -1.25620E-003	 -2.36117E-003	 -3.53763E-003
  1.06496E+001	  1.62669E-003	 -2.32042E-003	  1.25996E-003	  2.09535E-003
  1.14688E+001	 -3.13187E-004	  1.20405E-003	 -1.49751E-003	 -3.33715E-003
  1.22880E+001	  3.28350E-004	  5.11852E-004	 -5.37593E-003	 -3.75308E-003
  1.31072E+001	 -1.99612E-003	  6.22623E-004	 -2.75590E-003	 -2.96070E-003
  1.47456E+001	 -6.07343E-004	 -1.08374E-003	  9.82344E-004	 -3.03549E-003
  1.63840E+001	 -1.21025E-003	  3.85400E-003	 -2.14835E-004	 -2.09828E-003
  1.80224E+001	  4.69428E-004	 -2.40021E-003	  1.12123E-003	 -2.40807E-003
  1.96608E+001	  1.47895E-003	 -3.78022E-003	  7.65076E-004	 -1.22296E-003
  2.12992E+001	  2.18730E-003	  6.01726E-004	 -1.30746E-003	  3.61988E-004
  2.29376E+001	  1.46494E-003	 -5.40371E-004	  2.41822E-004	  1.35856E-003
  2.45760E+001	  1.03399E-004	  1.00919E-003	 -9.47899E-004	 -1.44453E-003
  2.62144E+001	  8.14488E-004	 -1.50132E-003	 -1.68556E-004	 -7.02156E-004
  2.94912E+001	  5.85615E-004	  5.52412E-004	 -6.57395E-004	  1.50339E-003
  3.27680E+001	  1.30326E-003	  5.82580E-004	 -2.87526E-004	  7.81725E-004
  3.60448E+001	 -1.15607E-003	 -7.55437E-004	 -1.16120E-003	  1.50267E-004
  3.93216E+001	 -7.29390E-004	  3.89273E-004	 -1.34310E-005	 -3.40988E-004
  4.25984E+001	  2.33829E-003	  3.15827E-004	 -9.34473E-004	 -1.76329E-003
  4.58752E+001	 -3.03739E-004	 -2.18913E-005	  2.15444E-004	 -1.05432E-003
  4.91520E+001	 -3.14157E-004	  1.17569E-003	  3.66674E-004	 -1.29721E-003
  5.24288E+001	  1.92762E-005	  1.55194E-003	 -1.14983E-003	  2.99375E-005
  5.89824E+001	  1.19002E-003	 -3.01485E-004	  3.71039E-004	  6.79145E-004
  6.55360E+001	  1.60318E-004	 -5.71318E-004	  2.04180E-005	 -2.11752E-005
  7.20896E+001	 -1.13677E-003	  1.26873E-004	 -9.07493E-004	  7.07562E-004
  7.86432E+001	  1.62957E-004	 -2.89908E-004	  6.44732E-004	 -3.72395E-004
  8.51968E+001	 -3.66682E-004	 -2.06004E-004	  8.71426E-004	 -1.03537E-003
  9.17504E+001	 -7.77860E-005	 -8.68800E-004	 -3.12428E-004	 -6.54903E-004
  9.83040E+001	  6.48307E-004	 -6.12465E-004	  7.78884E-005	  1.24875E-003
  1.04858E+002	 -4.78595E-004	 -8.22490E-004	 -5.58246E-004	  3.83674E-004
  1.17965E+002	  6.64488E-004	  5.21892E-004	 -1.93829E-005	 -1.75593E-003
  1.31072E+002	 -2.99891E-004	 -6.92144E-004	 -1.45676E-005	  2.14662E-003
  1.44179E+002	 -8.08869E-004	 -1.19799E-003	 -2.24377E-004	 -1.18703E-003
  1.57286E+002	 -3.75830E-004	  1.09528E-004	 -5.73652E-004	 -8.17888E-005
  1.70394E+002	 -1.02784E-003	  1.82286E-004	 -2.15490E-004	 -2.82160E-004
  1.83501E+002	 -4.82041E-004	 -4.29634E-004	  4.99548E-004	 -2.45809E-005
  1.96608E+002	 -4.43384E-004	  7.17869E-004	 -2.86168E-004	  5.90374E-004
  2.09715E+002	 -1.84397E-004	  3.86500E-005	 -1.49744E-004	  4.31383E-004
  2.35930E+002	  1.13622E-005	  2.14396E-004	 -1.00528E-004	  1.59816E-004
  2.62144E+002	 -8.62823E-004	  4.82864E-005	  5.33845E-005	 -2.46347E-004
  2.88358E+002	  1.16539E-006	 -1.74512E-005	 -2.08724E-004	  1.54793E-004
  3.14573E+002	 -7.41195E-004	  1.40874E-004	  2.01855E-004	  9.83050E-005
  3.40787E+002	  1.43170E-004	  1.09825E-004	 -2.12172E-004	 -4.88387E-005
  3.67002E+002	 -7.86722E-004	  7.21888E-005	  2.92981E-004	  8.81960E-005
  3.93216E+002	 -2.25866E-004	 -1.10786E-004	  8.34966E-005	  4.61374E-005

"Count Rate"
       0.01311	      46.53931	      51.80359	      47.98889	      52.41394
       0.02621	      47.98889	      48.75183	      52.26135	      44.86084
       0.03932	      47.45483	      46.23413	      52.56653	      53.10059
       0.05243	      48.59924	      52.56653	      48.59924	      47.91260
       0.06554	      51.26953	      54.16870	      55.31311	      49.66736
       0.07864	      47.14966	      48.29407	      55.16052	      47.30225
       0.09175	      52.33765	      55.31311	      48.67554	      44.78455
       0.10486	      47.98889	      48.06519	      51.42212	      53.71094
       0.11796	      50.58289	      47.91260	      44.40308	      48.06519
       0.13107	      52.64282	      45.62378	      52.49023	      50.50659
       0.14418	      47.98889	      54.01611	      54.01611	      46.61560
       0.15729	      53.10059	      49.89624	      52.56653	      50.88806
       0.17039	      51.26953	      51.42212	      54.09241	      52.10876
       0.18350	      50.50659	      49.20959	      45.24231	      46.92078
       0.19661	      50.12512	      55.69458	      54.62646	      46.76819
       0.20972	      50.04883	      52.87170	      50.43030	      51.80359
       0.22282	      45.70007	      50.27771	      50.65918	      42.34314
       0.23593	      46.99707	      49.66736	      47.98889	      52.49023
       0.24904	      48.37036	      55.23682	      57.37305	      46.92078
       0.26214	      56.91528	      52.64282	      58.67004	      50.43030
       0.27525	      51.72729	      54.70276	      51.19324	      49.97253
       0.28836	      49.74365	      52.79541	      52.03247	      47.91260
       0.30147	      48.98071	      51.95618	      47.76001	      48.52295
       0.31457	      51.34583	      55.00793	      45.85266	      51.26953
       0.32768	      52.49023	      54.24500	      50.43030	      46.53931
       0.34079	      43.02979	      53.78723	      50.27771	      48.90442
       0.35389	      52.79541	      47.60742	      47.53113	      44.63196
       0.36700	      48.21777	      51.65100	      50.88806	      50.88806
       0.38011	      50.43030	      54.09241	      50.12512	      45.92896
       0.39322	      49.81995	      49.89624	      51.72729	      52.18506
       0.40632	      48.75183	      50.12512	      48.90442	      48.21777
       0.41943	      48.67554	      49.89624	      51.49841	      47.76001
       0.43254	      41.58020	      50.12512	      45.92896	      44.55566
       0.44564	      47.14966	      51.26953	      53.55835	      54.55017
       0.45875	      44.40308	      50.27771	      51.42212	      49.81995
       0.47186	      48.21777	      50.12512	      52.64282	      50.12512
       0.48497	      47.14966	      45.77637	      51.65100	      44.40308
       0.49807	      46.46301	      54.16870	      46.76819	      56.83899
       0.51118	      45.31860	      55.08423	      52.64282	      48.44666
       0.52429	      42.64832	      46.61560	      46.61560	      50.43030
       0.53740	      47.98889	      56.38123	      46.46301	      47.14966
       0.55050	      48.06519	      49.36218	      54.62646	      44.86084
       0.56361	      48.44666	      54.93164	      47.60742	      45.70007
       0.57672	      47.53113	      51.42212	      51.49841	      49.81995
       0.58982	      57.67822	      53.93982	      51.57471	      51.87988
       0.60293	      52.26135	      51.42212	      49.97253	      46.31042
       0.61604	      49.13330	      53.02429	      51.65100	      37.84180
       0.62915	      50.81177	      54.16870	      52.79541	      51.72729
       0.64225	      50.88806	      44.78455	      54.39758	      52.18506
       0.65536	      47.91260	      51.87988	      48.21777	      47.53113
       0.66847	      47.68372	      52.10876	      47.83630	      50.65918
       0.68157	      51.11694	      48.75183	      48.82813	      48.59924
       0.69468	      48.21777	      47.91260	      54.70276	      54.16870
       0.70779	      51.04065	      54.01611	      53.63464	      44.70825
       0.72090	      55.31311	      50.81177	      56.22864	      52.64282
       0.73400	      41.12244	      53.17688	      48.90442	      48.52295
       0.74711	      54.62646	      50.96436	      43.10608	      47.76001
