ALV-7004/USB-FAST
Date :	"11/11/2025"
Time :	"3:57:40 PM"
Samplename : 	""
SampMemo(0) : 	""
SampMemo(1) : 	""
SampMemo(2) : 	""
SampMemo(3) : 	""
SampMemo(4) : 	""
SampMemo(5) : 	""
SampMemo(6) : 	""
SampMemo(7) : 	""
SampMemo(8) : 	""
SampMemo(9) : 	""
Temperature [K] :	     298.16000
Viscosity [cp]  :	       0.89000
Refractive Index:	       1.33200
Wavelength [nm] :	       0.00000
Angle [°]       :	       0.00000
Duration [s]    :	         1
FloatDur [ms]   :	          944
Stop TP [ms]   :	     67859
Runs            :	         1
Mode            :	"A-CH0+1  A-CH2+3 "
MeanCR0 [kHz]   :	      49.57517
MeanCR1 [kHz]   :	      52.38321
MeanCR2 [kHz]   :	      52.42984
MeanCR3 [kHz]   :	      50.59242

"Correlation"
  3.12500E-006	 -1.00000E+000	 -1.00000E+000	 -1.00000E+000	 -1.00000E+000
  6.25000E-006	 -1.00000E+000	 -1.00000E+000	 -1.00000E+000	 -1.00000E+000
  9.37500E-006	 -1.00000E+000	 -1.00000E+000	 -1.00000E+000	 -1.00000E+000
  1.25000E-005	 -1.00000E+000	 -1.00000E+000	 -1.00000E+000	 -1.00000E+000
  1.56250E-005	 -1.00000E+000	 -1.00000E+000	 -1.00000E+000	 -1.00000E+000
  1.87500E-005	 -1.00000E+000	 -1.00000E+000	 -1.00000E+000	 -1.00000E+000
  2.18750E-005	 -8.62032E-001	  3.59302E-001	  8.50299E-001	 -8.67524E-001
  2.50000E-005	  1.43145E+001	  1.43230E+001	  1.28156E+001	  2.97344E+001
  2.81250E-005	  3.82889E+000	  2.83076E+000	  2.45389E+000	  9.73054E+000
  3.12500E-005	  1.89733E+000	  1.47146E+000	  9.73652E-001	  4.69646E+000
  3.43750E-005	  1.06952E+000	  8.53594E-001	  1.34371E+000	  5.35884E+000
  3.75000E-005	  1.34546E+000	  1.10074E+000	  1.34371E+000	  4.43151E+000
  4.06250E-005	  1.62140E+000	  8.53594E-001	  4.80239E-001	  3.76913E+000
  4.37500E-005	  7.93587E-001	  4.82875E-001	  9.73652E-001	  3.63665E+000
  4.68750E-005	  1.48343E+000	  4.82875E-001	 -1.31741E-002	  2.31190E+000
  5.00000E-005	  1.27648E+000	  6.68234E-001	  9.11975E-001	  2.44437E+000
  5.62500E-005	  1.00054E+000	  1.03895E+000	  8.50298E-001	  2.44437E+000
  6.25000E-005	  9.31555E-001	  3.59302E-001	  9.73652E-001	  1.11961E+000
  6.87500E-005	  9.31555E-001	  2.97516E-001	  6.03592E-001	  1.05337E+000
  7.50000E-005	  1.13851E+000	  7.30021E-001	  9.11975E-001	  1.71575E+000
  8.12500E-005	  1.34546E+000	  1.71860E+000	  2.95209E-001	  1.45080E+000
  8.75000E-005	  3.10698E-001	  8.53594E-001	  5.41915E-001	  5.89710E-001
  9.37500E-005	  1.00054E+000	  2.35729E-001	  4.80239E-001	  5.23472E-001
  1.00000E-004	  8.97063E-001	  7.60914E-001	  4.18562E-001	  1.08649E+000
  1.12500E-004	  1.00054E+000	  7.30021E-001	  7.57783E-001	  1.08649E+000
  1.25000E-004	  4.14174E-001	  2.66622E-001	  2.33532E-001	  6.22828E-001
  1.37500E-004	  5.86634E-001	  4.82875E-001	  9.42813E-001	  3.57877E-001
  1.50000E-004	  6.21127E-001	  4.82875E-001	  8.50298E-001	  6.55947E-001
  1.62500E-004	  6.21127E-001	  7.60914E-001	  8.19460E-001	  8.21542E-001
  1.75000E-004	  1.38238E-001	  9.46273E-001	  3.87724E-001	  5.23472E-001
  1.87500E-004	  7.24603E-001	  4.82875E-001	  6.65268E-001	  5.23472E-001
  2.00000E-004	  6.90110E-001	  6.06447E-001	  5.72753E-001	  6.39388E-001
  2.25000E-004	  5.69388E-001	  5.91001E-001	  9.42813E-001	  5.73150E-001
  2.50000E-004	  1.03745E-001	  5.75554E-001	  4.33981E-001	  7.71863E-001
  2.75000E-004	  6.72864E-001	  3.74748E-001	  3.56885E-001	  4.57233E-001
  3.00000E-004	  4.83158E-001	  4.98321E-001	  5.11077E-001	  4.40674E-001
  3.25000E-004	  3.79682E-001	  3.28408E-001	  3.87723E-001	  2.75079E-001
  3.50000E-004	  7.24602E-001	  6.99127E-001	  5.72753E-001	  5.40031E-001
  3.75000E-004	  6.90110E-001	  9.67092E-002	  5.88172E-001	  3.24758E-001
  4.00000E-004	  5.26272E-001	  5.29214E-001	  5.11076E-001	  6.89065E-001
  4.50000E-004	  5.34895E-001	  3.74748E-001	  4.33980E-001	  5.81429E-001
  5.00000E-004	  4.57288E-001	  4.44257E-001	  5.80462E-001	  5.06911E-001
  5.50000E-004	  6.55618E-001	  6.68233E-001	  6.34429E-001	  5.48310E-001
  6.00000E-004	  4.14173E-001	  4.90597E-001	  5.49624E-001	  7.30464E-001
  6.50000E-004	  6.03879E-001	  3.90194E-001	  5.41914E-001	  5.23471E-001
  7.00000E-004	  5.95256E-001	  3.67024E-001	  3.18337E-001	  5.40030E-001
  7.50000E-004	  5.09026E-001	  4.13364E-001	  4.41690E-001	  3.66156E-001
  8.00000E-004	  5.26271E-001	  4.17225E-001	  4.22415E-001	  3.90994E-001
  9.00000E-004	  4.65910E-001	  4.75149E-001	  5.07220E-001	  3.66155E-001
  1.00000E-003	  4.74533E-001	  5.44659E-001	  4.33979E-001	  4.57232E-001
  1.10000E-003	  4.78845E-001	  4.98319E-001	  4.30124E-001	  3.99273E-001
  1.20000E-003	  3.92615E-001	  5.25351E-001	  4.41689E-001	  5.35889E-001
  1.30000E-003	  4.87468E-001	  5.33074E-001	  4.33979E-001	  4.57232E-001
  1.40000E-003	  4.18484E-001	  3.82470E-001	  5.11075E-001	  4.98630E-001
  1.50000E-003	  5.30583E-001	  5.63967E-001	  4.37834E-001	  3.66155E-001
  1.60000E-003	  5.43514E-001	  4.21084E-001	  3.78082E-001	  4.88278E-001
  1.80000E-003	  4.07702E-001	  4.05637E-001	  3.95429E-001	  4.92418E-001
  2.00000E-003	  3.75366E-001	  4.82870E-001	  4.53250E-001	  5.25537E-001
  2.20000E-003	  4.03391E-001	  4.59700E-001	  3.64591E-001	  5.06907E-001
  2.40000E-003	  3.21473E-001	  4.53908E-001	  3.74228E-001	  4.69649E-001
  2.60000E-003	  3.60276E-001	  4.44254E-001	  4.22412E-001	  4.13761E-001
  2.80000E-003	  3.71055E-001	  4.32669E-001	  3.93501E-001	  4.07551E-001
  3.00000E-003	  4.35727E-001	  4.55839E-001	  4.35904E-001	  4.55159E-001
  3.20000E-003	  4.08806E-001	  4.28802E-001	  4.49391E-001	  4.31350E-001
  3.60000E-003	  4.34675E-001	  4.44249E-001	  4.42645E-001	  4.82063E-001
  4.00000E-003	  4.42220E-001	  4.33629E-001	  4.81193E-001	  4.46874E-001
  4.40000E-003	  4.03416E-001	  3.92117E-001	  3.82896E-001	  4.66539E-001
  4.80000E-003	  4.49766E-001	  4.05632E-001	  3.89642E-001	  3.96161E-001
  5.20000E-003	  4.26052E-001	  4.04667E-001	  4.61919E-001	  3.65113E-001
  5.60000E-003	  3.32275E-001	  4.59695E-001	  4.27226E-001	  4.02371E-001
  6.00000E-003	  4.33597E-001	  3.81497E-001	  4.24335E-001	  4.30315E-001
  6.40000E-003	  3.60859E-001	  3.82453E-001	  3.95896E-001	  4.02879E-001
  7.20000E-003	  3.86190E-001	  4.25925E-001	  3.92524E-001	  4.12194E-001
  8.00000E-003	  3.92119E-001	  3.97928E-001	  4.17579E-001	  4.11676E-001
  8.80000E-003	  3.57058E-001	  3.52071E-001	  3.80959E-001	  4.00292E-001
  9.60000E-003	  3.31756E-001	  3.69931E-001	  3.37594E-001	  3.54236E-001
  1.04000E-002	  3.34451E-001	  3.39520E-001	  3.80478E-001	  3.63033E-001
  1.12000E-002	  3.21516E-001	  3.95514E-001	  3.65540E-001	  3.84768E-001
  1.20000E-002	  3.29600E-001	  3.68965E-001	  2.98083E-001	  3.67691E-001
  1.28000E-002	  3.12094E-001	  3.56155E-001	  3.39530E-001	  3.64855E-001
  1.44000E-002	  2.85416E-001	  3.26228E-001	  3.36157E-001	  3.45967E-001
  1.60000E-002	  3.11286E-001	  3.08126E-001	  3.38566E-001	  3.07673E-001
  1.76000E-002	  2.77331E-001	  3.08850E-001	  2.86527E-001	  3.07673E-001
  1.92000E-002	  2.95117E-001	  2.81336E-001	  2.75685E-001	  2.92666E-001
  2.08000E-002	  2.58737E-001	  2.70717E-001	  2.67012E-001	  2.78953E-001
  2.24000E-002	  2.30416E-001	  2.74096E-001	  2.58339E-001	  2.69638E-001
  2.40000E-002	  2.43350E-001	  2.48512E-001	  2.50870E-001	  2.80247E-001
  2.56000E-002	  2.16666E-001	  2.37909E-001	  2.30504E-001	  2.50718E-001
  2.88000E-002	  2.18552E-001	  2.42495E-001	  2.12169E-001	  2.12680E-001
  3.20000E-002	  1.82443E-001	  2.12808E-001	  1.88439E-001	  2.21064E-001
  3.52000E-002	  2.01306E-001	  2.31996E-001	  1.83259E-001	  1.85744E-001
  3.84000E-002	  1.55765E-001	  1.86139E-001	  1.59409E-001	  1.76300E-001
  4.16000E-002	  1.37441E-001	  1.67554E-001	  1.51218E-001	  1.64138E-001
  4.48000E-002	  1.40674E-001	  1.77450E-001	  1.50977E-001	  1.40462E-001
  4.80000E-002	  1.19497E-001	  1.40161E-001	  1.34594E-001	  1.54047E-001
  5.12000E-002	  9.43333E-002	  1.46211E-001	  1.23038E-001	  1.30887E-001
  5.76000E-002	  9.91835E-002	  1.18914E-001	  1.15569E-001	  1.15665E-001
  6.40000E-002	  8.00078E-002	  1.03828E-001	  7.99133E-002	  9.14453E-002
  7.04000E-002	  8.39824E-002	  9.53803E-002	  7.46348E-002	  8.78222E-002
  7.68000E-002	  7.17892E-002	  7.93076E-002	  7.35507E-002	  7.44720E-002
  8.32000E-002	  6.37053E-002	  6.89291E-002	  6.47957E-002	  6.22020E-002
  8.96000E-002	  5.00300E-002	  5.75851E-002	  4.63053E-002	  7.34594E-002
  9.60000E-002	  4.30240E-002	  5.80075E-002	  3.87164E-002	  4.14342E-002
  1.02400E-001	  4.70197E-002	  4.09776E-002	  5.25259E-002	  5.07596E-002
  1.15200E-001	  3.17630E-002	  1.73224E-002	  3.91841E-002	  3.55432E-002
  1.28000E-001	  2.08054E-002	  2.34172E-002	  1.98887E-002	  2.42528E-002
  1.40800E-001	  2.28935E-002	  1.21328E-002	  2.92154E-002	  1.07838E-002
  1.53600E-001	  1.58881E-002	  1.03930E-004	  1.78915E-002	  1.72540E-002
  1.66400E-001	  1.69995E-002	 -4.89555E-004	  5.27250E-003	  1.48064E-002
  1.79200E-001	  2.00644E-002	  1.61951E-002	  9.14786E-003	  1.45051E-002
  1.92000E-001	  9.14001E-003	  4.79040E-003	  1.24006E-002	  2.14602E-002
  2.04800E-001	  1.26154E-002	  5.98073E-003	  9.57443E-003	  1.20992E-002
  2.30400E-001	  1.95172E-002	  1.31936E-002	  3.17724E-003	 -2.24642E-003
  2.56000E-001	  3.13038E-005	 -2.27330E-003	  5.14517E-003	 -4.22493E-003
  2.81600E-001	 -4.86399E-004	  6.03582E-003	 -9.09829E-004	  2.62343E-003
  3.07200E-001	 -8.90525E-003	  4.78341E-003	 -3.90229E-003	  8.33446E-005
  3.32800E-001	  1.77559E-003	  4.54198E-003	 -1.26651E-003	 -1.20429E-003
  3.58400E-001	 -2.41925E-003	  6.56320E-003	  2.92061E-003	  1.86289E-005
  3.84000E-001	 -2.70565E-003	  3.50651E-005	 -2.77244E-003	  8.93450E-003
  4.09600E-001	  1.61829E-003	 -5.94804E-004	 -6.36420E-003	  1.61329E-002
  4.60800E-001	  1.14203E-002	 -1.13427E-003	 -3.63665E-003	  9.41377E-003
  5.12000E-001	  1.75343E-003	 -1.65502E-003	 -5.74641E-003	  1.86326E-003
  5.63200E-001	  5.09771E-003	 -2.03481E-003	 -7.17791E-003	 -2.39405E-004
  6.14400E-001	  4.79438E-003	 -8.12812E-003	 -2.85527E-003	 -5.62153E-003
  6.65600E-001	 -6.06630E-003	  1.68728E-003	 -2.51861E-003	 -7.46762E-003
  7.16800E-001	 -1.20148E-002	 -6.89298E-003	  2.65358E-003	 -9.67661E-003
  7.68000E-001	 -8.96422E-003	 -6.95583E-003	  6.84384E-004	 -4.85747E-003
  8.19200E-001	 -2.68955E-003	 -3.36347E-003	 -1.66481E-003	 -6.89733E-003
  9.21600E-001	 -5.17797E-003	 -3.07137E-003	  3.05000E-003	 -7.81837E-003
  1.02400E+000	  1.72213E-003	 -1.00037E-003	  2.44983E-003	 -4.04936E-003
  1.12640E+000	 -1.66121E-003	  4.48598E-003	  9.70640E-004	 -3.29473E-003
  1.22880E+000	  3.95739E-004	  2.27950E-003	 -3.54271E-003	 -4.29061E-003
  1.33120E+000	  4.85350E-003	 -4.66178E-003	 -1.08671E-003	 -2.65482E-004
  1.43360E+000	  5.61712E-003	 -5.03071E-003	  7.07332E-003	 -4.27356E-003
  1.53600E+000	  1.51686E-003	  1.19649E-003	  1.71548E-003	  4.29802E-004
  1.63840E+000	  4.06645E-003	 -7.80281E-003	 -9.81396E-004	  1.86739E-003
  1.84320E+000	  6.10714E-004	 -2.82309E-003	 -1.60868E-003	  6.95700E-003
  2.04800E+000	  2.20069E-003	 -7.96198E-003	 -2.50662E-003	 -1.16832E-003
  2.25280E+000	 -2.07388E-003	 -5.05677E-003	  4.69881E-004	 -5.82828E-004
  2.45760E+000	 -8.15526E-004	 -1.19230E-003	 -4.09150E-003	 -3.64392E-003
  2.66240E+000	 -2.21580E-003	  2.79552E-003	 -4.47207E-003	  6.16550E-003
  2.86720E+000	  4.08366E-003	  3.04833E-003	  6.33561E-004	  3.88848E-003
  3.07200E+000	  9.49444E-003	 -4.63298E-003	 -1.26292E-003	  1.93820E-003
  3.27680E+000	  7.17295E-003	 -4.98499E-003	 -7.61888E-004	 -1.95451E-003
  3.68640E+000	 -3.15044E-003	  1.83268E-003	  2.78619E-003	 -1.28007E-003
  4.09600E+000	 -7.02878E-004	  4.28385E-003	  2.48145E-003	 -1.82288E-003
  4.50560E+000	 -1.96986E-004	  5.18519E-003	  2.93999E-003	  3.67819E-003
  4.91520E+000	  2.76876E-003	 -1.31791E-003	  3.06022E-004	 -3.98560E-003
  5.32480E+000	 -1.82765E-004	 -3.58170E-003	 -1.89169E-003	 -2.43148E-003
  5.73440E+000	  3.34197E-003	 -7.67289E-005	  5.87920E-003	 -4.42796E-003
  6.14400E+000	  1.08040E-004	 -1.83270E-003	 -3.95927E-004	 -7.43559E-004
  6.55360E+000	  1.08695E-003	  4.71575E-004	  1.01603E-003	 -4.79837E-004
  7.37280E+000	  4.77627E-004	  2.85114E-004	  7.28414E-004	  5.95875E-003
  8.19200E+000	  1.19660E-003	 -1.26914E-003	 -1.30384E-003	  1.71364E-003
  9.01120E+000	  9.78500E-004	 -2.39489E-004	 -5.22377E-005	  3.14677E-003
  9.83040E+000	 -1.21857E-003	  3.10298E-003	 -2.47184E-003	 -1.59337E-003
  1.06496E+001	  3.79198E-003	 -1.46488E-003	 -5.18164E-003	 -8.10030E-004
  1.14688E+001	  2.47224E-004	 -1.05636E-003	 -1.52875E-003	  1.11844E-003
  1.22880E+001	  6.37474E-004	 -8.43714E-004	  3.18707E-004	  1.37812E-003
  1.31072E+001	  2.07400E-003	  3.04031E-003	 -3.60166E-003	 -1.83799E-004
  1.47456E+001	  9.52603E-004	  3.30839E-004	 -2.15910E-003	  4.26462E-004
  1.63840E+001	 -3.71850E-004	 -8.48755E-004	 -1.61211E-003	  5.56537E-005
  1.80224E+001	 -3.29020E-004	  1.12527E-003	 -7.12482E-004	 -9.38474E-004
  1.96608E+001	 -1.65380E-003	  6.01461E-004	 -5.92449E-004	 -1.80848E-003
  2.12992E+001	 -4.72512E-005	  9.52394E-005	 -2.48590E-004	  5.85266E-005
  2.29376E+001	 -5.08896E-004	  1.01792E-003	  1.05752E-003	 -1.35812E-004
  2.45760E+001	 -1.21026E-003	 -2.27389E-003	  3.12287E-003	  6.48791E-005
  2.62144E+001	 -1.04563E-003	 -6.08068E-004	  9.79894E-004	 -8.55536E-004
  2.94912E+001	 -2.56874E-003	  2.75474E-004	  1.28678E-003	 -8.99530E-004
  3.27680E+001	 -1.42607E-003	 -1.86792E-003	  1.63508E-003	  6.40743E-004
  3.60448E+001	 -1.21149E-004	 -4.61962E-004	 -5.83251E-004	  9.25572E-004
  3.93216E+001	 -2.27159E-004	 -7.97851E-004	  3.04124E-004	 -2.87304E-004
  4.25984E+001	  4.69778E-004	  5.00795E-004	  3.30766E-004	 -2.36612E-004
  4.58752E+001	 -4.99840E-004	  6.37028E-004	 -1.49115E-003	  7.87167E-004
  4.91520E+001	 -9.42394E-004	 -1.87600E-003	 -1.95557E-004	  1.28099E-003
  5.24288E+001	  2.00070E-004	 -5.35930E-004	 -2.35683E-004	  2.19337E-004
  5.89824E+001	  4.26564E-004	 -4.96644E-004	 -3.32157E-004	 -1.34159E-003
  6.55360E+001	  1.54672E-003	  8.46812E-004	  4.42996E-004	 -1.38609E-003
  7.20896E+001	  4.51085E-004	 -5.62113E-004	  1.02506E-003	 -7.43947E-004
  7.86432E+001	  5.32638E-004	 -5.54796E-004	  4.05965E-004	 -7.24457E-004
  8.51968E+001	  1.91449E-003	 -5.31523E-004	 -1.26140E-003	  1.04329E-003
  9.17504E+001	 -4.28213E-004	 -1.67421E-004	 -7.09670E-004	 -4.26325E-004
  9.83040E+001	 -2.18318E-003	  3.57522E-004	  9.22858E-004	  1.28485E-003
  1.04858E+002	 -2.09764E-003	  2.15398E-004	  4.55149E-004	  1.03200E-004
  1.17965E+002	 -2.03559E-003	  7.01321E-004	 -1.30147E-004	  4.01253E-004
  1.31072E+002	  1.11824E-003	  7.21895E-004	 -3.93042E-004	 -2.35420E-004
  1.44179E+002	  1.59788E-003	  2.91397E-004	  1.07517E-003	  1.01632E-004
  1.57286E+002	 -1.79802E-004	 -3.90037E-004	 -1.04629E-003	  2.63811E-004
  1.70394E+002	 -1.35643E-004	 -5.73662E-004	  1.06847E-003	  6.47548E-004
  1.83501E+002	 -1.28458E-003	 -1.21242E-004	 -1.45198E-003	  4.79768E-004
  1.96608E+002	 -1.41678E-003	 -3.44883E-004	  6.97796E-004	  1.81493E-004
  2.09715E+002	  5.25963E-004	  2.45598E-004	  1.94395E-005	 -2.40678E-004
  2.35930E+002	  7.45318E-004	  3.93301E-004	  5.38531E-005	 -1.03225E-004
  2.62144E+002	 -9.57340E-004	  4.19003E-004	  2.03524E-004	 -2.64740E-004
  2.88358E+002	  7.79134E-004	 -1.08851E-003	  8.08266E-005	  5.69628E-005
  3.14573E+002	 -3.76023E-004	 -5.49684E-004	 -6.14257E-004	  7.99121E-004
  3.40787E+002	 -8.51059E-004	  1.54325E-004	 -1.52551E-004	  5.53557E-004
  3.67002E+002	  1.41592E-003	  1.07189E-004	  5.63636E-004	 -3.91375E-004
  3.93216E+002	  1.81881E-004	 -8.41237E-005	 -3.98994E-004	 -9.76689E-004

"Count Rate"
       0.01311	      49.05701	      51.26953	      51.95618	      52.56653
       0.02621	      53.17688	      53.02429	      50.50659	      51.49841
       0.03932	      51.11694	      51.65100	      56.83899	      48.67554
       0.05243	      47.83630	      51.80359	      53.25317	      56.38123
       0.06554	      51.34583	      48.90442	      48.98071	      48.21777
       0.07864	      52.10876	      52.18506	      61.34033	      45.62378
       0.09175	      48.67554	      51.11694	      47.07336	      50.20142
       0.10486	      43.79272	      50.12512	      56.15234	      49.81995
       0.11796	      48.37036	      52.41394	      55.23682	      49.28589
       0.13107	      47.37854	      51.72729	      54.01611	      54.77905
       0.14418	      47.30225	      53.25317	      55.38940	      56.45752
       0.15729	      58.44116	      57.44934	      42.87720	      55.08423
       0.17039	      42.87720	      51.80359	      49.74365	      47.37854
       0.18350	      46.46301	      49.81995	      55.46570	      52.03247
       0.19661	      54.39758	      50.20142	      49.13330	      51.57471
       0.20972	      48.90442	      58.89893	      55.77087	      42.41943
       0.22282	      48.67554	      58.59375	      50.27771	      49.43848
       0.23593	      43.86902	      52.41394	      47.37854	      49.74365
       0.24904	      46.46301	      53.71094	      55.77087	      49.59106
       0.26214	      43.18237	      52.79541	      45.47119	      51.11694
       0.27525	      43.79272	      44.70825	      55.77087	      52.03247
       0.28836	      51.04065	      54.55017	      50.43030	      48.06519
       0.30147	      49.59106	      49.74365	      54.39758	      49.81995
       0.31457	      42.34314	      55.23682	      49.81995	      49.89624
       0.32768	      43.94531	      48.52295	      50.88806	      51.57471
       0.34079	      46.08154	      49.66736	      53.10059	      55.23682
       0.35389	      49.05701	      55.99976	      50.65918	      49.36218
       0.36700	      53.63464	      50.43030	      49.28589	      49.74365
       0.38011	      54.01611	      49.66736	      45.47119	      46.76819
       0.39322	      46.61560	      49.43848	      57.90710	      46.53931
       0.40632	      42.49573	      51.49841	      49.74365	      44.93713
       0.41943	      49.05701	      50.88806	      56.76270	      49.66736
       0.43254	      52.71912	      54.93164	      51.65100	      49.28589
       0.44564	      53.25317	      51.57471	      49.51477	      48.52295
       0.45875	      43.56384	      52.41394	      47.45483	      49.81995
       0.47186	      49.97253	      57.29675	      53.32947	      53.25317
       0.48497	      41.88538	      49.51477	      45.54749	      52.49023
       0.49807	      50.96436	      49.81995	      56.91528	      46.61560
       0.51118	      54.39758	      49.05701	      47.53113	      53.10059
       0.52429	      49.36218	      47.37854	      49.59106	      43.25867
       0.53740	      49.81995	      46.69189	      54.85535	      50.43030
       0.55050	      48.44666	      46.76819	      51.57471	      44.78455
       0.56361	      53.40576	      53.48206	      52.10876	      51.26953
       0.57672	      49.13330	      56.53381	      52.56653	      49.51477
       0.58982	      49.81995	      53.10059	      49.59106	      53.40576
       0.60293	      49.51477	      49.05701	      45.85266	      49.05701
       0.61604	      45.16602	      51.04065	      52.79541	      49.36218
       0.62915	      47.30225	      53.86353	      46.53931	      50.12512
       0.64225	      51.42212	      50.50659	      53.10059	      54.32129
       0.65536	      47.22595	      50.12512	      49.97253	      48.37036
       0.66847	      50.65918	      47.07336	      51.49841	      47.22595
       0.68157	      47.91260	      47.76001	      50.12512	      52.87170
       0.69468	      46.61560	      51.87988	      50.58289	      51.34583
       0.70779	      46.31042	      55.77087	      49.74365	      44.78455
       0.72090	      46.15784	      51.04065	      51.42212	      47.83630
       0.73400	      48.21777	      47.30225	      46.99707	      44.78455
       0.74711	      47.30225	      52.64282	      57.52563	      47.53113
