ALV-7004/USB-FAST
Date :	"11/11/2025"
Time :	"3:57:42 PM"
Samplename : 	""
SampMemo(0) : 	""
SampMemo(1) : 	""
SampMemo(2) : 	""
SampMemo(3) : 	""
SampMemo(4) : 	""
SampMemo(5) : 	""
SampMemo(6) : 	""
SampMemo(7) : 	""
SampMemo(8) : 	""
SampMemo(9) : 	""
Temperature [K] :	     298.16000
Viscosity [cp]  :	       0.89000
Refractive Index:	       1.33200
Wavelength [nm] :	       0.00000
Angle [°]       :	       0.00000
Duration [s]    :	         1
FloatDur [ms]   :	          944
Stop TP [ms]   :	     67864
Runs            :	         1
Mode            :	"A-CH0+1  A-CH2+3 "
MeanCR0 [kHz]   :	      49.33039
MeanCR1 [kHz]   :	      51.38503
MeanCR2 [kHz]   :	      52.39275
MeanCR3 [kHz]   :	      49.90048

"Correlation"
  3.12500E-006	 -1.00000E+000	 -1.00000E+000	 -1.00000E+000	 -1.00000E+000
  6.25000E-006	 -1.00000E+000	 -1.00000E+000	 -1.00000E+000	 -1.00000E+000
  9.37500E-006	 -1.00000E+000	 -1.00000E+000	 -1.00000E+000	 -1.00000E+000
  1.25000E-005	 -1.00000E+000	 -1.00000E+000	 -1.00000E+000	 -1.00000E+000
  1.56250E-005	 -1.00000E+000	 -1.00000E+000	 -1.00000E+000	 -1.00000E+000
  1.87500E-005	 -1.00000E+000	 -1.00000E+000	 -1.00000E+000	 -1.00000E+000
  2.18750E-005	 -5.81986E-001	  6.69466E-001	  1.47056E+000	 -7.27650E-001
  2.50000E-005	  1.23764E+001	  1.20989E+001	  1.25881E+001	  2.69159E+001
  2.81250E-005	  2.20477E+000	  2.21051E+000	  2.70584E+000	  8.25992E+000
  3.12500E-005	  1.50808E+000	  1.18315E+000	  8.52919E-001	  6.35346E+000
  3.43750E-005	  1.09007E+000	  7.97887E-001	  1.22350E+000	  6.35346E+000
  3.75000E-005	  1.64742E+000	  6.69466E-001	  1.84114E+000	  4.58318E+000
  4.06250E-005	  6.72054E-001	  1.05473E+000	  1.59409E+000	  2.67673E+000
  4.37500E-005	  1.22941E+000	  1.43999E+000	  1.34703E+000	  3.76613E+000
  4.68750E-005	  1.09007E+000	  4.12625E-001	  1.11751E-001	  2.40438E+000
  5.00000E-005	  1.36874E+000	  6.69466E-001	  9.76447E-001	  1.99585E+000
  5.62500E-005	  2.54040E-001	  7.33676E-001	  1.03821E+000	  1.92777E+000
  6.25000E-005	  9.50730E-001	  7.97887E-001	  5.44099E-001	  1.51924E+000
  6.87500E-005	  6.02385E-001	  2.84205E-001	  4.20571E-001	  2.06394E+000
  7.50000E-005	  6.72054E-001	  2.19994E-001	  8.52919E-001	  1.57489E-001
  8.12500E-005	  4.63047E-001	  8.62097E-001	  4.82335E-001	  1.31498E+000
  8.75000E-005	  4.63047E-001	  4.76835E-001	  6.05863E-001	  5.66015E-001
  9.37500E-005	  3.93378E-001	  1.43999E+000	  4.20571E-001	  1.17880E+000
  1.00000E-004	  2.88875E-001	  1.02262E+000	  3.89689E-001	  9.06453E-001
  1.12500E-004	  3.93378E-001	  2.84205E-001	  6.05863E-001	  4.63883E-001
  1.25000E-004	  6.72054E-001	  4.44730E-001	  8.22037E-001	  3.61752E-001
  1.37500E-004	  2.54040E-001	  5.41045E-001	  4.51453E-001	  3.61752E-001
  1.50000E-004	  9.15895E-001	  1.23679E-001	  5.13217E-001	  1.07667E+000
  1.62500E-004	  1.84371E-001	  6.05256E-001	  6.36745E-001	  4.97927E-001
  1.75000E-004	  2.19206E-001	  7.33676E-001	  3.58807E-001	  5.31971E-001
  1.87500E-004	  3.58544E-001	  7.65781E-001	  1.11751E-001	  1.00858E+000
  2.00000E-004	  5.67550E-001	  5.41045E-001	  4.82335E-001	  8.72409E-001
  2.25000E-004	  6.19802E-001	  6.05255E-001	  5.28658E-001	  3.78774E-001
  2.50000E-004	  7.06888E-001	  6.21308E-001	  3.74248E-001	  5.48993E-001
  2.75000E-004	  6.37219E-001	  7.49728E-001	  6.52185E-001	  9.06452E-001
  3.00000E-004	  3.06292E-001	  5.24993E-001	  4.05130E-001	  5.83036E-001
  3.25000E-004	  5.15298E-001	  6.37360E-001	  2.97043E-001	  3.10686E-001
  3.50000E-004	  6.37219E-001	  5.89203E-001	  2.97043E-001	  5.31971E-001
  3.75000E-004	  6.19802E-001	  3.48414E-001	  4.66894E-001	  5.31971E-001
  4.00000E-004	  5.50132E-001	  4.84861E-001	  4.12850E-001	  5.06437E-001
  4.50000E-004	  6.63344E-001	  4.44729E-001	  5.44098E-001	  5.06437E-001
  5.00000E-004	  4.63046E-001	  4.84861E-001	  3.04763E-001	  4.72393E-001
  5.50000E-004	  5.24006E-001	  4.04598E-001	  4.59173E-001	  7.02189E-001
  6.00000E-004	  2.36622E-001	  5.08939E-001	  3.35645E-001	  4.97926E-001
  6.50000E-004	  4.02086E-001	  6.21307E-001	  3.12483E-001	  4.55372E-001
  7.00000E-004	  3.93377E-001	  4.76834E-001	  5.20936E-001	  4.97926E-001
  7.50000E-004	  4.71755E-001	  5.00913E-001	  4.74614E-001	  4.72393E-001
  8.00000E-004	  3.54216E-001	  4.72820E-001	  5.28656E-001	  3.91538E-001
  9.00000E-004	  3.45479E-001	  3.84531E-001	  5.13215E-001	  5.10691E-001
  1.00000E-003	  6.15445E-001	  5.97227E-001	  4.51451E-001	  5.70268E-001
  1.10000E-003	  4.28210E-001	  4.40715E-001	  5.13215E-001	  4.08560E-001
  1.20000E-003	  3.10644E-001	  5.41043E-001	  5.05494E-001	  4.76648E-001
  1.30000E-003	  4.32565E-001	  4.44728E-001	  4.78473E-001	  3.95794E-001
  1.40000E-003	  3.10644E-001	  3.68478E-001	  4.63032E-001	  4.63881E-001
  1.50000E-003	  4.63045E-001	  5.08938E-001	  5.59538E-001	  4.59626E-001
  1.60000E-003	  4.21707E-001	  4.92883E-001	  5.09352E-001	  4.59623E-001
  1.80000E-003	  5.71933E-001	  4.80844E-001	  3.64593E-001	  4.83028E-001
  2.00000E-003	  3.99935E-001	  3.84529E-001	  5.61465E-001	  4.40474E-001
  2.20000E-003	  3.80340E-001	  4.20647E-001	  4.95841E-001	  4.06430E-001
  2.40000E-003	  4.45656E-001	  3.40384E-001	  5.20933E-001	  3.38343E-001
  2.60000E-003	  4.10791E-001	  3.48410E-001	  4.20567E-001	  5.12817E-001
  2.80000E-003	  4.60865E-001	  4.46732E-001	  4.37938E-001	  3.23449E-001
  3.00000E-003	  3.21528E-001	  4.12621E-001	  4.90051E-001	  4.38346E-001
  3.20000E-003	  3.54210E-001	  4.19639E-001	  4.43723E-001	  3.95787E-001
  3.60000E-003	  4.91372E-001	  4.69803E-001	  4.33107E-001	  4.63874E-001
  4.00000E-003	  4.94638E-001	  3.83521E-001	  4.36968E-001	  4.64938E-001
  4.40000E-003	  3.44412E-001	  3.93553E-001	  4.24422E-001	  3.70254E-001
  4.80000E-003	  4.04285E-001	  3.38373E-001	  3.96435E-001	  3.60679E-001
  5.20000E-003	  4.10816E-001	  4.03586E-001	  4.07051E-001	  4.25575E-001
  5.60000E-003	  4.01019E-001	  3.46399E-001	  4.36968E-001	  3.61743E-001
  6.00000E-003	  3.65066E-001	  3.66465E-001	  4.28282E-001	  3.46849E-001
  6.40000E-003	  3.69985E-001	  3.57426E-001	  3.86775E-001	  3.50031E-001
  7.20000E-003	  3.81989E-001	  3.96052E-001	  3.97391E-001	  3.76628E-001
  8.00000E-003	  3.61850E-001	  3.41402E-001	  3.67474E-001	  3.68649E-001
  8.80000E-003	  3.98862E-001	  3.76015E-001	  3.83880E-001	  4.05352E-001
  9.60000E-003	  3.68926E-001	  3.99592E-001	  3.71335E-001	  3.10669E-001
  1.04000E-002	  3.49331E-001	  3.89560E-001	  3.67957E-001	  3.69713E-001
  1.12000E-002	  3.48242E-001	  3.56953E-001	  3.67474E-001	  3.35669E-001
  1.20000E-002	  3.72736E-001	  3.59962E-001	  3.63614E-001	  3.25563E-001
  1.28000E-002	  3.40632E-001	  3.27087E-001	  3.44591E-001	  3.10679E-001
  1.44000E-002	  3.03347E-001	  3.26836E-001	  3.17810E-001	  3.07221E-001
  1.60000E-002	  3.06613E-001	  2.94731E-001	  3.01162E-001	  2.74774E-001
  1.76000E-002	  2.84841E-001	  3.03760E-001	  3.06953E-001	  2.76369E-001
  1.92000E-002	  2.69328E-001	  3.03760E-001	  2.98026E-001	  2.68922E-001
  2.08000E-002	  2.66606E-001	  2.71405E-001	  3.02369E-001	  3.37807E-001
  2.24000E-002	  2.68512E-001	  2.47828E-001	  2.41086E-001	  2.65465E-001
  2.40000E-002	  2.54904E-001	  2.68144E-001	  2.56528E-001	  2.31687E-001
  2.56000E-002	  2.35710E-001	  2.39141E-001	  2.59706E-001	  2.30350E-001
  2.88000E-002	  2.07814E-001	  2.24970E-001	  2.13115E-001	  2.05748E-001
  3.20000E-002	  1.75045E-001	  1.84087E-001	  1.99845E-001	  2.14765E-001
  3.52000E-002	  2.00602E-001	  1.96377E-001	  2.05636E-001	  1.58249E-001
  3.84000E-002	  1.70529E-001	  1.87473E-001	  1.81726E-001	  1.70616E-001
  4.16000E-002	  1.56513E-001	  1.80701E-001	  1.71955E-001	  1.72478E-001
  4.48000E-002	  1.43314E-001	  1.46842E-001	  1.54848E-001	  1.55191E-001
  4.80000E-002	  1.42089E-001	  1.26150E-001	  1.16245E-001	  1.53595E-001
  5.12000E-002	  1.22550E-001	  1.22630E-001	  1.06268E-001	  1.33616E-001
  5.76000E-002	  1.04928E-001	  1.13851E-001	  1.15860E-001	  1.04692E-001
  6.40000E-002	  9.60832E-002	  7.98019E-002	  1.05243E-001	  9.11080E-002
  7.04000E-002	  8.32241E-002	  7.97392E-002	  9.28764E-002	  7.77426E-002
  7.68000E-002	  6.85509E-002	  5.18976E-002	  8.36469E-002	  5.69963E-002
  8.32000E-002	  7.13405E-002	  6.42508E-002	  6.39600E-002	  5.51785E-002
  8.96000E-002	  6.40375E-002	  4.56897E-002	  7.22628E-002	  6.02320E-002
  9.60000E-002	  4.55994E-002	  4.67557E-002	  6.00780E-002	  4.44067E-002
  1.02400E-001	  5.57925E-002	  4.43809E-002	  4.88360E-002	  3.83415E-002
  1.15200E-001	  4.23888E-002	  2.31105E-002	  4.64832E-002	  3.26336E-002
  1.28000E-001	  1.08528E-002	  1.04223E-002	  3.48101E-002	  1.64521E-002
  1.40800E-001	  2.31119E-002	  1.50210E-002	  3.72415E-002	  9.46964E-003
  1.53600E-001	 -1.24551E-003	  9.63258E-004	  2.16874E-002	  1.07761E-002
  1.66400E-001	  2.14386E-003	  3.87932E-003	  2.68751E-002	  1.71936E-002
  1.79200E-001	  1.03085E-002	  1.45716E-002	  1.35438E-002	  1.35359E-002
  1.92000E-001	  1.28722E-002	  1.20004E-002	  3.91187E-003	  9.09207E-003
  2.04800E-001	  1.17228E-002	  1.13621E-002	  1.35336E-002	  1.16776E-002
  2.30400E-001	  7.65275E-003	  1.40489E-004	  1.33483E-002	  1.27135E-002
  2.56000E-001	  2.92406E-003	 -1.52649E-003	 -1.38465E-003	 -6.53210E-003
  2.81600E-001	  9.47746E-003	  4.68261E-003	  5.00119E-003	 -7.95453E-003
  3.07200E-001	 -5.30426E-003	  5.47164E-003	  7.15298E-003	  4.61490E-003
  3.32800E-001	 -6.11640E-003	  5.06888E-004	  4.34209E-003	  6.21355E-003
  3.58400E-001	  7.68325E-004	 -5.56097E-003	  1.52313E-002	  5.66960E-003
  3.84000E-001	 -5.38931E-003	 -1.47946E-003	  4.89430E-003	  3.89990E-003
  4.09600E-001	 -4.35928E-003	 -5.05160E-004	  3.53155E-003	  9.34653E-003
  4.60800E-001	  8.38751E-004	 -9.71037E-003	 -1.03084E-004	 -4.63822E-003
  5.12000E-001	 -2.37655E-003	 -3.60127E-003	  9.87370E-003	  5.41994E-003
  5.63200E-001	  1.79311E-003	 -6.67236E-003	 -1.54793E-003	  5.28916E-003
  6.14400E-001	 -7.54855E-004	  6.90919E-003	 -5.51412E-003	  4.66042E-003
  6.65600E-001	 -5.06004E-003	  4.28003E-003	 -3.15256E-003	 -8.50481E-003
  7.16800E-001	 -3.92816E-003	  6.50856E-004	 -5.81843E-003	 -1.15086E-002
  7.68000E-001	 -7.48033E-003	 -9.17858E-003	 -1.17095E-003	  1.39924E-003
  8.19200E-001	 -2.58268E-003	 -6.44374E-003	  3.64934E-003	  2.35344E-003
  9.21600E-001	  7.52135E-004	  1.84141E-003	 -3.02383E-004	  6.58019E-003
  1.02400E+000	  2.28609E-003	  2.38366E-003	  1.27438E-003	  5.14860E-003
  1.12640E+000	  7.43749E-003	  5.63624E-003	  1.77113E-003	  8.36325E-004
  1.22880E+000	  4.55086E-003	 -6.53738E-003	  3.04394E-003	 -1.89698E-003
  1.33120E+000	  5.51031E-003	 -3.63600E-003	  4.50096E-003	 -3.86199E-003
  1.43360E+000	  5.18241E-003	 -1.16120E-002	 -2.09700E-003	 -2.50617E-003
  1.53600E+000	  3.05365E-005	  1.27736E-003	 -2.49614E-003	 -8.92444E-004
  1.63840E+000	  3.47270E-003	  1.72025E-003	  5.69724E-004	  7.91099E-003
  1.84320E+000	 -4.27122E-003	 -5.41937E-004	 -5.28224E-003	  6.09944E-003
  2.04800E+000	 -1.39400E-003	 -3.66850E-003	 -4.38251E-003	 -5.08687E-003
  2.25280E+000	 -1.11862E-003	  2.40016E-003	 -6.02508E-004	  6.02710E-004
  2.45760E+000	 -3.65491E-003	 -5.92208E-004	  7.55993E-004	 -5.67928E-003
  2.66240E+000	 -3.27020E-003	  1.62735E-003	 -2.70537E-003	  3.28327E-003
  2.86720E+000	 -3.97699E-004	 -2.80783E-003	 -8.93700E-003	  2.63880E-003
  3.07200E+000	  5.58227E-003	 -2.58287E-003	 -1.46100E-003	  2.07976E-003
  3.27680E+000	  3.11359E-003	  1.47487E-003	 -2.00074E-003	  3.33097E-003
  3.68640E+000	 -6.18298E-006	 -7.20029E-004	 -8.00972E-004	  9.69400E-004
  4.09600E+000	  3.15990E-003	  3.56370E-003	 -3.65358E-003	 -1.22167E-003
  4.50560E+000	  3.66880E-003	 -2.50387E-003	 -1.69896E-003	 -4.15271E-003
  4.91520E+000	  3.66024E-004	  2.18166E-003	 -2.63505E-005	 -6.01109E-003
  5.32480E+000	  1.32674E-003	 -2.71643E-003	 -2.65020E-003	  1.88108E-003
  5.73440E+000	  6.51181E-003	  2.10250E-003	  9.36079E-005	 -8.16158E-005
  6.14400E+000	  2.92560E-003	  5.92844E-003	  6.51530E-004	 -3.19252E-003
  6.55360E+000	 -1.88250E-003	 -1.98115E-003	  1.23660E-003	 -3.50975E-003
  7.37280E+000	 -2.33045E-004	 -1.71698E-004	  2.60578E-003	  7.42311E-004
  8.19200E+000	 -2.44317E-003	 -1.17461E-004	  6.79219E-004	  8.25456E-004
  9.01120E+000	  1.59131E-003	  4.13276E-003	 -3.68798E-004	  1.42761E-003
  9.83040E+000	  3.12202E-003	  6.09667E-005	  9.32134E-004	 -1.49354E-004
  1.06496E+001	  7.03175E-004	  2.39211E-003	 -1.25260E-003	 -6.83503E-004
  1.14688E+001	 -9.95606E-004	  2.34962E-003	  2.54898E-004	 -1.74411E-003
  1.22880E+001	  6.84866E-004	 -2.13092E-003	  2.43526E-004	  3.61802E-003
  1.31072E+001	  1.55764E-003	  1.15116E-003	 -5.34247E-005	  3.21397E-004
  1.47456E+001	 -1.85864E-003	  1.21811E-003	 -2.90709E-003	 -4.43215E-004
  1.63840E+001	 -7.69580E-004	  1.37738E-004	  1.70720E-003	 -2.98060E-003
  1.80224E+001	  1.98109E-004	  2.84495E-004	 -7.61234E-004	  1.20684E-004
  1.96608E+001	  6.92848E-004	  7.41681E-004	 -2.99176E-003	  1.39051E-003
  2.12992E+001	 -3.53125E-003	  1.06814E-003	  6.18296E-004	  2.08917E-003
  2.29376E+001	 -1.23995E-003	 -6.60746E-004	  2.50597E-003	  2.35757E-003
  2.45760E+001	 -1.39661E-004	 -1.21724E-003	  9.35704E-004	 -1.92234E-003
  2.62144E+001	 -8.08481E-004	  1.18747E-003	 -6.43132E-004	 -1.93713E-003
  2.94912E+001	 -8.60789E-004	  1.89525E-003	 -1.19331E-003	  4.95365E-004
  3.27680E+001	 -1.33026E-004	  1.46662E-003	  1.26568E-003	  8.01283E-004
  3.60448E+001	  1.15991E-003	 -4.06994E-004	 -5.77562E-004	 -2.85798E-003
  3.93216E+001	 -2.45199E-005	  6.89872E-004	 -1.55492E-004	 -1.72466E-003
  4.25984E+001	  1.41839E-004	  1.46867E-004	 -4.76548E-004	  1.84865E-003
  4.58752E+001	 -9.58776E-004	  6.38737E-004	 -9.15881E-005	 -9.56889E-006
  4.91520E+001	 -1.23033E-003	  8.35097E-004	 -2.01247E-003	  3.30846E-004
  5.24288E+001	  2.79611E-004	  5.12621E-004	 -1.12280E-003	 -1.60496E-004
  5.89824E+001	  5.95010E-004	  1.01806E-003	  1.88866E-004	 -1.77391E-003
  6.55360E+001	  2.57606E-004	  9.46379E-004	 -2.25290E-005	 -1.05734E-003
  7.20896E+001	  9.31976E-004	 -6.60213E-004	  5.85055E-004	  5.61963E-006
  7.86432E+001	  1.91631E-004	  1.69550E-004	 -5.42215E-004	  3.78763E-004
  8.51968E+001	  4.97287E-004	 -8.49043E-006	  6.79963E-004	  1.15702E-003
  9.17504E+001	 -8.82397E-004	 -1.40902E-004	 -2.77540E-004	  5.23749E-004
  9.83040E+001	 -6.71748E-004	  4.20560E-004	  8.54935E-004	  1.35292E-004
  1.04858E+002	 -5.80297E-004	  5.69304E-004	  4.00098E-004	 -4.47082E-004
  1.17965E+002	  1.04761E-003	  7.36079E-004	 -7.98309E-005	 -5.53063E-004
  1.31072E+002	  3.76882E-004	  1.05937E-003	 -7.10419E-005	  1.19555E-003
  1.44179E+002	  2.67383E-004	  3.16996E-004	 -1.78070E-003	 -8.80684E-004
  1.57286E+002	 -6.95088E-005	 -1.78612E-004	  1.11231E-004	 -2.43451E-004
  1.70394E+002	 -5.60888E-004	 -1.56657E-004	 -6.16794E-004	 -2.99946E-004
  1.83501E+002	  1.03212E-003	 -4.36283E-004	  6.51464E-004	 -6.30767E-004
  1.96608E+002	  1.63326E-003	 -7.49969E-004	  1.88795E-005	 -2.37677E-004
  2.09715E+002	  5.29352E-004	 -1.18984E-003	 -2.18248E-004	  2.99493E-004
  2.35930E+002	  2.28846E-005	  2.21573E-004	  3.61110E-004	  3.66188E-008
  2.62144E+002	  4.57782E-004	 -1.01126E-004	  4.29926E-004	 -2.79861E-004
  2.88358E+002	 -1.62943E-004	 -5.44918E-004	  1.03995E-004	  5.79272E-004
  3.14573E+002	  1.24405E-005	 -1.37178E-003	 -7.54130E-005	  3.90022E-004
  3.40787E+002	 -2.90398E-004	 -1.55947E-003	  3.90523E-004	 -7.27967E-004
  3.67002E+002	  2.39311E-004	 -3.38558E-004	 -2.91550E-005	 -1.84621E-004
  3.93216E+002	  5.97760E-004	 -3.80729E-004	 -5.34691E-004	 -2.27869E-005

"Count Rate"
       0.01311	      48.52295	      48.67554	      53.71094	      46.99707
       0.02621	      49.74365	      51.19324	      53.55835	      47.60742
       0.03932	      47.68372	      52.26135	      50.65918	      45.70007
       0.05243	      48.21777	      57.37305	      51.26953	      47.07336
       0.06554	      47.83630	      54.16870	      49.05701	      55.16052
       0.07864	      47.22595	      53.55835	      54.62646	      47.76001
       0.09175	      44.02161	      54.93164	      52.71912	      49.36218
       0.10486	      46.38672	      56.38123	      49.51477	      51.57471
       0.11796	      49.36218	      51.49841	      50.04883	      52.03247
       0.13107	      45.70007	      50.73547	      51.65100	      49.89624
       0.14418	      45.24231	      52.71912	      46.15784	      46.69189
       0.15729	      47.22595	      55.46570	      51.95618	      51.11694
       0.17039	      49.74365	      53.02429	      50.43030	      46.31042
       0.18350	      46.08154	      46.92078	      52.18506	      56.07605
       0.19661	      51.19324	      52.41394	      50.73547	      50.27771
       0.20972	      48.44666	      49.43848	      53.17688	      41.80908
       0.22282	      46.76819	      56.83899	      48.21777	      48.29407
       0.23593	      49.05701	      50.12512	      53.93982	      51.80359
       0.24904	      46.84448	      48.52295	      54.93164	      52.26135
       0.26214	      42.87720	      54.16870	      46.92078	      45.24231
       0.27525	      49.28589	      50.88806	      57.52563	      51.34583
       0.28836	      43.48755	      50.27771	      48.21777	      46.99707
       0.30147	      47.91260	      47.68372	      53.86353	      47.07336
       0.31457	      53.32947	      44.09790	      53.71094	      57.22046
       0.32768	      46.46301	      48.52295	      45.16602	      52.26135
       0.34079	      48.52295	      43.33496	      48.21777	      48.90442
       0.35389	      50.43030	      49.66736	      52.94800	      49.28589
       0.36700	      47.68372	      52.56653	      54.01611	      47.76001
       0.38011	      45.54749	      47.30225	      50.73547	      50.35400
       0.39322	      51.34583	      49.81995	      49.97253	      48.21777
       0.40632	      46.46301	      53.71094	      49.13330	      54.55017
       0.41943	      48.21777	      46.38672	      48.98071	      45.16602
       0.43254	      57.29675	      48.82813	      50.81177	      46.15784
       0.44564	      43.18237	      43.79272	      47.68372	      49.28589
       0.45875	      45.01343	      49.89624	      54.01611	      47.60742
       0.47186	      49.59106	      46.76819	      55.38940	      48.44666
       0.48497	      48.75183	      51.34583	      58.51746	      48.67554
       0.49807	      51.95618	      48.52295	      48.44666	      46.53931
       0.51118	      47.68372	      49.05701	      49.81995	      51.19324
       0.52429	      46.00525	      50.81177	      44.40308	      43.71643
       0.53740	      43.64014	      49.74365	      56.61011	      52.10876
       0.55050	      44.40308	      49.51477	      51.11694	      45.16602
       0.56361	      46.69189	      45.39490	      63.01880	      46.84448
       0.57672	      52.10876	      49.13330	      55.77087	      48.59924
       0.58982	      51.19324	      49.28589	      51.19324	      55.38940
       0.60293	      48.98071	      54.85535	      54.16870	      50.04883
       0.61604	      46.61560	      52.71912	      51.80359	      53.63464
       0.62915	      53.93982	      49.89624	      44.70825	      55.00793
       0.64225	      57.90710	      60.27222	      52.56653	      50.27771
       0.65536	      40.81726	      54.47388	      50.04883	      43.02979
       0.66847	      46.84448	      50.20142	      51.11694	      45.24231
       0.68157	      56.45752	      51.57471	      46.23413	      48.98071
       0.69468	      55.77087	      49.05701	      55.00793	      48.67554
       0.70779	      48.75183	      49.43848	      47.30225	      56.30493
       0.72090	      47.76001	      48.52295	      52.79541	      48.90442
       0.73400	      46.69189	      51.26953	      55.54199	      50.58289
       0.74711	      45.16602	      49.59106	      49.81995	      49.13330
