ALV-7004/USB-FAST
Date :	"11/11/2025"
Time :	"4:00:37 PM"
Samplename : 	""
SampMemo(0) : 	""
SampMemo(1) : 	""
SampMemo(2) : 	""
SampMemo(3) : 	""
SampMemo(4) : 	""
SampMemo(5) : 	""
SampMemo(6) : 	""
SampMemo(7) : 	""
SampMemo(8) : 	""
SampMemo(9) : 	""
Temperature [K] :	     298.16000
Viscosity [cp]  :	       0.89000
Refractive Index:	       1.33200
Wavelength [nm] :	       0.00000
Angle [°]       :	       0.00000
Duration [s]    :	         1
FloatDur [ms]   :	          944
Stop TP [ms]   :	     68636
Runs            :	         1
Mode            :	"A-CH0+1  A-CH2+3 "
MeanCR0 [kHz]   :	      54.79071
MeanCR1 [kHz]   :	      55.27284
MeanCR2 [kHz]   :	      54.55547
MeanCR3 [kHz]   :	      54.29162

"Correlation"
  3.12500E-006	 -1.00000E+000	 -1.00000E+000	 -1.00000E+000	 -1.00000E+000
  6.25000E-006	 -1.00000E+000	 -1.00000E+000	 -1.00000E+000	 -1.00000E+000
  9.37500E-006	 -1.00000E+000	 -1.00000E+000	 -1.00000E+000	 -1.00000E+000
  1.25000E-005	 -1.00000E+000	 -1.00000E+000	 -1.00000E+000	 -1.00000E+000
  1.56250E-005	 -1.00000E+000	 -1.00000E+000	 -1.00000E+000	 -1.00000E+000
  1.87500E-005	 -1.00000E+000	 -1.00000E+000	 -1.00000E+000	 -1.00000E+000
  2.18750E-005	 -7.74096E-001	  5.53860E-001	  1.50642E+000	 -8.84962E-001
  2.50000E-005	  1.40226E+001	  1.07649E+001	  1.28992E+001	  2.41934E+001
  2.81250E-005	  3.74398E+000	  2.55168E+000	  1.62035E+000	  7.97298E+000
  3.12500E-005	  1.59789E+000	  6.64850E-001	  8.22850E-001	  4.29176E+000
  3.43750E-005	  1.59789E+000	  1.33079E+000	  1.73427E+000	  3.48649E+000
  3.75000E-005	  4.68375E-001	  8.86830E-001	  1.05071E+000	  5.44214E+000
  4.06250E-005	  1.03313E+000	  6.64850E-001	  1.39249E+000	  2.45114E+000
  4.37500E-005	  4.68375E-001	  8.86830E-001	  1.27856E+000	  2.91130E+000
  4.68750E-005	  1.03313E+000	  7.75840E-001	  1.05071E+000	  2.79626E+000
  5.00000E-005	  5.24851E-001	  7.20345E-001	  1.10767E+000	  2.16355E+000
  5.62500E-005	  4.68375E-001	  4.98365E-001	  8.79814E-001	  2.04851E+000
  6.25000E-005	  6.37803E-001	  7.75840E-001	  1.05071E+000	  1.76092E+000
  6.87500E-005	  9.76659E-001	  2.76385E-001	  2.53209E-001	  9.55649E-001
  7.50000E-005	  5.81327E-001	  9.97820E-001	  7.08922E-001	  1.35828E+000
  8.12500E-005	  6.37803E-001	  7.20345E-001	  9.36778E-001	  1.76092E+000
  8.75000E-005	  8.63707E-001	 -1.12080E-001	  8.79814E-001	  1.07069E+000
  9.37500E-005	  1.54142E+000	  3.87375E-001	  4.81066E-001	  1.18572E+000
  1.00000E-004	  7.50755E-001	  1.37647E-001	  7.94368E-001	  1.21448E+000
  1.12500E-004	  6.09565E-001	  9.42325E-001	  2.81691E-001	  8.11851E-001
  1.25000E-004	  6.66041E-001	  5.81607E-001	  7.37404E-001	  7.25572E-001
  1.37500E-004	  6.66041E-001	 -2.88375E-002	  5.09547E-001	  8.11851E-001
  1.50000E-004	  4.68375E-001	  6.09355E-001	  3.10173E-001	  6.96813E-001
  1.62500E-004	  6.37803E-001	  5.53860E-001	  1.67763E-001	  5.81775E-001
  1.75000E-004	  5.53089E-001	  4.15122E-001	  9.93742E-001	  5.24255E-001
  1.87500E-004	  3.83661E-001	  3.04132E-001	 -3.12908E-003	  6.10534E-001
  2.00000E-004	  7.36635E-001	  5.12238E-001	  2.81691E-001	  6.82433E-001
  2.25000E-004	  5.95446E-001	  5.67733E-001	  4.24101E-001	  5.81774E-001
  2.50000E-004	  7.36635E-001	  5.39986E-001	  4.38342E-001	  6.39293E-001
  2.75000E-004	  3.83661E-001	  4.70617E-001	  4.38342E-001	  8.26230E-001
  3.00000E-004	  6.51922E-001	  4.84491E-001	  2.24727E-001	  4.52356E-001
  3.25000E-004	  3.83661E-001	  5.39986E-001	  4.09860E-001	  6.10534E-001
  3.50000E-004	  5.10732E-001	  5.81607E-001	  6.94680E-001	  4.23597E-001
  3.75000E-004	  3.69542E-001	  6.09355E-001	  6.09234E-001	  4.66736E-001
  4.00000E-004	  6.73099E-001	  5.46922E-001	  4.59703E-001	  3.73267E-001
  4.50000E-004	  4.54255E-001	  6.09354E-001	  5.30908E-001	  5.53014E-001
  5.00000E-004	  5.10731E-001	  5.26111E-001	  4.24100E-001	  3.94837E-001
  5.50000E-004	  4.26017E-001	  3.52690E-001	  5.45149E-001	  3.73267E-001
  6.00000E-004	  6.44861E-001	  3.24942E-001	  4.16980E-001	  4.23596E-001
  6.50000E-004	  5.31909E-001	  6.64849E-001	  6.51956E-001	  5.67394E-001
  7.00000E-004	  4.40136E-001	  5.53859E-001	  4.73944E-001	  4.30786E-001
  7.50000E-004	  5.03672E-001	  5.19175E-001	  5.45149E-001	  4.37976E-001
  8.00000E-004	  5.10730E-001	  4.84489E-001	  4.73943E-001	  4.59544E-001
  9.00000E-004	  3.87189E-001	  4.56742E-001	  3.99177E-001	  4.20000E-001
  1.00000E-003	  4.68373E-001	  7.51558E-001	  4.91744E-001	  4.52354E-001
  1.10000E-003	  5.77795E-001	  4.22057E-001	  4.38340E-001	  4.55949E-001
  1.20000E-003	  4.08367E-001	  5.19173E-001	  4.49021E-001	  6.14127E-001
  1.30000E-003	  4.93081E-001	  4.32463E-001	  4.06298E-001	  4.95494E-001
  1.40000E-003	  4.40135E-001	  4.46336E-001	  3.42214E-001	  5.13468E-001
  1.50000E-003	  4.71903E-001	  5.46921E-001	  5.70069E-001	  4.12810E-001
  1.60000E-003	  4.11895E-001	  4.82752E-001	  4.00955E-001	  5.11668E-001
  1.80000E-003	  4.17189E-001	  4.28992E-001	  4.45458E-001	  5.24251E-001
  2.00000E-003	  4.38368E-001	  4.82752E-001	  3.76034E-001	  5.24251E-001
  2.20000E-003	  4.82489E-001	  4.30726E-001	  5.50485E-001	  5.79972E-001
  2.40000E-003	  4.48957E-001	  4.04713E-001	  4.77500E-001	  4.59542E-001
  2.60000E-003	  4.31308E-001	  4.15118E-001	  4.04515E-001	  4.63137E-001
  2.80000E-003	  4.33073E-001	  4.79284E-001	  4.18812E-001	  4.46960E-001
  3.00000E-003	  3.81892E-001	  5.10500E-001	  5.20282E-001	  4.52352E-001
  3.20000E-003	  4.09242E-001	  4.31588E-001	  4.57109E-001	  4.00221E-001
  3.60000E-003	  4.31303E-001	  4.34189E-001	  4.25955E-001	  4.41562E-001
  4.00000E-003	  4.60423E-001	  3.91701E-001	  4.08153E-001	  4.69423E-001
  4.40000E-003	  4.41892E-001	  3.83030E-001	  4.25065E-001	  5.11663E-001
  4.80000E-003	  4.17184E-001	  4.45462E-001	  4.14384E-001	  3.70563E-001
  5.20000E-003	  3.90711E-001	  4.65405E-001	  4.05483E-001	  4.22689E-001
  5.60000E-003	  4.04830E-001	  3.97771E-001	  4.66900E-001	  4.60436E-001
  6.00000E-003	  4.70130E-001	  4.38525E-001	  4.32186E-001	  3.96626E-001
  6.40000E-003	  4.28205E-001	  4.44179E-001	  3.72984E-001	  4.43799E-001
  7.20000E-003	  3.45257E-001	  3.87817E-001	  4.32204E-001	  3.88078E-001
  8.00000E-003	  4.22497E-001	  3.73943E-001	  3.57434E-001	  4.47844E-001
  8.80000E-003	  3.85434E-001	  4.17298E-001	  3.80132E-001	  4.16838E-001
  9.60000E-003	  3.69550E-001	  3.87383E-001	  3.94374E-001	  4.30318E-001
  1.04000E-002	  3.60726E-001	  4.03858E-001	  3.81912E-001	  3.84933E-001
  1.12000E-002	  3.76169E-001	  3.88684E-001	  3.52983E-001	  3.96616E-001
  1.20000E-002	  3.63814E-001	  3.72642E-001	  3.73011E-001	  3.67408E-001
  1.28000E-002	  3.75073E-001	  3.57258E-001	  3.33408E-001	  3.71910E-001
  1.44000E-002	  3.58748E-001	  3.93000E-001	  3.63228E-001	  3.60451E-001
  1.60000E-002	  3.36466E-001	  3.53764E-001	  3.27623E-001	  3.79324E-001
  1.76000E-002	  3.23671E-001	  3.56365E-001	  3.86593E-001	  3.94208E-001
  1.92000E-002	  3.42644E-001	  3.75875E-001	  3.56774E-001	  3.67245E-001
  2.08000E-002	  3.35363E-001	  3.26017E-001	  3.34744E-001	  3.52190E-001
  2.24000E-002	  3.35584E-001	  3.50296E-001	  3.49431E-001	  3.52640E-001
  2.40000E-002	  3.38452E-001	  3.27317E-001	  3.29180E-001	  3.17838E-001
  2.56000E-002	  3.11858E-001	  3.13000E-001	  3.30060E-001	  3.22711E-001
  2.88000E-002	  2.90043E-001	  3.17010E-001	  3.28836E-001	  3.49087E-001
  3.20000E-002	  2.89626E-001	  2.99235E-001	  2.96842E-001	  3.31336E-001
  3.52000E-002	  2.33589E-001	  3.07689E-001	  2.87607E-001	  2.98979E-001
  3.84000E-002	  2.65885E-001	  2.64659E-001	  2.66800E-001	  2.93500E-001
  4.16000E-002	  2.54413E-001	  2.67236E-001	  2.91056E-001	  2.61416E-001
  4.48000E-002	  2.39522E-001	  2.49678E-001	  2.49664E-001	  2.59956E-001
  4.80000E-002	  2.04003E-001	  2.48811E-001	  2.57008E-001	  2.36136E-001
  5.12000E-002	  2.05142E-001	  2.14588E-001	  2.40069E-001	  2.32787E-001
  5.76000E-002	  1.98193E-001	  2.12932E-001	  2.24324E-001	  2.12707E-001
  6.40000E-002	  1.73871E-001	  2.11383E-001	  1.81595E-001	  2.07594E-001
  7.04000E-002	  1.69017E-001	  2.04013E-001	  1.78090E-001	  1.85852E-001
  7.68000E-002	  1.54181E-001	  1.68808E-001	  1.62679E-001	  1.71268E-001
  8.32000E-002	  1.49990E-001	  1.59377E-001	  1.57750E-001	  1.34042E-001
  8.96000E-002	  1.50353E-001	  1.38837E-001	  1.33570E-001	  1.51009E-001
  9.60000E-002	  1.21950E-001	  1.14611E-001	  1.35907E-001	  1.41672E-001
  1.02400E-001	  1.09752E-001	  1.22509E-001	  1.12813E-001	  1.24905E-001
  1.15200E-001	  1.00893E-001	  9.41588E-002	  9.93975E-002	  1.17418E-001
  1.28000E-001	  7.53765E-002	  7.82854E-002	  9.29153E-002	  1.11876E-001
  1.40800E-001	  7.07640E-002	  8.04597E-002	  7.60489E-002	  7.41524E-002
  1.53600E-001	  7.47702E-002	  6.42620E-002	  6.84258E-002	  7.95969E-002
  1.66400E-001	  4.20318E-002	  4.96227E-002	  5.91335E-002	  6.25675E-002
  1.79200E-001	  4.33684E-002	  4.24889E-002	  4.48333E-002	  5.54710E-002
  1.92000E-001	  4.00661E-002	  4.12552E-002	  3.93601E-002	  4.34432E-002
  2.04800E-001	  3.65537E-002	  3.26574E-002	  3.51064E-002	  4.39110E-002
  2.30400E-001	  2.65142E-002	  1.81146E-002	  3.34507E-002	  3.51939E-002
  2.56000E-001	  2.25913E-002	  1.78631E-002	  3.05212E-002	  1.90946E-002
  2.81600E-001	  1.51398E-002	  1.12548E-002	  2.52897E-002	  1.04497E-002
  3.07200E-001	  1.36366E-002	  9.48307E-003	  2.16663E-002	  1.14926E-002
  3.32800E-001	  1.80774E-002	  1.46922E-002	  1.76872E-002	  2.63098E-002
  3.58400E-001	  1.44975E-002	  7.45938E-003	  1.64929E-002	  1.89482E-002
  3.84000E-001	  5.20773E-003	  8.94855E-003	  1.90587E-002	  7.94766E-003
  4.09600E-001	  4.30079E-004	  9.33384E-003	  1.24607E-002	  2.99206E-003
  4.60800E-001	  4.94143E-003	  2.46412E-003	  1.72984E-002	  5.83743E-003
  5.12000E-001	  4.24492E-003	 -2.82991E-004	  9.39160E-003	 -7.48534E-003
  5.63200E-001	  3.45751E-003	 -7.06699E-003	 -1.42405E-003	 -6.76851E-003
  6.14400E-001	 -3.56153E-003	 -9.48873E-004	  5.33961E-003	 -4.16814E-003
  6.65600E-001	 -8.57395E-003	  2.64949E-003	  1.66887E-003	 -4.24059E-003
  7.16800E-001	 -1.16298E-002	 -3.86056E-003	 -3.50171E-003	  1.79051E-003
  7.68000E-001	 -1.29379E-002	 -2.64004E-004	  5.99021E-003	  5.59958E-004
  8.19200E-001	 -1.32602E-002	 -3.87740E-003	  8.54161E-003	 -5.23639E-003
  9.21600E-001	 -6.33213E-003	 -1.13547E-003	  5.25720E-003	 -8.52324E-003
  1.02400E+000	 -5.88031E-003	  1.41305E-003	  2.16683E-003	 -5.77444E-003
  1.12640E+000	 -9.83764E-003	 -2.20198E-003	  2.60776E-003	 -8.92617E-003
  1.22880E+000	 -1.66445E-002	  1.09601E-003	 -1.14273E-003	 -9.36079E-003
  1.33120E+000	 -4.90735E-003	  4.93398E-003	 -1.71046E-003	 -1.20301E-002
  1.43360E+000	  4.08597E-004	  5.67392E-003	  1.17514E-002	 -8.66629E-003
  1.53600E+000	  2.48863E-003	 -1.18151E-003	  1.27926E-002	 -1.19559E-002
  1.63840E+000	  4.84326E-003	 -2.25012E-003	  6.13267E-003	 -1.05105E-002
  1.84320E+000	  2.51330E-003	  4.14866E-003	 -1.34270E-003	  2.28504E-003
  2.04800E+000	  1.66758E-003	 -2.86536E-003	 -7.59082E-003	  8.36786E-004
  2.25280E+000	 -1.36724E-003	 -2.81012E-003	 -9.06173E-004	  3.15360E-004
  2.45760E+000	  3.92188E-003	  1.40429E-004	 -3.34276E-003	  7.98407E-003
  2.66240E+000	  5.40137E-003	  4.86269E-003	 -3.50516E-004	  9.79381E-003
  2.86720E+000	 -1.68054E-003	 -1.56701E-003	 -1.15907E-002	  2.34507E-003
  3.07200E+000	 -3.61569E-003	  6.84073E-003	 -2.38733E-003	  4.09280E-004
  3.27680E+000	 -1.66492E-003	 -1.81932E-003	 -2.82412E-003	  3.70762E-003
  3.68640E+000	 -1.23189E-003	 -1.05050E-003	 -1.92483E-003	  4.18997E-003
  4.09600E+000	  4.23563E-003	 -1.23757E-003	 -5.79332E-005	  6.15713E-004
  4.50560E+000	  2.70733E-003	  5.67653E-004	  8.51205E-003	 -4.54385E-003
  4.91520E+000	  8.07481E-004	 -6.11698E-003	  4.24635E-003	 -4.48162E-004
  5.32480E+000	  5.44803E-003	  1.09853E-003	  7.93235E-003	  3.07912E-003
  5.73440E+000	  3.63181E-003	  2.72886E-003	 -2.30319E-004	 -1.54640E-003
  6.14400E+000	  1.39746E-004	 -6.90524E-004	  1.01379E-002	  4.43564E-003
  6.55360E+000	  3.11062E-003	 -1.10392E-003	  2.15460E-003	 -7.01648E-005
  7.37280E+000	  2.37798E-003	 -4.34053E-003	  1.32278E-003	 -6.36084E-004
  8.19200E+000	  8.13383E-004	 -3.17331E-003	  6.45141E-003	  5.02746E-003
  9.01120E+000	 -1.08497E-004	  1.60799E-004	  2.53732E-003	  3.90441E-003
  9.83040E+000	 -1.15843E-003	  4.07656E-004	 -7.98545E-004	 -4.28968E-006
  1.06496E+001	  3.96911E-003	 -4.13942E-003	 -3.02436E-003	  3.25989E-003
  1.14688E+001	  4.11259E-003	  1.76033E-003	  4.84536E-003	 -1.27604E-003
  1.22880E+001	 -2.17788E-003	 -5.64711E-004	  1.58538E-004	  2.47952E-005
  1.31072E+001	 -1.72395E-003	 -1.76039E-003	 -2.36831E-004	 -2.17398E-003
  1.47456E+001	 -3.61638E-003	 -8.50227E-004	 -6.97089E-004	 -5.12677E-003
  1.63840E+001	 -1.17149E-003	  1.05801E-004	 -3.93235E-004	 -1.10369E-003
  1.80224E+001	  4.63325E-003	 -9.94828E-004	  6.08263E-004	  4.80101E-003
  1.96608E+001	  2.62296E-003	 -2.44792E-004	 -3.32406E-003	 -3.96302E-004
  2.12992E+001	 -1.52898E-003	  1.12251E-003	 -5.69584E-003	  1.39714E-003
  2.29376E+001	 -1.23465E-004	  1.22661E-003	 -1.76865E-004	 -1.12300E-003
  2.45760E+001	  1.98980E-003	 -1.14307E-003	 -1.94017E-003	 -9.98930E-004
  2.62144E+001	  4.41477E-004	  8.53535E-004	 -3.16861E-003	  1.26934E-003
  2.94912E+001	 -1.81605E-003	  1.27042E-003	 -8.51580E-005	  8.96551E-004
  3.27680E+001	  3.49252E-004	 -1.31412E-004	 -5.99987E-004	 -1.23677E-004
  3.60448E+001	 -2.10735E-003	 -2.21382E-003	 -2.57417E-003	  4.45461E-004
  3.93216E+001	 -1.42063E-003	 -3.12825E-004	 -3.42969E-003	  8.49047E-004
  4.25984E+001	 -2.82761E-004	  4.63349E-004	  5.06936E-004	 -9.70084E-004
  4.58752E+001	 -1.63435E-003	  1.94440E-003	 -8.98474E-004	  9.40556E-004
  4.91520E+001	 -1.16154E-003	  2.13773E-003	  1.89112E-003	 -1.27547E-003
  5.24288E+001	 -9.69337E-004	  3.03603E-003	  1.90454E-003	 -1.30989E-003
  5.89824E+001	 -1.41545E-003	 -1.11399E-003	  6.11501E-005	 -2.89173E-004
  6.55360E+001	 -2.27836E-004	 -4.21653E-005	  2.24224E-004	  1.99338E-003
  7.20896E+001	  1.18440E-004	 -2.48025E-004	  1.69893E-003	  7.52400E-004
  7.86432E+001	  1.80363E-004	  1.18183E-003	 -1.78870E-003	 -7.85201E-004
  8.51968E+001	 -9.61191E-004	  4.41061E-004	 -5.40979E-004	 -1.04451E-003
  9.17504E+001	 -1.49307E-003	 -1.15970E-003	 -8.73218E-004	 -1.86694E-003
  9.83040E+001	 -3.00897E-004	  2.63990E-003	  2.11586E-003	 -2.00369E-004
  1.04858E+002	 -8.52847E-004	 -1.13127E-003	 -1.92838E-004	 -3.29424E-004
  1.17965E+002	 -7.60893E-004	 -1.42876E-003	 -6.63501E-004	  8.41741E-004
  1.31072E+002	  5.33928E-004	  1.55493E-005	  1.51261E-003	 -5.81775E-004
  1.44179E+002	  1.99811E-003	 -4.49184E-004	  4.45552E-004	  5.50017E-005
  1.57286E+002	  9.59322E-005	 -1.74282E-003	 -2.20022E-003	 -1.75585E-004
  1.70394E+002	 -5.12942E-005	 -2.29388E-004	  3.39233E-004	  6.62131E-004
  1.83501E+002	  7.67189E-004	 -1.57574E-005	  1.89851E-003	 -4.63649E-004
  1.96608E+002	 -2.77752E-004	 -1.12408E-003	 -9.66521E-004	 -6.51488E-004
  2.09715E+002	  7.48694E-005	 -3.53414E-004	 -9.69707E-004	 -1.24172E-003
  2.35930E+002	 -1.00328E-003	 -1.72913E-004	  1.00290E-003	  2.11810E-005
  2.62144E+002	 -7.84204E-004	  4.85395E-004	  2.83886E-004	 -2.21015E-003
  2.88358E+002	  1.21486E-003	  9.50504E-004	  2.42069E-004	 -7.41981E-004
  3.14573E+002	  1.10012E-004	  4.89715E-004	 -5.83371E-004	  8.26583E-004
  3.40787E+002	  1.41821E-003	  9.98759E-004	  8.28649E-004	  6.46444E-004
  3.67002E+002	 -1.30539E-003	  5.81588E-004	 -3.68684E-004	 -3.10636E-005
  3.93216E+002	 -3.46126E-004	 -3.17154E-004	 -9.87357E-004	 -1.44217E-003

"Count Rate"
       0.01311	      54.55017	      61.03516	      47.60742	      54.16870
       0.02621	      52.26135	      52.87170	      54.55017	      55.84717
       0.03932	      53.93982	      54.32129	      47.37854	      45.16602
       0.05243	      51.80359	      57.60193	      55.92346	      53.17688
       0.06554	      58.44116	      55.69458	      50.43030	      52.41394
       0.07864	      54.62646	      60.42480	      55.84717	      56.61011
       0.09175	      47.68372	      52.18506	      53.71094	      53.93982
       0.10486	      48.06519	      51.49841	      58.51746	      55.23682
       0.11796	      53.32947	      58.97522	      60.57739	      53.86353
       0.13107	      60.95886	      55.77087	      53.25317	      61.03516
       0.14418	      56.45752	      60.80627	      50.43030	      57.29675
       0.15729	      55.31311	      48.06519	      59.35669	      53.17688
       0.17039	      54.93164	      52.18506	      55.38940	      47.53113
       0.18350	      51.34583	      56.07605	      54.70276	      55.61829
       0.19661	      47.98889	      49.13330	      52.87170	      48.59924
       0.20972	      50.04883	      55.46570	      52.71912	      54.93164
       0.22282	      52.87170	      55.38940	      44.86084	      48.82813
       0.23593	      52.49023	      53.17688	      49.59106	      53.02429
       0.24904	      53.40576	      58.74634	      56.91528	      58.44116
       0.26214	      52.94800	      48.37036	      61.72180	      59.89075
       0.27525	      51.57471	      56.91528	      45.31860	      46.92078
       0.28836	      48.82813	      57.98340	      56.91528	      49.51477
       0.30147	      54.01611	      68.81714	      55.77087	      51.87988
       0.31457	      59.89075	      51.57471	      46.23413	      47.22595
       0.32768	      51.49841	      57.90710	      50.43030	      51.11694
       0.34079	      48.59924	      50.04883	      52.26135	      53.17688
       0.35389	      54.32129	      63.40027	      55.54199	      52.56653
       0.36700	      55.77087	      53.17688	      62.02698	      61.18774
       0.38011	      55.77087	      54.77905	      45.77637	      53.78723
       0.39322	      62.02698	      55.23682	      45.24231	      51.87988
       0.40632	      58.21228	      50.88806	      45.47119	      50.65918
       0.41943	      48.21777	      52.87170	      59.66187	      55.08423
       0.43254	      43.25867	      53.17688	      58.44116	      63.93433
       0.44564	      53.71094	      50.12512	      51.49841	      58.51746
       0.45875	      56.99158	      49.59106	      47.30225	      55.23682
       0.47186	      54.24500	      52.26135	      58.44116	      51.19324
       0.48497	      53.93982	      55.38940	      51.49841	      57.52563
       0.49807	      56.30493	      55.16052	      54.85535	      56.38123
       0.51118	      52.10876	      52.10876	      53.48206	      55.38940
       0.52429	      59.05151	      51.95618	      47.76001	      50.43030
       0.53740	      54.16870	      55.77087	      58.44116	      57.14417
       0.55050	      48.44666	      54.70276	      54.09241	      48.14148
       0.56361	      50.04883	      62.40845	      58.89893	      57.67822
       0.57672	      51.72729	      50.50659	      45.47119	      62.33215
       0.58982	      49.97253	      51.95618	      54.09241	      55.84717
       0.60293	      57.37305	      59.28040	      58.13599	      58.13599
       0.61604	      49.74365	      55.84717	      56.07605	      52.18506
       0.62915	      51.34583	      55.69458	      48.59924	      54.55017
       0.64225	      56.45752	      61.34033	      50.35400	      44.09790
       0.65536	      61.87439	      50.81177	      43.64014	      56.07605
       0.66847	      58.67004	      53.86353	      45.62378	      56.83899
       0.68157	      60.27222	      58.67004	      64.39209	      52.64282
       0.69468	      49.74365	      61.11145	      59.73816	      46.76819
       0.70779	      65.07874	      49.28589	      51.26953	      50.50659
       0.72090	      54.32129	      44.86084	      52.26135	      53.86353
       0.73400	      46.53931	      60.65369	      55.61829	      57.52563
       0.74711	      51.57471	      50.27771	      60.88257	      54.93164
