ALV-7004/USB-FAST
Date :	"11/11/2025"
Time :	"3:57:45 PM"
Samplename : 	""
SampMemo(0) : 	""
SampMemo(1) : 	""
SampMemo(2) : 	""
SampMemo(3) : 	""
SampMemo(4) : 	""
SampMemo(5) : 	""
SampMemo(6) : 	""
SampMemo(7) : 	""
SampMemo(8) : 	""
SampMemo(9) : 	""
Temperature [K] :	     298.16000
Viscosity [cp]  :	       0.89000
Refractive Index:	       1.33200
Wavelength [nm] :	       0.00000
Angle [°]       :	       0.00000
Duration [s]    :	         1
FloatDur [ms]   :	          944
Stop TP [ms]   :	     67883
Runs            :	         1
Mode            :	"A-CH0+1  A-CH2+3 "
MeanCR0 [kHz]   :	      51.62239
MeanCR1 [kHz]   :	      53.09211
MeanCR2 [kHz]   :	      53.06986
MeanCR3 [kHz]   :	      51.26741

"Correlation"
  3.12500E-006	 -1.00000E+000	 -1.00000E+000	 -1.00000E+000	 -1.00000E+000
  6.25000E-006	 -1.00000E+000	 -1.00000E+000	 -1.00000E+000	 -1.00000E+000
  9.37500E-006	 -1.00000E+000	 -1.00000E+000	 -1.00000E+000	 -1.00000E+000
  1.25000E-005	 -1.00000E+000	 -1.00000E+000	 -1.00000E+000	 -1.00000E+000
  1.56250E-005	 -1.00000E+000	 -1.00000E+000	 -1.00000E+000	 -1.00000E+000
  1.87500E-005	 -1.00000E+000	 -1.00000E+000	 -1.00000E+000	 -1.00000E+000
  2.18750E-005	 -8.72758E-001	  1.04501E+000	  1.52831E+000	 -6.12969E-001
  2.50000E-005	  1.29966E+001	  1.15107E+001	  1.15212E+001	  2.55761E+001
  2.81250E-005	  4.72590E+000	  2.84944E+000	  1.76911E+000	  8.03073E+000
  3.12500E-005	  1.67209E+000	 -3.76400E-002	  9.26334E-001	  5.83755E+000
  3.43750E-005	  1.16312E+000	  1.64649E+000	  2.00990E+000	  6.35359E+000
  3.75000E-005	  1.41760E+000	  1.04501E+000	  1.52831E+000	  2.99932E+000
  4.06250E-005	  1.29036E+000	  3.23245E-001	  1.40792E+000	  4.67646E+000
  4.37500E-005	  1.16312E+000	  8.26550E-002	  3.24355E-001	  2.48328E+000
  4.68750E-005	  1.03588E+000	 -1.57935E-001	  4.44751E-001	  2.99932E+000
  5.00000E-005	  5.26907E-001	  3.83392E-001	  9.86532E-001	  2.74130E+000
  5.62500E-005	  1.09950E+000	  1.10516E+000	  9.26334E-001	  1.83823E+000
  6.25000E-005	 -4.56833E-002	  3.23245E-001	  3.84553E-001	  1.90273E+000
  6.87500E-005	  7.17770E-001	  1.42802E-001	  5.65147E-001	  1.45120E+000
  7.50000E-005	  5.90528E-001	  8.04425E-001	  7.45740E-001	  9.35156E-001
  8.12500E-005	  3.99665E-001	  6.84130E-001	  6.25345E-001	  8.06146E-001
  8.75000E-005	  9.08633E-001	  4.43540E-001	  5.04949E-001	  1.32219E+000
  9.37500E-005	  2.08801E-001	  2.63097E-001	  1.10693E+000	  1.12867E+000
  1.00000E-004	  5.26907E-001	  6.54056E-001	  3.54454E-001	  7.09388E-001
  1.12500E-004	  4.31475E-001	  5.33761E-001	  5.04949E-001	  5.48125E-001
  1.25000E-004	  8.13202E-001	  5.03687E-001	  7.75839E-001	  1.03191E+000
  1.37500E-004	  1.06769E+000	  4.13466E-001	  2.94256E-001	  4.19114E-001
  1.50000E-004	  3.04233E-001	  1.01494E+000	  4.14652E-001	  1.09642E+000
  1.62500E-004	  5.90528E-001	  6.23982E-001	  2.94256E-001	  5.48125E-001
  1.75000E-004	  3.36043E-001	  3.83392E-001	  5.04949E-001	  6.77135E-001
  1.87500E-004	  4.31475E-001	  3.53319E-001	  2.64157E-001	  3.86862E-001
  2.00000E-004	  4.31475E-001	  3.83392E-001	  6.85542E-001	  3.86861E-001
  2.25000E-004	  5.11001E-001	  5.93908E-001	  6.10295E-001	  8.86777E-001
  2.50000E-004	  7.65485E-001	  7.89387E-001	  8.20987E-001	  3.54609E-001
  2.75000E-004	  6.70054E-001	  5.03687E-001	  5.04948E-001	  4.35240E-001
  3.00000E-004	  6.22338E-001	  4.88650E-001	  6.10295E-001	  2.90104E-001
  3.25000E-004	  3.99664E-001	  5.18724E-001	  4.44750E-001	  5.64251E-001
  3.50000E-004	  3.04232E-001	  4.88650E-001	  3.24354E-001	  5.64251E-001
  3.75000E-004	  4.15569E-001	  4.88650E-001	  4.44750E-001	  6.77135E-001
  4.00000E-004	  4.87143E-001	  5.56315E-001	  2.86730E-001	  5.31997E-001
  4.50000E-004	  4.23521E-001	  6.01426E-001	  4.37225E-001	  5.48124E-001
  5.00000E-004	  6.22337E-001	  5.03686E-001	  5.50096E-001	  5.64250E-001
  5.50000E-004	  4.87143E-001	  4.81131E-001	  4.52274E-001	  6.36818E-001
  6.00000E-004	  6.38243E-001	  4.36020E-001	  4.44750E-001	  4.75555E-001
  6.50000E-004	  3.99664E-001	  4.81131E-001	  4.37225E-001	  4.02987E-001
  7.00000E-004	  5.50764E-001	  6.23981E-001	  5.04948E-001	  3.54608E-001
  7.50000E-004	  3.36042E-001	  6.01426E-001	  2.71681E-001	  4.59429E-001
  8.00000E-004	  5.26904E-001	  5.60073E-001	  5.16233E-001	  5.19901E-001
  9.00000E-004	  4.95094E-001	  4.77371E-001	  5.72669E-001	  5.27964E-001
  1.00000E-003	  3.75804E-001	  5.52555E-001	  5.53857E-001	  5.03775E-001
  1.10000E-003	  5.10999E-001	  4.81130E-001	  3.99600E-001	  4.47333E-001
  1.20000E-003	  3.20136E-001	  5.75110E-001	  3.13066E-001	  4.59428E-001
  1.30000E-003	  5.07023E-001	  4.92407E-001	  3.95838E-001	  6.40848E-001
  1.40000E-003	  6.14383E-001	  4.92407E-001	  3.39402E-001	  5.36028E-001
  1.50000E-003	  4.23520E-001	  3.98427E-001	  4.33461E-001	  4.39270E-001
  1.60000E-003	  4.71233E-001	  4.15341E-001	  4.76726E-001	  3.92905E-001
  1.80000E-003	  4.23518E-001	  4.13462E-001	  5.08706E-001	  4.21126E-001
  2.00000E-003	  5.09008E-001	  4.92405E-001	  4.35340E-001	  4.04999E-001
  2.20000E-003	  4.55328E-001	  4.34137E-001	  4.80488E-001	  4.95709E-001
  2.40000E-003	  4.33488E-001	  5.01803E-001	  4.42865E-001	  4.77567E-001
  2.60000E-003	  4.69276E-001	  5.26238E-001	  4.67320E-001	  4.29189E-001
  2.80000E-003	  4.93134E-001	  4.20980E-001	  3.29994E-001	  4.83615E-001
  3.00000E-003	  5.28921E-001	  4.62331E-001	  4.86132E-001	  5.15867E-001
  3.20000E-003	  4.66288E-001	  3.98420E-001	  4.41919E-001	  4.46318E-001
  3.60000E-003	  3.49979E-001	  4.56687E-001	  4.24048E-001	  3.95924E-001
  4.00000E-003	  3.93719E-001	  4.04059E-001	  4.55088E-001	  4.22129E-001
  4.40000E-003	  4.96142E-001	  3.48611E-001	  4.09939E-001	  3.74758E-001
  4.80000E-003	  3.95736E-001	  4.05938E-001	  4.37216E-001	  4.34223E-001
  5.20000E-003	  4.23571E-001	  3.32634E-001	  4.08058E-001	  4.30192E-001
  5.60000E-003	  4.34507E-001	  4.15336E-001	  4.39098E-001	  3.40490E-001
  6.00000E-003	  3.45036E-001	  4.31313E-001	  4.18405E-001	  4.48334E-001
  6.40000E-003	  3.52980E-001	  3.98880E-001	  3.83123E-001	  4.39253E-001
  7.20000E-003	  3.69880E-001	  4.21435E-001	  4.15573E-001	  3.69709E-001
  8.00000E-003	  3.35086E-001	  3.57060E-001	  3.10699E-001	  3.73741E-001
  8.80000E-003	  3.70377E-001	  3.47192E-001	  3.70425E-001	  3.41489E-001
  9.60000E-003	  4.02188E-001	  3.34975E-001	  3.36565E-001	  3.67722E-001
  1.04000E-002	  3.49998E-001	  4.05459E-001	  3.51614E-001	  3.09767E-001
  1.12000E-002	  3.87277E-001	  3.97941E-001	  3.72307E-001	  3.24886E-001
  1.20000E-002	  3.31607E-001	  3.07721E-001	  3.39857E-001	  3.33453E-001
  1.28000E-002	  3.31865E-001	  3.16631E-001	  3.02477E-001	  3.56868E-001
  1.44000E-002	  3.32113E-001	  2.97130E-001	  3.50682E-001	  2.85812E-001
  1.60000E-002	  3.35095E-001	  2.99950E-001	  2.74965E-001	  3.07482E-001
  1.76000E-002	  2.67496E-001	  3.09347E-001	  3.17291E-001	  3.02442E-001
  1.92000E-002	  2.77463E-001	  2.69877E-001	  2.74024E-001	  2.66914E-001
  2.08000E-002	  2.62303E-001	  2.86793E-001	  2.53331E-001	  2.83545E-001
  2.24000E-002	  2.52858E-001	  2.54840E-001	  3.00361E-001	  2.66662E-001
  2.40000E-002	  2.47888E-001	  2.54370E-001	  2.52861E-001	  2.48520E-001
  2.56000E-002	  2.42412E-001	  2.56056E-001	  2.36417E-001	  2.49116E-001
  2.88000E-002	  2.10724E-001	  2.44543E-001	  1.93972E-001	  2.15479E-001
  3.20000E-002	  1.86740E-001	  2.20485E-001	  1.93125E-001	  2.21904E-001
  3.52000E-002	  1.72077E-001	  1.90411E-001	  1.84895E-001	  1.78314E-001
  3.84000E-002	  1.69219E-001	  1.79368E-001	  1.69611E-001	  1.65338E-001
  4.16000E-002	  1.57414E-001	  1.56812E-001	  1.50917E-001	  1.60803E-001
  4.48000E-002	  1.29578E-001	  1.50961E-001	  1.59875E-001	  1.38149E-001
  4.80000E-002	  1.15039E-001	  1.35688E-001	  1.14139E-001	  1.34622E-001
  5.12000E-002	  1.23288E-001	  1.25066E-001	  1.15519E-001	  1.34489E-001
  5.76000E-002	  1.07591E-001	  1.14608E-001	  9.44730E-002	  1.10739E-001
  6.40000E-002	  8.27777E-002	  1.03035E-001	  9.48257E-002	  7.67216E-002
  7.04000E-002	  7.91119E-002	  1.05855E-001	  7.46611E-002	  8.11313E-002
  7.68000E-002	  7.39549E-002	  7.19772E-002	  7.24057E-002	  6.43744E-002
  8.32000E-002	  6.35788E-002	  5.52331E-002	  5.46308E-002	  6.44374E-002
  8.96000E-002	  5.60608E-002	  5.91107E-002	  6.74463E-002	  4.06251E-002
  9.60000E-002	  5.81112E-002	  3.96640E-002	  3.50755E-002	  3.82312E-002
  1.02400E-001	  4.45720E-002	  3.33874E-002	  4.22092E-002	  3.50143E-002
  1.15200E-001	  3.47237E-002	  2.93321E-002	  2.96082E-002	  2.55117E-002
  1.28000E-001	  2.94833E-002	  2.10069E-002	  2.02318E-002	  1.51485E-002
  1.40800E-001	  2.39124E-002	  9.33873E-003	  1.76452E-002	  4.97100E-005
  1.53600E-001	  1.53689E-002	  3.83172E-003	  1.47941E-002	  1.61565E-002
  1.66400E-001	  1.14337E-002	  1.10395E-002	 -1.55788E-003	  1.83353E-003
  1.79200E-001	  1.55655E-002	  1.34873E-002	  1.62637E-002	  8.87895E-003
  1.92000E-001	  6.77367E-003	  5.40759E-003	  1.99288E-002	  6.45372E-004
  2.04800E-001	  1.02674E-002	 -1.37369E-003	  9.14735E-003	  7.93257E-003
  2.30400E-001	  9.67700E-003	  4.77904E-003	  4.53735E-003	 -3.12247E-003
  2.56000E-001	  8.20112E-003	 -5.17589E-003	  1.49914E-004	 -2.67646E-003
  2.81600E-001	  1.53729E-002	 -3.24209E-003	  3.97751E-003	  3.52045E-003
  3.07200E-001	  5.27021E-003	  3.51645E-003	  2.02756E-003	 -1.15549E-002
  3.32800E-001	  8.60506E-003	  1.20301E-002	  3.95746E-003	 -1.30092E-002
  3.58400E-001	  4.16722E-003	  6.60466E-003	  6.65466E-003	 -9.24333E-003
  3.84000E-001	 -5.36062E-003	  4.76662E-003	  1.51543E-003	 -4.02782E-003
  4.09600E-001	  8.58287E-004	  1.20225E-002	  6.43415E-003	 -6.07376E-003
  4.60800E-001	  2.76960E-003	  9.03239E-003	  1.38628E-002	 -6.14949E-003
  5.12000E-001	 -2.02422E-003	  1.16109E-002	  6.04593E-003	 -3.16289E-003
  5.63200E-001	 -2.62812E-003	  1.19821E-002	 -5.84934E-004	  2.91852E-003
  6.14400E-001	  7.47787E-003	  1.06774E-003	 -9.15787E-004	  7.80404E-003
  6.65600E-001	  2.87259E-003	 -6.75521E-004	 -4.62763E-003	  8.21333E-003
  7.16800E-001	 -2.63857E-004	 -8.29926E-003	 -1.10893E-002	  6.07553E-003
  7.68000E-001	 -2.60195E-003	 -3.52356E-004	 -1.40503E-002	  4.11913E-003
  8.19200E-001	  2.68290E-003	  4.30751E-004	  1.97000E-003	 -1.46344E-003
  9.21600E-001	 -6.30473E-003	  8.43438E-003	  3.03171E-003	 -7.48024E-004
  1.02400E+000	 -2.73592E-003	  3.94053E-003	  1.31415E-004	 -3.75698E-003
  1.12640E+000	 -8.37271E-003	  5.22597E-003	  2.52073E-003	 -4.28344E-003
  1.22880E+000	  1.45711E-004	  7.43615E-003	 -6.46861E-004	 -9.45829E-003
  1.33120E+000	  1.70134E-003	 -3.40083E-003	 -7.36809E-004	 -1.30010E-003
  1.43360E+000	  6.39160E-003	 -7.64149E-003	  4.89195E-004	 -1.74972E-003
  1.53600E+000	  1.74023E-003	  1.75764E-003	 -2.70710E-003	 -8.76171E-003
  1.63840E+000	  1.50845E-003	  2.38715E-003	 -1.98403E-003	 -2.27364E-003
  1.84320E+000	 -2.13604E-003	  7.25896E-003	 -5.75828E-003	  3.63918E-004
  2.04800E+000	 -2.90689E-003	  8.31307E-005	  1.55872E-004	 -8.02316E-004
  2.25280E+000	 -1.32902E-003	 -1.61486E-005	 -3.16769E-004	  5.63149E-003
  2.45760E+000	 -7.39571E-003	 -2.98766E-003	 -2.31237E-003	  1.76467E-003
  2.66240E+000	 -7.75081E-004	 -6.34713E-003	  3.62254E-003	  2.22208E-004
  2.86720E+000	  1.00939E-003	  2.68218E-005	 -2.78090E-003	 -1.82006E-003
  3.07200E+000	  4.83574E-003	  4.90097E-003	 -2.54422E-003	 -1.95734E-003
  3.27680E+000	  4.26841E-003	  6.39649E-003	  2.17645E-003	  1.68616E-003
  3.68640E+000	  1.05974E-003	  2.03904E-003	  2.72040E-003	 -7.36220E-004
  4.09600E+000	 -1.53302E-003	 -5.63412E-003	  1.92323E-003	  4.05847E-004
  4.50560E+000	 -4.20215E-004	  1.58618E-003	  1.54283E-004	  4.20933E-004
  4.91520E+000	  2.28532E-003	 -7.97634E-004	 -2.72251E-003	 -1.41288E-003
  5.32480E+000	  3.92488E-004	 -4.17502E-003	  6.95714E-004	 -1.88146E-003
  5.73440E+000	 -1.16224E-004	  2.01511E-003	  2.29427E-003	  8.44211E-005
  6.14400E+000	 -3.98658E-004	  6.03617E-003	  4.53531E-003	 -3.57924E-004
  6.55360E+000	 -1.01843E-003	  1.38771E-003	  6.66385E-004	 -3.89133E-004
  7.37280E+000	  1.12570E-003	 -1.37896E-003	  2.66251E-003	 -7.03606E-004
  8.19200E+000	 -1.66206E-003	  1.04233E-003	  1.37581E-003	  1.97483E-003
  9.01120E+000	 -4.61987E-004	  1.66223E-003	 -1.64178E-003	 -6.20713E-004
  9.83040E+000	  1.48271E-003	 -1.42118E-004	 -3.06715E-003	  1.13203E-003
  1.06496E+001	  2.32751E-003	 -9.31998E-004	  3.87466E-005	 -1.09794E-003
  1.14688E+001	  1.51545E-003	 -4.59056E-004	  2.69031E-003	  2.50931E-003
  1.22880E+001	 -2.33577E-003	 -4.34163E-004	  4.47442E-003	  1.31012E-003
  1.31072E+001	  2.20526E-004	 -2.53821E-003	  1.27326E-003	 -2.13778E-004
  1.47456E+001	 -4.21739E-003	 -2.76067E-004	  1.87047E-003	 -7.20887E-004
  1.63840E+001	 -1.90584E-003	  3.25642E-003	  7.12289E-004	 -2.45207E-003
  1.80224E+001	 -3.57413E-004	  3.60997E-003	 -8.58742E-005	  1.48517E-003
  1.96608E+001	 -2.84538E-003	  1.80963E-003	 -8.77042E-004	  1.91188E-003
  2.12992E+001	 -1.24939E-003	  2.04497E-003	  2.49869E-003	  4.23172E-004
  2.29376E+001	  3.35736E-003	  8.05334E-004	 -1.60229E-003	  9.82659E-004
  2.45760E+001	 -2.66716E-003	  2.11448E-003	 -2.74155E-004	  6.82374E-004
  2.62144E+001	 -1.07840E-003	  1.09165E-003	 -5.63438E-004	  4.12185E-004
  2.94912E+001	  1.48176E-003	  9.14012E-004	  6.08903E-004	  1.22311E-003
  3.27680E+001	  9.37284E-004	 -6.16154E-004	  4.62554E-004	  1.15571E-003
  3.60448E+001	  1.55026E-003	  1.06365E-003	 -6.17125E-004	  4.10958E-004
  3.93216E+001	 -1.57235E-003	 -9.07176E-004	 -6.49900E-005	 -2.77017E-004
  4.25984E+001	 -1.86187E-004	  1.17566E-003	  1.35731E-003	  9.83308E-004
  4.58752E+001	 -8.50570E-004	 -7.89673E-004	 -5.63138E-005	 -1.15438E-003
  4.91520E+001	 -1.98383E-004	 -1.93253E-003	  1.37526E-004	  1.23674E-003
  5.24288E+001	 -7.60566E-004	 -3.66017E-004	 -4.23685E-004	 -5.15990E-004
  5.89824E+001	  1.89402E-003	  9.00417E-004	  1.31084E-004	  5.59729E-004
  6.55360E+001	  4.05375E-004	 -2.72209E-004	 -7.93085E-004	  8.23917E-004
  7.20896E+001	 -1.08276E-003	 -5.79600E-004	 -1.40175E-003	  9.77234E-004
  7.86432E+001	 -9.66244E-004	 -8.30660E-004	  5.62206E-004	 -9.02690E-004
  8.51968E+001	 -8.03893E-004	  9.28043E-006	 -1.21963E-003	  7.80904E-005
  9.17504E+001	  4.11659E-004	 -4.22023E-004	 -4.53119E-004	 -9.03161E-004
  9.83040E+001	  3.58612E-004	 -1.88024E-004	 -2.07282E-004	  4.41340E-004
  1.04858E+002	 -7.25075E-004	  8.51373E-004	 -1.88637E-004	 -2.03455E-004
  1.17965E+002	  3.48952E-004	 -7.40168E-004	 -2.06721E-004	 -3.32151E-004
  1.31072E+002	 -8.09795E-004	  7.15192E-004	 -6.01880E-004	 -2.66464E-004
  1.44179E+002	  3.06963E-004	  5.08559E-004	 -8.77054E-004	 -3.52318E-004
  1.57286E+002	 -1.50565E-004	 -1.64915E-004	  3.87389E-004	 -5.59710E-004
  1.70394E+002	  3.72321E-005	 -5.62263E-005	 -1.15675E-003	  2.03132E-004
  1.83501E+002	 -2.42284E-004	 -1.65971E-003	 -1.89388E-004	  3.04298E-004
  1.96608E+002	 -7.64388E-004	  9.90725E-005	 -8.56461E-005	 -2.54236E-005
  2.09715E+002	 -1.35841E-004	  6.37433E-004	  1.05069E-003	 -1.40183E-004
  2.35930E+002	  2.26045E-004	  1.84134E-004	  1.29963E-003	  4.21599E-005
  2.62144E+002	  2.86854E-004	  6.96609E-004	  4.69234E-004	 -3.00954E-004
  2.88358E+002	 -4.78614E-004	  1.06039E-003	 -2.22546E-004	 -1.41814E-004
  3.14573E+002	  2.35771E-004	 -6.09094E-004	 -4.16228E-004	  8.00602E-006
  3.40787E+002	 -2.43608E-004	 -5.37666E-004	  5.52188E-004	 -1.17405E-004
  3.67002E+002	 -2.89339E-004	  4.34152E-004	 -2.06079E-004	  3.74916E-004
  3.93216E+002	 -3.39653E-004	 -1.96627E-005	 -5.50336E-004	 -2.05882E-004

"Count Rate"
       0.01311	      53.17688	      53.71094	      53.86353	      48.59924
       0.02621	      51.87988	      55.16052	      56.91528	      51.95618
       0.03932	      52.49023	      53.02429	      53.25317	      45.31860
       0.05243	      46.99707	      54.93164	      54.62646	      46.69189
       0.06554	      53.17688	      56.83899	      48.52295	      47.91260
       0.07864	      47.60742	      57.29675	      54.70276	      48.06519
       0.09175	      45.24231	      56.07605	      58.67004	      46.15784
       0.10486	      49.20959	      49.13330	      55.84717	      52.33765
       0.11796	      46.69189	      47.76001	      49.43848	      51.19324
       0.13107	      52.49023	      51.26953	      50.04883	      49.20959
       0.14418	      52.41394	      55.77087	      52.64282	      51.57471
       0.15729	      48.59924	      60.11963	      50.73547	      50.65918
       0.17039	      53.48206	      53.63464	      49.43848	      51.80359
       0.18350	      49.97253	      56.91528	      57.52563	      55.46570
       0.19661	      55.16052	      61.56921	      47.14966	      54.55017
       0.20972	      50.73547	      54.77905	      49.59106	      48.21777
       0.22282	      49.20959	      53.40576	      49.43848	      48.06519
       0.23593	      55.54199	      51.04065	      49.13330	      51.80359
       0.24904	      56.22864	      53.32947	      50.65918	      53.25317
       0.26214	      53.93982	      51.04065	      51.04065	      44.25049
       0.27525	      49.05701	      53.63464	      52.64282	      53.71094
       0.28836	      55.00793	      59.81445	      53.02429	      45.08972
       0.30147	      49.13330	      48.44666	      53.86353	      56.07605
       0.31457	      54.85535	      57.14417	      44.17419	      49.59106
       0.32768	      47.91260	      48.75183	      48.59924	      47.07336
       0.34079	      52.33765	      44.32678	      51.26953	      50.04883
       0.35389	      48.21777	      52.79541	      49.28589	      51.34583
       0.36700	      45.47119	      48.52295	      50.58289	      54.01611
       0.38011	      54.62646	      44.70825	      49.66736	      51.65100
       0.39322	      50.50659	      51.26953	      49.36218	      47.98889
       0.40632	      54.93164	      44.25049	      54.93164	      47.91260
       0.41943	      45.70007	      58.13599	      57.29675	      55.08423
       0.43254	      55.92346	      54.93164	      57.14417	      47.91260
       0.44564	      51.26953	      56.22864	      55.23682	      53.93982
       0.45875	      48.06519	      54.55017	      54.77905	      55.38940
       0.47186	      56.76270	      49.89624	      47.37854	      48.67554
       0.48497	      48.14148	      54.62646	      47.53113	      55.92346
       0.49807	      50.35400	      51.49841	      52.18506	      51.42212
       0.51118	      51.65100	      51.57471	      49.28589	      55.00793
       0.52429	      52.71912	      48.67554	      49.89624	      50.96436
       0.53740	      47.53113	      53.32947	      47.30225	      54.47388
       0.55050	      50.27771	      45.31860	      47.45483	      52.03247
       0.56361	      47.53113	      55.31311	      57.29675	      48.59924
       0.57672	      50.50659	      52.94800	      44.93713	      53.10059
       0.58982	      46.69189	      51.87988	      53.48206	      53.25317
       0.60293	      51.11694	      45.92896	      48.98071	      48.59924
       0.61604	      49.59106	      52.10876	      58.67004	      49.81995
       0.62915	      57.14417	      51.72729	      49.97253	      46.38672
       0.64225	      53.10059	      57.83081	      58.89893	      50.58289
       0.65536	      49.74365	      43.79272	      61.41663	      47.91260
       0.66847	      42.95349	      54.55017	      57.90710	      49.81995
       0.68157	      52.18506	      52.49023	      56.83899	      55.84717
       0.69468	      58.28857	      53.02429	      53.63464	      49.28589
       0.70779	      46.31042	      50.88806	      47.76001	      50.65918
       0.72090	      51.65100	      50.35400	      51.80359	      50.43030
       0.73400	      48.29407	      56.22864	      51.26953	      50.73547
       0.74711	      53.32947	      51.65100	      53.02429	      53.10059
