ALV-7004/USB-FAST
Date :	"11/11/2025"
Time :	"3:53:22 PM"
Samplename : 	""
SampMemo(0) : 	""
SampMemo(1) : 	""
SampMemo(2) : 	""
SampMemo(3) : 	""
SampMemo(4) : 	""
SampMemo(5) : 	""
SampMemo(6) : 	""
SampMemo(7) : 	""
SampMemo(8) : 	""
SampMemo(9) : 	""
Temperature [K] :	     298.16000
Viscosity [cp]  :	       0.89000
Refractive Index:	       1.33200
Wavelength [nm] :	       0.00000
Angle [°]       :	       0.00000
Duration [s]    :	         1
FloatDur [ms]   :	          944
Stop TP [ms]   :	     58146
Runs            :	         1
Mode            :	"A-CH0+1  A-CH2+3 "
MeanCR0 [kHz]   :	      56.77859
MeanCR1 [kHz]   :	      59.85048
MeanCR2 [kHz]   :	      59.27192
MeanCR3 [kHz]   :	      56.62176

"Correlation"
  3.12500E-006	 -1.00000E+000	 -1.00000E+000	 -1.00000E+000	 -1.00000E+000
  6.25000E-006	 -1.00000E+000	 -1.00000E+000	 -1.00000E+000	 -1.00000E+000
  9.37500E-006	 -1.00000E+000	 -1.00000E+000	 -1.00000E+000	 -1.00000E+000
  1.25000E-005	 -1.00000E+000	 -1.00000E+000	 -1.00000E+000	 -1.00000E+000
  1.56250E-005	 -1.00000E+000	 -1.00000E+000	 -1.00000E+000	 -1.00000E+000
  1.87500E-005	 -1.00000E+000	 -1.00000E+000	 -1.00000E+000	 -1.00000E+000
  2.18750E-005	 -1.00000E+000	  4.12738E-002	  8.33847E-001	 -6.82706E-001
  2.50000E-005	  1.28839E+001	  1.19686E+001	  1.17404E+001	  2.30086E+001
  2.81250E-005	  2.47098E+000	  1.55585E+000	  1.31644E+000	  8.41306E+000
  3.12500E-005	  1.62953E+000	  9.87886E-001	  2.54738E-001	  5.34588E+000
  3.43750E-005	  1.31399E+000	  1.36653E+000	  1.58219E-001	  3.86518E+000
  3.75000E-005	  9.98444E-001	  1.17721E+000	  3.51256E-001	  3.44212E+000
  4.06250E-005	 -3.68912E-001	  7.03903E-001	  1.50948E+000	  3.12482E+000
  4.37500E-005	  9.98444E-001	  5.14580E-001	  5.44292E-001	  1.85565E+000
  4.68750E-005	  1.94508E+000	  5.14580E-001	  6.17011E-002	  2.27871E+000
  5.00000E-005	  5.25128E-001	  1.31920E+000	  1.09960E-001	  2.06718E+000
  5.62500E-005	  9.98444E-001	  1.36653E+000	  5.92552E-001	  2.33159E+000
  6.25000E-005	  6.30309E-001	  7.03902E-001	  7.85588E-001	  1.69700E+000
  6.87500E-005	  7.88081E-001	  3.25257E-001	  3.99515E-001	  1.11529E+000
  7.50000E-005	  7.35491E-001	  3.72588E-001	  2.06478E-001	  1.27394E+000
  8.12500E-005	  4.72537E-001	  6.09241E-001	  6.40811E-001	  1.53835E+000
  8.75000E-005	  7.35491E-001	  6.56572E-001	  4.96033E-001	  9.56647E-001
  9.37500E-005	  9.98444E-001	  7.51233E-001	  3.51256E-001	  8.50882E-001
  1.00000E-004	  6.56604E-001	  6.09241E-001	  3.51256E-001	  1.22106E+000
  1.12500E-004	  7.09195E-001	  5.38245E-001	  6.40810E-001	  9.03764E-001
  1.25000E-004	  3.93651E-001	  8.45894E-001	  7.13199E-001	  4.54264E-001
  1.37500E-004	  6.30309E-001	  6.09241E-001	  3.51256E-001	  9.30206E-001
  1.50000E-004	  3.14765E-001	  4.43584E-001	  8.09717E-001	  7.71558E-001
  1.62500E-004	  5.77718E-001	  6.56572E-001	  5.68422E-001	  5.33588E-001
  1.75000E-004	  6.04014E-001	  7.27568E-001	  3.27126E-001	  6.39353E-001
  1.87500E-004	  7.09195E-001	  8.45894E-001	  6.64940E-001	  9.03764E-001
  2.00000E-004	  5.77718E-001	  5.97408E-001	  5.68421E-001	  7.31896E-001
  2.25000E-004	  2.35879E-001	  2.77926E-001	  6.16681E-001	  3.48499E-001
  2.50000E-004	  9.85295E-001	  3.13424E-001	  6.52875E-001	  4.01382E-001
  2.75000E-004	  5.25128E-001	  5.73743E-001	  4.83968E-001	  4.93926E-001
  3.00000E-004	  4.59389E-001	  4.79082E-001	  5.44292E-001	  8.37661E-001
  3.25000E-004	  4.98832E-001	  3.96253E-001	  4.35709E-001	  6.52573E-001
  3.50000E-004	  3.93651E-001	  4.90914E-001	  5.68421E-001	  5.33588E-001
  3.75000E-004	  3.41060E-001	  5.14579E-001	  6.89069E-001	  7.18676E-001
  4.00000E-004	  5.38275E-001	  5.20495E-001	  5.02065E-001	  6.59182E-001
  4.50000E-004	  4.33093E-001	  6.26989E-001	  3.63320E-001	  5.93080E-001
  5.00000E-004	  3.60781E-001	  5.91491E-001	  6.52874E-001	  5.86469E-001
  5.50000E-004	  6.43456E-001	  5.26411E-001	  5.62388E-001	  4.67484E-001
  6.00000E-004	  6.17160E-001	  3.01591E-001	  3.99514E-001	  5.33587E-001
  6.50000E-004	  4.33093E-001	  5.14579E-001	  4.71903E-001	  3.81550E-001
  7.00000E-004	  3.14765E-001	  5.56021E-001	  5.08097E-001	  6.72403E-001
  7.50000E-004	  3.67355E-001	  5.50104E-001	  5.02091E-001	  4.54264E-001
  8.00000E-004	  5.38273E-001	  5.05730E-001	  4.47798E-001	  5.36891E-001
  9.00000E-004	  3.83789E-001	  4.52482E-001	  4.50814E-001	  5.00534E-001
  1.00000E-003	  3.90362E-001	  5.47145E-001	  3.63343E-001	  7.08758E-001
  1.10000E-003	  5.77716E-001	  5.44186E-001	  3.63343E-001	  5.46806E-001
  1.20000E-003	  4.98830E-001	  5.26437E-001	  3.84457E-001	  6.72402E-001
  1.30000E-003	  5.21839E-001	  5.38270E-001	  4.77960E-001	  3.84854E-001
  1.40000E-003	  6.20446E-001	  5.41228E-001	  5.41301E-001	  4.60873E-001
  1.50000E-003	  4.98830E-001	  4.67273E-001	  4.99074E-001	  4.24516E-001
  1.60000E-003	  4.19942E-001	  5.60454E-001	  4.96055E-001	  5.15405E-001
  1.80000E-003	  3.85430E-001	  5.13123E-001	  4.55336E-001	  4.29471E-001
  2.00000E-003	  3.88742E-001	  5.20518E-001	  4.56844E-001	  4.26166E-001
  2.20000E-003	  3.80525E-001	  4.28814E-001	  5.12644E-001	  5.51761E-001
  2.40000E-003	  5.20221E-001	  4.71708E-001	  4.55336E-001	  5.26973E-001
  2.60000E-003	  3.78882E-001	  4.70229E-001	  4.87006E-001	  4.37734E-001
  2.80000E-003	  4.70917E-001	  4.62833E-001	  4.17633E-001	  4.45997E-001
  3.00000E-003	  4.69273E-001	  4.03669E-001	  4.34222E-001	  5.25320E-001
  3.20000E-003	  4.54477E-001	  4.50995E-001	  4.40250E-001	  4.79071E-001
  3.60000E-003	  3.45186E-001	  4.54693E-001	  4.16120E-001	  3.93136E-001
  4.00000E-003	  4.79129E-001	  4.15522E-001	  4.14612E-001	  4.61719E-001
  4.40000E-003	  3.99420E-001	  4.07387E-001	  4.72674E-001	  4.14620E-001
  4.80000E-003	  4.17499E-001	  4.10345E-001	  3.64090E-001	  4.03878E-001
  5.20000E-003	  4.61872E-001	  4.42146E-001	  4.60609E-001	  4.52629E-001
  5.60000E-003	  3.70660E-001	  4.60635E-001	  4.59855E-001	  4.18751E-001
  6.00000E-003	  3.95312E-001	  4.53240E-001	  4.32709E-001	  4.20404E-001
  6.40000E-003	  3.88317E-001	  4.19210E-001	  3.97661E-001	  3.84063E-001
  7.20000E-003	  3.63280E-001	  4.02201E-001	  4.31971E-001	  4.55126E-001
  8.00000E-003	  3.59582E-001	  4.15513E-001	  4.18398E-001	  4.06760E-001
  8.80000E-003	  3.77661E-001	  4.28085E-001	  3.75416E-001	  3.87756E-001
  9.60000E-003	  3.95739E-001	  4.11075E-001	  3.84842E-001	  4.09239E-001
  1.04000E-002	  3.60404E-001	  3.91477E-001	  3.64482E-001	  3.86516E-001
  1.12000E-002	  3.49721E-001	  4.03680E-001	  4.04448E-001	  3.97671E-001
  1.20000E-002	  3.48078E-001	  3.87409E-001	  3.85596E-001	  3.93953E-001
  1.28000E-002	  3.62054E-001	  4.00887E-001	  3.75611E-001	  4.15650E-001
  1.44000E-002	  3.41921E-001	  3.52286E-001	  3.90126E-001	  4.07594E-001
  1.60000E-002	  3.57971E-001	  3.80020E-001	  3.36988E-001	  3.76195E-001
  1.76000E-002	  3.56738E-001	  3.33242E-001	  3.48488E-001	  3.86317E-001
  1.92000E-002	  3.54478E-001	  3.44705E-001	  3.46013E-001	  3.68965E-001
  2.08000E-002	  3.46672E-001	  3.57648E-001	  3.76930E-001	  3.84225E-001
  2.24000E-002	  3.44026E-001	  3.68926E-001	  3.53365E-001	  3.67080E-001
  2.40000E-002	  3.18345E-001	  3.29545E-001	  3.25465E-001	  3.41878E-001
  2.56000E-002	  3.06751E-001	  3.32744E-001	  3.33677E-001	  3.42021E-001
  2.88000E-002	  3.05288E-001	  2.93733E-001	  2.91826E-001	  3.19401E-001
  3.20000E-002	  2.83511E-001	  2.79959E-001	  3.21046E-001	  2.92959E-001
  3.52000E-002	  2.85052E-001	  2.87030E-001	  3.00403E-001	  2.96264E-001
  3.84000E-002	  2.55571E-001	  2.78803E-001	  2.66093E-001	  2.91410E-001
  4.16000E-002	  2.54567E-001	  2.71799E-001	  2.70240E-001	  2.53503E-001
  4.48000E-002	  2.43165E-001	  2.66807E-001	  2.47407E-001	  2.57428E-001
  4.80000E-002	  2.45938E-001	  2.28164E-001	  2.60698E-001	  2.51540E-001
  5.12000E-002	  2.23718E-001	  2.23470E-001	  2.31744E-001	  2.21819E-001
  5.76000E-002	  1.84783E-001	  2.17390E-001	  2.17578E-001	  2.21153E-001
  6.40000E-002	  1.79955E-001	  1.80548E-001	  1.98937E-001	  2.06487E-001
  7.04000E-002	  1.50523E-001	  1.86696E-001	  1.82014E-001	  1.83867E-001
  7.68000E-002	  1.60877E-001	  1.66865E-001	  1.70110E-001	  1.65069E-001
  8.32000E-002	  1.43413E-001	  1.62536E-001	  1.54837E-001	  1.64419E-001
  8.96000E-002	  1.38114E-001	  1.38682E-001	  1.46116E-001	  1.35933E-001
  9.60000E-002	  1.07079E-001	  1.34707E-001	  1.38790E-001	  1.22299E-001
  1.02400E-001	  1.03790E-001	  1.18874E-001	  1.21879E-001	  1.11096E-001
  1.15200E-001	  8.85783E-002	  1.03431E-001	  1.00128E-001	  1.10858E-001
  1.28000E-001	  7.96447E-002	  8.54170E-002	  8.86504E-002	  9.25498E-002
  1.40800E-001	  6.48233E-002	  6.91871E-002	  7.47149E-002	  8.68891E-002
  1.53600E-001	  5.22504E-002	  5.06125E-002	  5.98629E-002	  8.34545E-002
  1.66400E-001	  4.80828E-002	  5.49125E-002	  5.28896E-002	  6.93407E-002
  1.79200E-001	  4.38513E-002	  4.39313E-002	  4.80521E-002	  5.68502E-002
  1.92000E-001	  3.80968E-002	  2.76048E-002	  3.73728E-002	  6.11886E-002
  2.04800E-001	  3.61009E-002	  3.11174E-002	  3.75835E-002	  5.11572E-002
  2.30400E-001	  2.38049E-002	  1.72936E-002	  3.56476E-002	  4.97368E-002
  2.56000E-001	  2.21022E-002	  1.82186E-002	  2.26951E-002	  4.11955E-002
  2.81600E-001	  8.72497E-003	  1.36594E-002	  1.60417E-002	  3.45331E-002
  3.07200E-001	  8.05257E-003	  6.79536E-003	  1.24370E-002	  2.42617E-002
  3.32800E-001	  1.44243E-003	  4.16054E-003	  1.09851E-002	  2.31383E-002
  3.58400E-001	  1.21231E-003	  5.24006E-003	  5.77806E-003	  2.15177E-002
  3.84000E-001	  6.27135E-004	 -2.62004E-003	  1.83423E-003	  1.03427E-002
  4.09600E-001	 -2.92896E-003	 -1.88219E-004	  3.03632E-003	  8.33258E-003
  4.60800E-001	  6.47737E-003	  1.46135E-003	  2.74187E-003	  1.52196E-003
  5.12000E-001	  3.93044E-003	 -2.34362E-003	  2.93604E-003	  8.51237E-003
  5.63200E-001	 -9.29820E-004	  6.47310E-004	  1.24174E-002	  1.85629E-002
  6.14400E-001	  1.39116E-003	  1.42007E-003	  1.49860E-002	  5.87361E-003
  6.65600E-001	 -1.49076E-003	 -2.29071E-004	  8.18475E-003	  1.00512E-002
  7.16800E-001	  1.58924E-003	 -4.19385E-003	  2.35635E-003	  5.80044E-003
  7.68000E-001	 -3.99244E-003	 -8.87218E-004	 -2.60935E-003	  3.27561E-003
  8.19200E-001	 -2.50619E-004	  2.29043E-003	  1.10110E-003	 -3.01469E-003
  9.21600E-001	 -4.52773E-003	  5.53835E-003	  1.98301E-003	 -1.00992E-002
  1.02400E+000	 -1.21144E-002	  3.09962E-003	 -6.71391E-003	 -2.22700E-003
  1.12640E+000	 -8.42832E-003	 -2.05431E-003	 -5.12370E-003	 -6.96723E-003
  1.22880E+000	 -1.11208E-002	 -9.99409E-004	  5.49005E-003	 -5.52017E-003
  1.33120E+000	 -7.40964E-003	  2.09805E-004	  7.95981E-003	 -2.56027E-003
  1.43360E+000	  5.46444E-004	 -4.15990E-004	  2.74812E-003	  2.09843E-003
  1.53600E+000	  3.27764E-004	 -5.96878E-004	  8.02806E-003	  7.96302E-003
  1.63840E+000	 -2.25648E-003	 -3.22944E-003	  4.06822E-003	  4.20150E-003
  1.84320E+000	 -9.64268E-004	 -3.59446E-003	 -5.21798E-003	 -1.82022E-003
  2.04800E+000	 -2.33999E-003	 -8.22235E-003	  2.87098E-003	 -3.29949E-003
  2.25280E+000	  5.74252E-003	 -4.80728E-003	 -2.25264E-003	 -5.06625E-003
  2.45760E+000	 -4.62375E-004	 -6.18198E-003	 -2.48977E-003	  3.06350E-004
  2.66240E+000	 -9.39539E-003	  9.44297E-003	  9.31157E-003	 -8.29893E-003
  2.86720E+000	 -1.39021E-003	  6.06944E-003	  6.93554E-003	 -1.76290E-003
  3.07200E+000	 -7.34272E-003	 -1.23289E-003	  1.05007E-003	 -1.08191E-003
  3.27680E+000	 -4.85485E-003	  1.66679E-003	  6.69487E-004	 -6.21485E-003
  3.68640E+000	  1.05421E-003	 -1.06738E-003	 -4.54562E-004	 -1.25762E-002
  4.09600E+000	  7.12275E-003	  1.38559E-003	  2.87700E-003	 -3.23127E-003
  4.50560E+000	  2.73067E-004	  5.04797E-004	 -2.16030E-003	 -3.83672E-004
  4.91520E+000	  4.09687E-004	 -1.26027E-003	 -2.14186E-003	 -3.80947E-003
  5.32480E+000	  7.91847E-003	  3.33036E-003	 -6.52904E-003	 -7.33662E-004
  5.73440E+000	  2.24641E-003	 -1.54031E-003	 -4.29579E-004	 -4.15934E-003
  6.14400E+000	  8.69797E-004	 -2.63796E-004	  4.49079E-003	 -5.25837E-003
  6.55360E+000	 -3.86450E-003	 -4.64941E-003	  2.45733E-003	 -2.54837E-003
  7.37280E+000	 -4.96799E-003	 -7.47679E-004	 -1.35939E-003	 -4.90274E-003
  8.19200E+000	  5.77376E-003	 -3.57587E-003	 -3.93289E-003	 -3.92185E-003
  9.01120E+000	  2.16406E-003	 -3.25312E-003	  2.34049E-003	  3.97180E-003
  9.83040E+000	  3.11493E-003	  1.89601E-004	 -5.38201E-004	  2.39507E-003
  1.06496E+001	 -3.61477E-003	  6.03644E-003	 -6.52898E-004	 -2.51346E-003
  1.14688E+001	  4.75871E-003	 -1.64683E-003	  7.27178E-004	 -2.74021E-003
  1.22880E+001	 -2.50608E-004	  3.97586E-003	  4.68849E-003	 -3.56993E-003
  1.31072E+001	  2.11777E-003	  2.98716E-003	  2.36307E-003	 -9.19689E-004
  1.47456E+001	  1.48159E-004	  1.74238E-003	 -1.66610E-003	  2.69164E-003
  1.63840E+001	  2.89044E-003	 -4.47299E-004	  5.92292E-004	  9.10429E-004
  1.80224E+001	 -3.02424E-003	  2.35228E-003	  3.48355E-004	  4.09900E-003
  1.96608E+001	  4.84896E-003	 -2.78907E-003	 -2.54153E-003	 -8.73637E-004
  2.12992E+001	  4.27952E-004	  1.63863E-003	  3.52220E-003	  2.39627E-004
  2.29376E+001	 -4.68585E-004	 -1.57377E-003	  2.51427E-004	 -6.11274E-003
  2.45760E+001	  2.03544E-003	 -1.83882E-003	  1.85148E-003	 -6.67114E-004
  2.62144E+001	 -1.04864E-004	  5.41273E-004	 -1.58858E-003	 -1.43645E-004
  2.94912E+001	  5.78537E-004	  2.29128E-004	  3.17570E-004	  2.31150E-003
  3.27680E+001	  3.44395E-004	  5.38571E-004	  3.35604E-004	 -1.57552E-003
  3.60448E+001	 -1.36858E-003	 -2.64579E-004	  5.81160E-004	 -2.95898E-003
  3.93216E+001	  1.35441E-003	 -1.26021E-003	 -9.57802E-004	  2.70408E-004
  4.25984E+001	  1.28933E-005	 -1.71646E-003	 -3.16841E-004	  1.42236E-003
  4.58752E+001	 -6.64303E-004	 -7.95254E-005	  1.33179E-004	 -5.48649E-004
  4.91520E+001	 -1.11376E-003	 -7.70320E-004	 -2.41323E-003	  2.39005E-003
  5.24288E+001	 -1.39407E-003	 -2.67495E-003	 -1.42791E-003	 -5.89891E-004
  5.89824E+001	 -1.91745E-003	 -1.12817E-003	  1.67967E-003	 -1.17576E-003
  6.55360E+001	 -1.13080E-004	 -8.64574E-004	 -1.52956E-003	  6.87446E-004
  7.20896E+001	 -1.67144E-004	 -6.47738E-004	  2.59581E-003	 -2.77593E-004
  7.86432E+001	  2.77392E-004	 -6.40336E-004	 -2.93547E-004	 -2.51922E-003
  8.51968E+001	 -1.82451E-003	 -2.83606E-003	  8.46885E-004	  5.58928E-005
  9.17504E+001	  1.39901E-003	  9.60770E-004	  7.89160E-005	  1.31480E-003
  9.83040E+001	  4.02876E-004	  2.54585E-003	 -3.41367E-003	  1.16125E-003
  1.04858E+002	  1.05251E-003	  5.77006E-004	 -1.27631E-003	  4.81213E-004
  1.17965E+002	 -4.69959E-004	  6.43815E-004	 -2.53189E-003	  2.68016E-004
  1.31072E+002	  4.50522E-004	  9.22483E-004	 -1.44416E-003	 -8.82576E-004
  1.44179E+002	 -7.56230E-004	 -7.11781E-004	  3.94680E-004	 -7.30739E-004
  1.57286E+002	 -1.37705E-003	  2.89687E-004	 -2.04449E-003	  6.56733E-004
  1.70394E+002	  6.18570E-004	 -1.00093E-003	 -1.28168E-003	 -9.07791E-005
  1.83501E+002	  4.12234E-005	 -2.72540E-004	 -1.77907E-003	 -5.21848E-004
  1.96608E+002	 -4.39152E-004	  1.40236E-003	  6.61123E-005	  1.13410E-003
  2.09715E+002	  5.51900E-005	  5.79787E-004	  1.29581E-003	 -5.33657E-005
  2.35930E+002	 -1.33045E-003	  7.02975E-004	  3.60485E-003	 -6.34632E-004
  2.62144E+002	 -1.08851E-003	 -5.23861E-004	 -5.39304E-005	  7.43966E-004
  2.88358E+002	 -1.37988E-004	 -1.15561E-003	 -9.88641E-005	 -4.31384E-005
  3.14573E+002	  9.90190E-004	 -3.22040E-004	  2.70235E-004	  5.06638E-004
  3.40787E+002	 -1.51161E-004	  1.00465E-003	 -1.29716E-003	 -7.22770E-005
  3.67002E+002	 -9.81081E-004	 -2.40500E-004	 -1.00357E-003	  3.35778E-004
  3.93216E+002	  8.28048E-004	 -2.16727E-004	 -2.15716E-003	 -1.41036E-003

"Count Rate"
       0.01311	      54.47388	      55.54199	      61.49292	      53.63464
       0.02621	      50.96436	      44.09790	      58.89893	      59.81445
       0.03932	      50.73547	      56.99158	      59.66187	      58.97522
       0.05243	      53.93982	      60.04333	      59.43298	      51.04065
       0.06554	      51.04065	      61.79810	      59.73816	      51.87988
       0.07864	      52.79541	      61.18774	      55.00793	      49.59106
       0.09175	      53.78723	      52.56653	      55.31311	      59.20410
       0.10486	      49.89624	      58.28857	      51.95618	      58.74634
       0.11796	      59.81445	      58.74634	      57.14417	      50.20142
       0.13107	      57.22046	      53.93982	      60.50110	      59.20410
       0.14418	      55.08423	      59.81445	      60.57739	      51.57471
       0.15729	      55.08423	      55.84717	      65.76538	      51.34583
       0.17039	      52.71912	      55.99976	      56.76270	      50.35400
       0.18350	      57.29675	      68.89343	      65.38391	      53.17688
       0.19661	      64.01062	      54.70276	      63.17139	      56.15234
       0.20972	      59.73816	      66.68091	      57.75452	      57.14417
       0.22282	      56.45752	      51.26953	      64.62097	      60.95886
       0.23593	      65.23132	      55.99976	      52.33765	      59.28040
       0.24904	      51.80359	      63.24768	      59.50928	      63.78174
       0.26214	      54.93164	      53.63464	      67.13867	      54.85535
       0.27525	      53.71094	      59.28040	      58.74634	      50.58289
       0.28836	      55.54199	      51.95618	      54.77905	      51.04065
       0.30147	      59.12781	      63.47656	      62.48474	      57.29675
       0.31457	      48.82813	      58.82263	      46.69189	      57.98340
       0.32768	      64.01062	      60.34851	      50.04883	      60.04333
       0.34079	      53.25317	      59.96704	      53.48206	      52.56653
       0.35389	      49.36218	      60.57739	      61.18774	      56.38123
       0.36700	      56.91528	      59.43298	      57.60193	      53.55835
       0.38011	      51.57471	      55.46570	      50.88806	      56.30493
       0.39322	      51.57471	      54.16870	      58.36487	      53.78723
       0.40632	      62.78992	      68.05420	      63.32397	      58.82263
       0.41943	      55.23682	      54.39758	      55.84717	      57.67822
       0.43254	      56.68640	      60.65369	      52.64282	      60.04333
       0.44564	      55.61829	      57.98340	      61.87439	      50.81177
       0.45875	      59.73816	      60.34851	      57.06787	      52.94800
       0.47186	      52.10876	      53.32947	      66.22314	      55.84717
       0.48497	      50.58289	      59.73816	      66.22314	      58.59375
       0.49807	      52.94800	      55.92346	      73.77625	      53.25317
       0.51118	      50.88806	      57.98340	      51.72729	      59.28040
       0.52429	      56.61011	      63.32397	      59.12781	      58.36487
       0.53740	      58.97522	      60.42480	      57.22046	      53.55835
       0.55050	      64.54468	      61.34033	      51.57471	      59.58557
       0.56361	      60.11963	      64.16321	      61.87439	      53.78723
       0.57672	      54.09241	      55.61829	      54.39758	      62.78992
       0.58982	      59.81445	      57.98340	      57.98340	      57.14417
       0.60293	      53.02429	      59.20410	      56.53381	      51.11694
       0.61604	      55.99976	      57.83081	      56.83899	      50.58289
       0.62915	      62.86621	      60.57739	      63.62915	      56.99158
       0.64225	      56.53381	      59.50928	      62.02698	      50.65918
       0.65536	      60.50110	      59.96704	      59.35669	      47.14966
       0.66847	      56.15234	      55.84717	      64.46838	      59.05151
       0.68157	      54.70276	      57.14417	      52.18506	      65.38391
       0.69468	      54.77905	      58.97522	      59.35669	      52.49023
       0.70779	      59.58557	      55.54199	      64.54468	      57.44934
       0.72090	      61.64551	      52.41394	      68.05420	      57.90710
       0.73400	      66.60461	      60.42480	      64.92615	      55.23682
       0.74711	      53.86353	      70.26672	      57.22046	      59.66187
