ALV-7004/USB-FAST
Date :	"11/11/2025"
Time :	"4:00:21 PM"
Samplename : 	""
SampMemo(0) : 	""
SampMemo(1) : 	""
SampMemo(2) : 	""
SampMemo(3) : 	""
SampMemo(4) : 	""
SampMemo(5) : 	""
SampMemo(6) : 	""
SampMemo(7) : 	""
SampMemo(8) : 	""
SampMemo(9) : 	""
Temperature [K] :	     298.16000
Viscosity [cp]  :	       0.89000
Refractive Index:	       1.33200
Wavelength [nm] :	       0.00000
Angle [°]       :	       0.00000
Duration [s]    :	         1
FloatDur [ms]   :	          944
Stop TP [ms]   :	     68565
Runs            :	         1
Mode            :	"A-CH0+1  A-CH2+3 "
MeanCR0 [kHz]   :	      55.95737
MeanCR1 [kHz]   :	      56.22864
MeanCR2 [kHz]   :	      55.73061
MeanCR3 [kHz]   :	      55.10013

"Correlation"
  3.12500E-006	 -1.00000E+000	 -1.00000E+000	 -1.00000E+000	 -1.00000E+000
  6.25000E-006	 -1.00000E+000	 -1.00000E+000	 -1.00000E+000	 -1.00000E+000
  9.37500E-006	 -1.00000E+000	 -1.00000E+000	 -1.00000E+000	 -1.00000E+000
  1.25000E-005	 -1.00000E+000	 -1.00000E+000	 -1.00000E+000	 -1.00000E+000
  1.56250E-005	 -1.00000E+000	 -1.00000E+000	 -1.00000E+000	 -1.00000E+000
  1.87500E-005	 -1.00000E+000	 -1.00000E+000	 -1.00000E+000	 -1.00000E+000
  2.18750E-005	 -8.91709E-001	  1.14498E+000	  1.40183E+000	 -5.53252E-001
  2.50000E-005	  1.14535E+001	  1.10119E+001	  1.09000E+001	  2.55815E+001
  2.81250E-005	  3.65652E+000	  2.53921E+000	  2.16605E+000	  9.94532E+000
  3.12500E-005	  1.59899E+000	  9.30478E-001	  6.37613E-001	  5.58953E+000
  3.43750E-005	  1.05753E+000	  1.14498E+000	  1.72935E+000	  5.47784E+000
  3.75000E-005	  8.40949E-001	  1.14498E+000	  1.29266E+000	  2.90904E+000
  4.06250E-005	  1.16582E+000	  2.11021E+000	  8.55961E-001	  3.69085E+000
  4.37500E-005	  9.49241E-001	  1.25222E+000	  7.46787E-001	  3.57916E+000
  4.68750E-005	  6.24367E-001	  1.25222E+000	  6.37613E-001	  1.68049E+000
  5.00000E-005	  6.78513E-001	  5.55107E-001	  7.46787E-001	  1.84802E+000
  5.62500E-005	  7.32658E-001	  1.88635E-002	  4.19264E-001	  1.23374E+000
  6.25000E-005	  6.78513E-001	  2.86985E-001	  8.55961E-001	  8.98678E-001
  6.87500E-005	  2.99494E-001	  7.24879E-002	  6.92200E-001	  1.06621E+000
  7.50000E-005	  9.49240E-001	  2.33361E-001	  5.28439E-001	  1.12205E+000
  8.12500E-005	  8.29114E-002	  6.08732E-001	  8.55961E-001	  1.73633E+000
  8.75000E-005	  5.70221E-001	  7.69605E-001	 -1.26607E-001	  1.51296E+000
  9.37500E-005	  2.99494E-001	  3.94234E-001	  1.18348E+000	  9.54521E-001
  1.00000E-004	  8.95095E-001	  7.96417E-001	  7.74080E-001	  5.07773E-001
  1.12500E-004	  8.40949E-001	  2.33361E-001	  4.73851E-001	  9.82443E-001
  1.25000E-004	  4.89003E-001	  5.28295E-001	  6.37613E-001	  5.63617E-001
  1.37500E-004	  5.43149E-001	  7.15980E-001	  4.73851E-001	  1.01036E+000
  1.50000E-004	  8.13876E-001	  7.42793E-001	  6.37613E-001	  7.31147E-001
  1.62500E-004	  4.61930E-001	  7.15980E-001	  4.19264E-001	  7.59069E-001
  1.75000E-004	  4.34857E-001	  3.13798E-001	  4.73851E-001	  3.68165E-001
  1.87500E-004	  5.43149E-001	  5.01483E-001	  2.28209E-001	  5.35695E-001
  2.00000E-004	  5.70221E-001	  4.88076E-001	  2.41856E-001	  5.63617E-001
  2.25000E-004	  7.59730E-001	  4.88076E-001	  4.87498E-001	  5.21734E-001
  2.50000E-004	  2.99493E-001	  6.08731E-001	  4.32911E-001	  6.47382E-001
  2.75000E-004	  7.05585E-001	  4.74670E-001	  2.28209E-001	  5.49656E-001
  3.00000E-004	  5.56685E-001	  4.61264E-001	  5.83025E-001	  2.70438E-001
  3.25000E-004	  7.32658E-001	  4.34452E-001	  5.55732E-001	  5.49656E-001
  3.50000E-004	  7.73267E-001	  5.01483E-001	  4.73851E-001	  6.05499E-001
  3.75000E-004	  3.80712E-001	  6.62356E-001	  4.73851E-001	  4.93812E-001
  4.00000E-004	  2.79188E-001	  5.48403E-001	  5.01144E-001	  5.00792E-001
  4.50000E-004	  5.63452E-001	  4.34451E-001	  4.94321E-001	  5.49655E-001
  5.00000E-004	  5.02538E-001	  4.47858E-001	  5.42084E-001	  6.47381E-001
  5.50000E-004	  3.87479E-001	  5.61809E-001	  3.98793E-001	  7.59068E-001
  6.00000E-004	  5.56684E-001	  4.34451E-001	  5.42084E-001	  3.68164E-001
  6.50000E-004	  4.82234E-001	  5.48403E-001	  5.96671E-001	  2.21575E-001
  7.00000E-004	  4.75466E-001	  5.14888E-001	  5.62554E-001	  4.58910E-001
  7.50000E-004	  4.75466E-001	  5.08185E-001	  5.76201E-001	  4.65890E-001
  8.00000E-004	  4.45035E-001	  3.80826E-001	  5.72788E-001	  4.24006E-001
  9.00000E-004	  5.12718E-001	  5.14887E-001	  5.52318E-001	  4.83340E-001
  1.00000E-003	  6.24395E-001	  4.57911E-001	  4.94319E-001	  5.60124E-001
  1.10000E-003	  4.92413E-001	  7.12626E-001	  4.90908E-001	  4.90320E-001
  1.20000E-003	  4.95797E-001	  4.34450E-001	  4.36321E-001	  5.91536E-001
  1.30000E-003	  4.11193E-001	  5.11535E-001	  4.84084E-001	  5.04281E-001
  1.40000E-003	  3.73968E-001	  5.88620E-001	  5.07966E-001	  4.48438E-001
  1.50000E-003	  3.57047E-001	  4.04287E-001	  5.11378E-001	  4.44947E-001
  1.60000E-003	  4.06168E-001	  3.99257E-001	  4.82404E-001	  4.57161E-001
  1.80000E-003	  4.24782E-001	  4.12663E-001	  4.48287E-001	  3.90847E-001
  2.00000E-003	  4.29858E-001	  4.64611E-001	  4.38051E-001	  4.29239E-001
  2.20000E-003	  4.45087E-001	  5.76887E-001	  3.83463E-001	  4.99043E-001
  2.40000E-003	  4.97544E-001	  5.08181E-001	  4.55110E-001	  4.93808E-001
  2.60000E-003	  3.36790E-001	  4.49530E-001	  4.63639E-001	  4.15305E-001
  2.80000E-003	  4.02784E-001	  4.10987E-001	  4.99463E-001	  5.47936E-001
  3.00000E-003	  4.72161E-001	  4.27745E-001	  4.19287E-001	  4.64169E-001
  3.20000E-003	  3.98602E-001	  4.26902E-001	  4.20162E-001	  4.45840E-001
  3.60000E-003	  3.71526E-001	  4.40308E-001	  4.05635E-001	  4.35370E-001
  4.00000E-003	  4.73030E-001	  3.96739E-001	  4.01370E-001	  4.19663E-001
  4.40000E-003	  3.96037E-001	  4.18523E-001	  3.68106E-001	  4.50203E-001
  4.80000E-003	  3.65578E-001	  4.31091E-001	  4.30370E-001	  3.89124E-001
  5.20000E-003	  3.85012E-001	  4.69634E-001	  3.97106E-001	  3.88251E-001
  5.60000E-003	  3.86704E-001	  4.05955E-001	  3.69812E-001	  4.98194E-001
  6.00000E-003	  3.86704E-001	  4.15172E-001	  4.24399E-001	  4.31007E-001
  6.40000E-003	  4.09195E-001	  3.91702E-001	  4.08637E-001	  4.21835E-001
  7.20000E-003	  4.00734E-001	  4.00081E-001	  4.12049E-001	  4.17036E-001
  8.00000E-003	  3.94388E-001	  4.25636E-001	  3.97976E-001	  3.87805E-001
  8.80000E-003	  3.73658E-001	  4.22284E-001	  4.08211E-001	  4.29688E-001
  9.60000E-003	  3.58428E-001	  4.08040E-001	  4.06958E-001	  4.05257E-001
  1.04000E-002	  3.99015E-001	  3.64471E-001	  3.81770E-001	  4.27943E-001
  1.12000E-002	  3.48250E-001	  3.44781E-001	  3.74520E-001	  3.51594E-001
  1.20000E-002	  3.44865E-001	  3.82904E-001	  4.23564E-001	  3.86933E-001
  1.28000E-002	  3.50423E-001	  3.69270E-001	  3.88867E-001	  4.12436E-001
  1.44000E-002	  3.67346E-001	  3.88750E-001	  3.50483E-001	  3.77098E-001
  1.60000E-002	  3.37917E-001	  3.53979E-001	  3.50082E-001	  3.67718E-001
  1.76000E-002	  3.52301E-001	  3.57959E-001	  3.69061E-001	  3.82988E-001
  1.92000E-002	  3.34956E-001	  3.37222E-001	  3.59678E-001	  3.49176E-001
  2.08000E-002	  3.16342E-001	  3.46229E-001	  3.22573E-001	  3.79716E-001
  2.24000E-002	  3.11899E-001	  3.37013E-001	  3.31956E-001	  3.56593E-001
  2.40000E-002	  3.10817E-001	  3.37851E-001	  3.14871E-001	  3.46777E-001
  2.56000E-002	  3.07570E-001	  3.18335E-001	  2.99179E-001	  3.47312E-001
  2.88000E-002	  3.03445E-001	  3.12993E-001	  3.22637E-001	  3.19172E-001
  3.20000E-002	  2.73723E-001	  2.98436E-001	  3.13975E-001	  3.18627E-001
  3.52000E-002	  2.52463E-001	  3.04954E-001	  3.11630E-001	  2.85143E-001
  3.84000E-002	  2.51746E-001	  2.59186E-001	  2.87081E-001	  2.64857E-001
  4.16000E-002	  2.51934E-001	  2.73011E-001	  2.63623E-001	  2.59294E-001
  4.48000E-002	  2.35010E-001	  2.40649E-001	  2.56799E-001	  2.73473E-001
  4.80000E-002	  2.07955E-001	  2.58244E-001	  2.63516E-001	  2.57440E-001
  5.12000E-002	  2.19666E-001	  2.26251E-001	  2.36311E-001	  2.32958E-001
  5.76000E-002	  2.22763E-001	  2.00120E-001	  2.13924E-001	  2.25924E-001
  6.40000E-002	  1.82592E-001	  1.90642E-001	  2.14267E-001	  2.09891E-001
  7.04000E-002	  1.67918E-001	  1.86924E-001	  1.88302E-001	  1.83660E-001
  7.68000E-002	  1.68032E-001	  1.65925E-001	  1.58550E-001	  1.72698E-001
  8.32000E-002	  1.45310E-001	  1.61055E-001	  1.42203E-001	  1.73125E-001
  8.96000E-002	  1.23296E-001	  1.32307E-001	  1.47855E-001	  1.35299E-001
  9.60000E-002	  1.30680E-001	  1.39481E-001	  1.43056E-001	  1.35790E-001
  1.02400E-001	  1.12489E-001	  1.16717E-001	  1.19442E-001	  1.25539E-001
  1.15200E-001	  1.01578E-001	  9.44622E-002	  1.00959E-001	  1.10596E-001
  1.28000E-001	  7.09295E-002	  8.60373E-002	  7.80620E-002	  9.73761E-002
  1.40800E-001	  6.60878E-002	  6.97322E-002	  8.07466E-002	  7.65155E-002
  1.53600E-001	  4.53190E-002	  6.92670E-002	  6.81297E-002	  8.55687E-002
  1.66400E-001	  3.90290E-002	  5.70145E-002	  5.79984E-002	  6.27789E-002
  1.79200E-001	  3.59012E-002	  4.48405E-002	  4.50076E-002	  4.87903E-002
  1.92000E-001	  3.03651E-002	  3.52517E-002	  3.46698E-002	  4.77268E-002
  2.04800E-001	  2.05576E-002	  3.05688E-002	  3.33202E-002	  4.00961E-002
  2.30400E-001	  1.18975E-002	  2.35850E-002	  3.44985E-002	  3.16974E-002
  2.56000E-001	  1.79507E-002	  1.57369E-002	  2.31643E-002	  3.57273E-002
  2.81600E-001	  6.75743E-003	  1.32034E-002	  1.61242E-002	  2.74356E-002
  3.07200E-001	  1.13695E-002	  1.23585E-002	  2.09704E-002	  2.39615E-002
  3.32800E-001	  1.47834E-002	  9.20951E-003	  1.06649E-002	  1.55669E-002
  3.58400E-001	  1.14986E-002	  8.02540E-003	  1.16738E-002	  1.37512E-002
  3.84000E-001	 -2.95870E-003	  1.21098E-002	  8.25484E-003	  1.31648E-002
  4.09600E-001	 -4.61951E-003	  5.29336E-004	  1.00141E-002	  1.35906E-002
  4.60800E-001	  6.95469E-003	  5.38478E-003	  6.89232E-003	  1.68535E-002
  5.12000E-001	  1.33103E-003	  5.82268E-003	 -4.30066E-004	  1.40262E-002
  5.63200E-001	  1.91784E-003	 -1.83198E-003	 -2.67028E-003	  7.20169E-003
  6.14400E-001	  1.03754E-003	  5.35792E-003	 -6.05945E-003	  4.76786E-003
  6.65600E-001	  4.46118E-003	 -2.05291E-003	 -4.64593E-003	  3.09843E-003
  7.16800E-001	  3.10502E-003	  2.67041E-003	 -9.60741E-004	  6.45257E-004
  7.68000E-001	 -4.28294E-003	  1.04168E-002	  2.96360E-003	 -3.14186E-003
  8.19200E-001	 -4.93259E-003	  8.13069E-003	  1.07884E-002	 -4.72701E-003
  9.21600E-001	 -9.11396E-003	  1.55293E-002	  5.12962E-004	 -1.81437E-003
  1.02400E+000	 -3.26681E-004	  1.14878E-002	  6.36431E-003	 -7.86801E-003
  1.12640E+000	 -1.44265E-003	  6.30066E-003	  2.10929E-003	  3.55355E-003
  1.22880E+000	 -1.54706E-003	  4.48011E-003	  3.37709E-003	  5.66437E-003
  1.33120E+000	 -5.96397E-003	  4.25934E-003	  1.04366E-003	 -2.44153E-004
  1.43360E+000	 -1.41872E-002	 -8.12778E-004	  1.30763E-003	  4.59587E-003
  1.53600E+000	 -1.29658E-002	 -1.50041E-003	  3.69254E-003	  3.74639E-004
  1.63840E+000	 -2.91244E-003	 -4.08325E-003	  5.02521E-003	  4.27171E-003
  1.84320E+000	  6.16930E-003	  4.80172E-003	 -5.32302E-003	 -3.14161E-003
  2.04800E+000	  6.34558E-003	  1.17865E-003	  2.55264E-003	 -3.21583E-004
  2.25280E+000	  2.07835E-003	  8.65928E-003	 -4.10828E-003	 -4.00436E-003
  2.45760E+000	  1.14096E-003	  1.74169E-003	 -1.39364E-003	 -3.34668E-003
  2.66240E+000	  1.85191E-003	 -5.30121E-003	  3.43894E-003	 -3.98846E-003
  2.86720E+000	  8.91389E-004	 -1.11133E-002	  1.20779E-002	 -1.91490E-003
  3.07200E+000	 -3.22011E-004	 -8.67366E-003	  9.25865E-003	 -1.21571E-002
  3.27680E+000	  2.80826E-003	 -1.42754E-003	  2.20500E-003	 -8.62894E-003
  3.68640E+000	 -2.13856E-003	  1.88202E-003	 -6.95895E-003	 -9.10092E-003
  4.09600E+000	 -4.55481E-004	 -7.11369E-003	 -7.25087E-003	 -2.13375E-003
  4.50560E+000	  3.09906E-003	 -6.01437E-003	 -5.44336E-003	 -2.74035E-003
  4.91520E+000	  1.83200E-003	  1.32052E-003	  2.76557E-004	 -1.71820E-003
  5.32480E+000	 -6.28643E-003	 -5.60282E-003	 -1.96064E-003	  2.80416E-003
  5.73440E+000	  1.99120E-003	 -5.90775E-003	  8.18199E-003	  3.30902E-003
  6.14400E+000	  3.42678E-004	  9.26501E-004	  1.03532E-002	  1.70954E-003
  6.55360E+000	  1.09697E-003	 -4.70890E-004	  3.97207E-003	  1.29995E-003
  7.37280E+000	 -4.24505E-003	  8.77059E-004	  5.16183E-004	 -5.58506E-003
  8.19200E+000	  4.22550E-004	 -6.20434E-004	 -2.71538E-003	 -2.62443E-004
  9.01120E+000	  2.26398E-003	 -8.17645E-004	  2.02733E-004	 -1.01914E-003
  9.83040E+000	  1.82540E-003	  2.75312E-004	  3.69776E-003	 -2.15532E-006
  1.06496E+001	 -2.84310E-004	  5.46190E-003	  6.33325E-003	 -1.10432E-003
  1.14688E+001	  6.15306E-004	  6.46586E-004	 -2.84878E-003	  1.17617E-003
  1.22880E+001	  2.49141E-003	 -3.32992E-003	  2.89167E-003	 -1.47074E-003
  1.31072E+001	 -1.89381E-003	 -1.51666E-003	  4.14119E-003	 -7.74159E-004
  1.47456E+001	  1.45670E-003	 -3.65005E-003	 -1.39383E-003	  1.76771E-004
  1.63840E+001	 -2.58290E-003	 -3.00143E-003	  2.02670E-003	  5.02951E-004
  1.80224E+001	  1.08697E-003	 -5.40081E-005	 -5.91758E-003	 -1.38996E-003
  1.96608E+001	 -1.22284E-003	  6.85941E-003	  7.92530E-004	 -1.90729E-003
  2.12992E+001	  3.21882E-005	 -1.18609E-004	  2.84728E-003	 -1.02148E-003
  2.29376E+001	  7.58235E-004	 -3.59615E-003	  6.03478E-003	 -2.59265E-003
  2.45760E+001	  2.66192E-003	  1.73732E-004	 -1.00713E-003	  2.14019E-004
  2.62144E+001	 -2.34377E-004	  1.33533E-003	 -1.20617E-003	  1.40643E-005
  2.94912E+001	  2.07842E-003	  3.72659E-003	  2.67839E-004	 -3.35018E-004
  3.27680E+001	  1.28162E-003	  6.72917E-004	  2.11575E-003	 -2.80050E-003
  3.60448E+001	 -1.63627E-003	 -4.34892E-003	  2.18912E-004	  1.88765E-004
  3.93216E+001	  1.14618E-003	  2.89138E-003	 -2.39997E-003	  2.70160E-004
  4.25984E+001	 -3.05320E-003	 -8.05707E-004	  1.11132E-003	  1.95260E-003
  4.58752E+001	 -1.78040E-003	  1.87477E-004	  3.14276E-003	 -1.51224E-003
  4.91520E+001	 -7.77894E-004	  1.01324E-003	  2.99076E-003	 -1.70126E-003
  5.24288E+001	 -1.35998E-004	 -2.76639E-004	  1.66159E-003	 -2.30129E-003
  5.89824E+001	  1.81130E-004	 -1.14696E-003	 -1.73982E-003	 -3.73589E-004
  6.55360E+001	  2.76761E-004	 -3.83534E-005	  3.49825E-004	 -2.04160E-003
  7.20896E+001	  1.53523E-003	  7.81990E-004	  1.59344E-003	 -3.91881E-004
  7.86432E+001	  4.38510E-004	 -1.54752E-003	  2.67958E-004	 -3.49432E-004
  8.51968E+001	  2.00542E-003	 -6.83905E-004	  2.14331E-003	  2.09526E-003
  9.17504E+001	 -8.16987E-004	 -6.26495E-004	  1.96790E-004	 -2.90252E-004
  9.83040E+001	 -8.80848E-007	  2.79435E-004	  2.75367E-004	  8.47749E-004
  1.04858E+002	  6.46641E-004	  3.19689E-004	  3.79438E-004	  7.73446E-005
  1.17965E+002	 -7.41748E-004	 -8.08299E-004	 -4.00425E-004	  2.10368E-003
  1.31072E+002	 -2.71528E-004	 -1.20695E-004	  1.07990E-003	 -1.06342E-003
  1.44179E+002	 -1.86558E-004	  1.50112E-003	  3.80882E-004	 -6.71804E-004
  1.57286E+002	 -1.77328E-003	 -2.23470E-004	  8.78119E-004	 -6.26246E-005
  1.70394E+002	 -4.39350E-005	  2.19664E-003	  4.81277E-004	 -9.99939E-004
  1.83501E+002	 -1.19310E-003	  4.26276E-004	  1.86675E-004	 -4.53822E-004
  1.96608E+002	  9.64332E-004	  1.20234E-003	 -3.97498E-004	  1.34085E-003
  2.09715E+002	  2.44161E-004	  8.89298E-004	 -1.20771E-003	  8.56267E-004
  2.35930E+002	  1.00561E-004	  3.94791E-004	 -3.12244E-004	 -3.33886E-004
  2.62144E+002	 -1.51735E-003	 -1.32658E-003	 -3.88528E-004	 -8.89226E-004
  2.88358E+002	  3.03246E-004	 -1.20764E-003	 -1.30007E-005	  1.05929E-003
  3.14573E+002	  8.34791E-004	 -3.77340E-004	 -4.26005E-004	  5.83708E-004
  3.40787E+002	 -4.37446E-004	  9.16345E-004	  9.70048E-005	 -8.43987E-004
  3.67002E+002	 -1.83269E-004	  8.91842E-004	 -4.78748E-004	  1.06662E-004
  3.93216E+002	  2.27120E-004	  1.95854E-004	  1.42503E-004	  5.38886E-005

"Count Rate"
       0.01311	      61.18774	      53.10059	      46.69189	      52.26135
       0.02621	      54.32129	      60.95886	      53.25317	      53.40576
       0.03932	      55.08423	      54.93164	      53.78723	      47.53113
       0.05243	      53.93982	      62.25586	      57.52563	      55.16052
       0.06554	      46.53931	      54.70276	      52.79541	      56.45752
       0.07864	      56.45752	      56.99158	      63.32397	      48.21777
       0.09175	      46.99707	      58.21228	      48.21777	      59.28040
       0.10486	      57.75452	      48.37036	      46.15784	      57.14417
       0.11796	      52.94800	      51.87988	      61.03516	      52.71912
       0.13107	      52.10876	      52.64282	      53.17688	      49.97253
       0.14418	      52.41394	      55.38940	      52.79541	      53.02429
       0.15729	      49.74365	      51.49841	      56.07605	      53.93982
       0.17039	      55.23682	      59.20410	      47.30225	      59.89075
       0.18350	      65.23132	      56.61011	      52.49023	      51.49841
       0.19661	      61.03516	      54.93164	      58.59375	      48.21777
       0.20972	      57.52563	      55.00793	      57.90710	      52.03247
       0.22282	      51.34583	      59.12781	      55.84717	      53.78723
       0.23593	      48.98071	      59.73816	      52.49023	      55.54199
       0.24904	      57.60193	      53.55835	      53.10059	      55.69458
       0.26214	      59.12781	      51.26953	      49.74365	      56.07605
       0.27525	      59.58557	      52.03247	      53.93982	      55.99976
       0.28836	      51.95618	      52.64282	      50.65918	      55.92346
       0.30147	      56.91528	      46.08154	      47.37854	      52.33765
       0.31457	      51.57471	      60.27222	      47.91260	      53.17688
       0.32768	      53.10059	      51.87988	      50.50659	      50.88806
       0.34079	      50.20142	      52.56653	      49.97253	      51.80359
       0.35389	      54.47388	      54.55017	      52.41394	      56.30493
       0.36700	      49.36218	      55.84717	      50.73547	      57.44934
       0.38011	      55.99976	      57.06787	      57.22046	      56.53381
       0.39322	      54.16870	      58.13599	      45.01343	      54.55017
       0.40632	      52.18506	      54.70276	      54.39758	      60.50110
       0.41943	      46.23413	      51.04065	      59.20410	      44.09790
       0.43254	      53.78723	      57.44934	      57.90710	      54.70276
       0.44564	      52.79541	      51.65100	      52.71912	      50.88806
       0.45875	      60.95886	      52.94800	      56.53381	      54.93164
       0.47186	      51.95618	      52.87170	      61.26404	      61.79810
       0.48497	      62.63733	      55.84717	      55.23682	      54.85535
       0.49807	      58.05969	      52.10876	      54.93164	      50.43030
       0.51118	      52.03247	      55.08423	      60.42480	      49.81995
       0.52429	      62.48474	      49.28589	      58.13599	      56.30493
       0.53740	      52.18506	      57.83081	      57.52563	      55.08423
       0.55050	      55.69458	      54.01611	      54.62646	      60.04333
       0.56361	      55.69458	      69.96155	      57.06787	      58.51746
       0.57672	      60.19592	      60.11963	      56.30493	      54.09241
       0.58982	      58.13599	      57.75452	      56.15234	      53.55835
       0.60293	      58.13599	      61.72180	      58.51746	      58.21228
       0.61604	      55.08423	      50.73547	      59.73816	      47.91260
       0.62915	      59.05151	      58.51746	      56.68640	      48.90442
       0.64225	      49.43848	      51.26953	      57.90710	      56.99158
       0.65536	      48.90442	      54.93164	      58.13599	      55.08423
       0.66847	      59.05151	      62.10327	      51.72729	      48.90442
       0.68157	      60.04333	      55.77087	      47.98889	      65.30762
       0.69468	      64.84985	      55.08423	      62.10327	      49.13330
       0.70779	      47.98889	      56.76270	      56.45752	      56.07605
       0.72090	      53.02429	      53.25317	      53.78723	      55.23682
       0.73400	      58.89893	      62.25586	      57.67822	      48.75183
       0.74711	      55.69458	      58.13599	      65.23132	      55.69458
