ALV-7004/USB-FAST
Date :	"11/11/2025"
Time :	"3:56:48 PM"
Samplename : 	""
SampMemo(0) : 	""
SampMemo(1) : 	""
SampMemo(2) : 	""
SampMemo(3) : 	""
SampMemo(4) : 	""
SampMemo(5) : 	""
SampMemo(6) : 	""
SampMemo(7) : 	""
SampMemo(8) : 	""
SampMemo(9) : 	""
Temperature [K] :	     298.16000
Viscosity [cp]  :	       0.89000
Refractive Index:	       1.33200
Wavelength [nm] :	       0.00000
Angle [°]       :	       0.00000
Duration [s]    :	         1
FloatDur [ms]   :	          944
Stop TP [ms]   :	     67692
Runs            :	         1
Mode            :	"A-CH0+1  A-CH2+3 "
MeanCR0 [kHz]   :	      45.78484
MeanCR1 [kHz]   :	      46.52447
MeanCR2 [kHz]   :	      45.79968
MeanCR3 [kHz]   :	      46.00419

"Correlation"
  3.12500E-006	 -1.00000E+000	 -1.00000E+000	 -1.00000E+000	 -1.00000E+000
  6.25000E-006	 -1.00000E+000	 -1.00000E+000	 -1.00000E+000	 -1.00000E+000
  9.37500E-006	 -1.00000E+000	 -1.00000E+000	 -1.00000E+000	 -1.00000E+000
  1.25000E-005	 -1.00000E+000	 -1.00000E+000	 -1.00000E+000	 -1.00000E+000
  1.56250E-005	 -1.00000E+000	 -1.00000E+000	 -1.00000E+000	 -1.00000E+000
  1.87500E-005	 -1.00000E+000	 -1.00000E+000	 -1.00000E+000	 -1.00000E+000
  2.18750E-005	 -1.00000E+000	  1.66314E+000	  2.23305E+000	 -1.98907E-001
  2.50000E-005	  1.67933E+001	  1.46655E+001	  1.53269E+001	  3.18448E+001
  2.81250E-005	  4.33799E+000	  2.75972E+000	  2.87966E+000	  1.29390E+001
  3.12500E-005	  1.58812E+000	  1.66314E+000	  1.74809E+000	  7.49158E+000
  3.43750E-005	  1.10285E+000	  1.03652E+000	  1.90975E+000	  3.16568E+000
  3.75000E-005	  1.26460E+000	  4.09896E-001	  7.78178E-001	  4.92809E+000
  4.06250E-005	  1.10285E+000	  1.81979E+000	  1.74809E+000	  3.48612E+000
  4.37500E-005	  1.42636E+000	  2.13310E+000	  1.10148E+000	  3.16568E+000
  4.68750E-005	  2.23515E+000	  1.34983E+000	  1.26314E+000	  2.84524E+000
  5.00000E-005	  8.60210E-001	  5.66551E-001	  8.59005E-001	  2.52481E+000
  5.62500E-005	  3.74937E-001	  2.53241E-001	  5.35699E-001	  3.48612E+000
  6.25000E-005	  1.83075E+000	  3.31569E-001	  7.78178E-001	  1.48339E+000
  6.87500E-005	  1.58812E+000	  8.01534E-001	  9.39831E-001	  1.48339E+000
  7.50000E-005	  8.60210E-001	  3.31569E-001	  1.18231E+000	  1.64361E+000
  8.12500E-005	  8.60210E-001	 -3.73379E-001	  7.78178E-001	  1.16295E+000
  8.75000E-005	  7.79331E-001	  5.66551E-001	  1.02066E+000	  1.24306E+000
  9.37500E-005	  1.32301E-001	  9.65859E-002	  2.12394E-001	  9.22622E-001
  1.00000E-004	  2.13180E-001	  6.44879E-001	  6.56939E-001	  1.16295E+000
  1.12500E-004	  7.79331E-001	  2.53241E-001	  4.95286E-001	  7.22349E-001
  1.25000E-004	  9.00649E-001	  7.23206E-001	  9.11548E-002	  3.61857E-001
  1.37500E-004	  4.15377E-001	  1.31066E+000	  3.74047E-001	  7.22349E-001
  1.50000E-004	  4.55816E-001	  7.62370E-001	  5.35699E-001	  9.22622E-001
  1.62500E-004	  6.17573E-001	  9.58189E-001	  4.54873E-001	  6.42240E-001
  1.75000E-004	  4.55816E-001	  4.88224E-001	  1.31568E-001	  5.62131E-001
  1.87500E-004	  8.19770E-001	  4.09896E-001	  4.54873E-001	  7.62404E-001
  2.00000E-004	  4.55816E-001	  4.49059E-001	  6.77145E-001	  8.02458E-001
  2.25000E-004	  5.77134E-001	  3.70732E-001	  5.55906E-001	  5.22076E-001
  2.50000E-004	  9.20868E-001	  3.90314E-001	  7.17558E-001	  4.01912E-001
  2.75000E-004	  3.54717E-001	  1.94495E-001	  5.15492E-001	  6.82294E-001
  3.00000E-004	  6.17573E-001	  4.29478E-001	  3.33633E-001	  4.82021E-001
  3.25000E-004	  6.17573E-001	  4.49059E-001	  3.53840E-001	  6.62267E-001
  3.50000E-004	  3.74937E-001	  2.92404E-001	  6.97352E-001	  6.82294E-001
  3.75000E-004	  5.56914E-001	  5.07805E-001	  1.51774E-001	  5.02048E-001
  4.00000E-004	  4.15376E-001	  6.35087E-001	  3.84149E-001	  6.02184E-001
  4.50000E-004	  6.17572E-001	  4.49059E-001	  5.25595E-001	  5.22075E-001
  5.00000E-004	  4.35595E-001	  2.92404E-001	  5.86215E-001	  4.82020E-001
  5.50000E-004	  5.26584E-001	  5.07804E-001	  3.74046E-001	  4.82020E-001
  6.00000E-004	  3.24387E-001	  4.68641E-001	  4.34666E-001	  3.91897E-001
  6.50000E-004	  5.56913E-001	  7.03623E-001	  5.35698E-001	  5.32089E-001
  7.00000E-004	  4.35595E-001	  4.98014E-001	  3.94252E-001	  6.52252E-001
  7.50000E-004	  4.15376E-001	  2.82613E-001	  4.44769E-001	  3.01775E-001
  8.00000E-004	  3.95155E-001	  2.92403E-001	  5.45800E-001	  4.92033E-001
  9.00000E-004	  3.09221E-001	  3.31566E-001	  3.89200E-001	  4.72005E-001
  1.00000E-003	  5.01308E-001	  3.75626E-001	  3.18477E-001	  5.57121E-001
  1.10000E-003	  3.74935E-001	  3.02194E-001	  5.00336E-001	  4.82019E-001
  1.20000E-003	  4.25484E-001	  5.56758E-001	  3.53838E-001	  5.92169E-001
  1.30000E-003	  3.74935E-001	  3.31566E-001	  4.39716E-001	  4.41964E-001
  1.40000E-003	  3.39551E-001	  4.09894E-001	  5.81162E-001	  5.87162E-001
  1.50000E-003	  4.15375E-001	  4.58849E-001	  4.54871E-001	  5.07053E-001
  1.60000E-003	  4.10317E-001	  5.29830E-001	  4.44765E-001	  4.36955E-001
  1.80000E-003	  5.49327E-001	  5.02905E-001	  4.16981E-001	  3.69363E-001
  2.00000E-003	  5.18998E-001	  4.24578E-001	  4.47291E-001	  4.46969E-001
  2.20000E-003	  4.17900E-001	  4.00101E-001	  4.16981E-001	  4.92030E-001
  2.40000E-003	  3.67351E-001	  3.09535E-001	  4.06878E-001	  4.89527E-001
  2.60000E-003	  4.40647E-001	  4.41712E-001	  3.31104E-001	  5.02044E-001
  2.80000E-003	  4.05262E-001	  4.49055E-001	  3.91723E-001	  3.26805E-001
  3.00000E-003	  3.82515E-001	  3.14430E-001	  4.29610E-001	  4.59486E-001
  3.20000E-003	  3.93884E-001	  3.69499E-001	  4.04347E-001	  4.09413E-001
  3.60000E-003	  4.44433E-001	  3.43798E-001	  3.94244E-001	  4.05658E-001
  4.00000E-003	  4.46960E-001	  3.45022E-001	  3.99296E-001	  4.71998E-001
  4.40000E-003	  4.05258E-001	  3.13202E-001	  4.32131E-001	  4.29440E-001
  4.80000E-003	  3.81247E-001	  3.59708E-001	  3.57620E-001	  3.59345E-001
  5.20000E-003	  3.28171E-001	  3.60932E-001	  3.82878E-001	  3.20542E-001
  5.60000E-003	  4.10313E-001	  3.24217E-001	  3.20996E-001	  3.94393E-001
  6.00000E-003	  3.66114E-001	  3.37679E-001	  3.68986E-001	  3.59345E-001
  6.40000E-003	  3.47148E-001	  3.37670E-001	  3.58274E-001	  3.35554E-001
  7.20000E-003	  3.06709E-001	  3.55416E-001	  3.77849E-001	  3.26166E-001
  8.00000E-003	  3.22506E-001	  3.01566E-001	  3.33015E-001	  3.63717E-001
  8.80000E-003	  3.09868E-001	  3.53580E-001	  2.99548E-001	  3.10520E-001
  9.60000E-003	  3.33879E-001	  3.05238E-001	  2.88843E-001	  2.86738E-001
  1.04000E-002	  2.95967E-001	  2.89328E-001	  2.76213E-001	  3.01132E-001
  1.12000E-002	  2.79538E-001	  2.80149E-001	  2.85054E-001	  2.74847E-001
  1.20000E-002	  2.58687E-001	  2.45269E-001	  2.70530E-001	  2.63581E-001
  1.28000E-002	  2.38134E-001	  2.62692E-001	  2.36471E-001	  2.67945E-001
  1.44000E-002	  2.06225E-001	  2.51677E-001	  2.81307E-001	  2.43225E-001
  1.60000E-002	  2.49508E-001	  2.53513E-001	  2.24472E-001	  2.48544E-001
  1.76000E-002	  2.27076E-001	  2.25365E-001	  2.35495E-001	  2.56367E-001
  1.92000E-002	  2.13491E-001	  1.91403E-001	  1.65400E-001	  2.18504E-001
  2.08000E-002	  1.75896E-001	  2.01194E-001	  1.89397E-001	  1.90967E-001
  2.24000E-002	  1.83794E-001	  1.46428E-001	  1.90687E-001	  1.38710E-001
  2.40000E-002	  1.88217E-001	  1.48263E-001	  1.61954E-001	  1.87240E-001
  2.56000E-002	  1.48852E-001	  1.66669E-001	  1.40874E-001	  1.72840E-001
  2.88000E-002	  1.36057E-001	  1.44027E-001	  1.33637E-001	  1.41261E-001
  3.20000E-002	  1.02911E-001	  1.02109E-001	  1.18796E-001	  1.36124E-001
  3.52000E-002	  1.06702E-001	  9.92022E-002	  1.05981E-001	  1.35185E-001
  3.84000E-002	  1.04491E-001	  9.87432E-002	  7.69303E-002	  8.93647E-002
  4.16000E-002	  8.41133E-002	  1.05934E-001	  8.02459E-002	  1.00474E-001
  4.48000E-002	  9.40904E-002	  6.97003E-002	  8.87465E-002	  9.09295E-002
  4.80000E-002	  7.08690E-002	  1.07336E-001	  7.31163E-002	  1.02196E-001
  5.12000E-002	  6.38063E-002	  7.96079E-002	  7.63649E-002	  8.69806E-002
  5.76000E-002	  5.81986E-002	  6.38494E-002	  6.28649E-002	  6.24379E-002
  6.40000E-002	  5.63820E-002	  6.76257E-002	  6.13404E-002	  4.70243E-002
  7.04000E-002	  3.95039E-002	  3.13441E-002	  3.34727E-002	  4.87698E-002
  7.68000E-002	  2.34703E-002	  3.95287E-002	  5.73931E-002	  3.02807E-002
  8.32000E-002	  4.91642E-002	  1.54337E-002	  3.80515E-002	  1.37718E-002
  8.96000E-002	  4.00019E-002	  3.12676E-002	  3.95274E-002	 -1.09063E-004
  9.60000E-002	  2.64954E-002	  1.18385E-002	  2.42677E-002	  3.33253E-002
  1.02400E-001	  7.92308E-003	  1.58306E-002	  2.13381E-002	  3.15255E-002
  1.15200E-001	  1.46613E-002	  1.02840E-002	  1.49034E-002	  2.91713E-003
  1.28000E-001	  2.76171E-002	  1.34972E-002	  1.26137E-002	 -5.61201E-003
  1.40800E-001	  1.24888E-002	  1.41857E-002	  1.54325E-002	  1.27390E-003
  1.53600E-001	  4.09871E-003	  1.48894E-002	  5.45226E-003	 -1.17546E-002
  1.66400E-001	  7.14023E-003	  1.24334E-002	  4.29118E-003	 -2.12830E-004
  1.79200E-001	  8.66459E-003	 -2.16246E-003	  8.08110E-003	  5.78917E-003
  1.92000E-001	  1.47873E-002	  1.97582E-003	  4.76492E-003	  1.09434E-003
  2.04800E-001	  7.47770E-003	  8.75035E-004	 -2.65544E-003	 -8.76110E-004
  2.30400E-001	  2.68627E-003	  1.61012E-003	 -9.43114E-003	 -1.28010E-003
  2.56000E-001	  3.57873E-003	 -2.11206E-003	  1.06770E-002	  4.41032E-003
  2.81600E-001	  1.79729E-003	 -5.78491E-003	  5.63256E-003	 -1.16270E-003
  3.07200E-001	  6.36425E-003	  3.11028E-003	 -1.03931E-002	 -1.51147E-003
  3.32800E-001	  3.61476E-003	  5.86871E-003	 -7.54276E-003	 -1.33191E-003
  3.58400E-001	 -4.45846E-003	  3.62678E-003	  7.26617E-003	 -1.37316E-002
  3.84000E-001	  1.58285E-004	  3.12197E-003	  6.87118E-003	 -7.41414E-004
  4.09600E-001	  1.59947E-003	 -1.79217E-003	  2.40011E-003	  2.64321E-005
  4.60800E-001	 -1.53046E-004	 -2.71815E-003	  5.48169E-003	  7.21636E-003
  5.12000E-001	  6.44062E-005	 -7.64342E-003	  5.39631E-003	  3.32348E-003
  5.63200E-001	 -1.18690E-002	 -5.35102E-003	  7.76499E-004	  4.44640E-003
  6.14400E-001	 -2.28819E-003	  3.31755E-003	 -1.73612E-003	 -2.10115E-003
  6.65600E-001	 -2.43674E-003	 -6.81363E-004	  6.25221E-003	  8.82156E-003
  7.16800E-001	  1.32835E-003	  3.39087E-003	  5.38925E-003	 -1.10675E-003
  7.68000E-001	  4.07909E-003	  4.07393E-003	 -3.61316E-003	 -4.92983E-004
  8.19200E-001	 -1.20223E-003	  5.35415E-003	  1.98637E-003	  2.63093E-003
  9.21600E-001	 -2.81025E-003	  7.44008E-003	 -1.50839E-003	 -3.48922E-004
  1.02400E+000	 -6.28832E-003	 -3.18380E-003	  1.74416E-003	 -3.30049E-003
  1.12640E+000	  6.94872E-004	  4.25666E-003	 -7.45661E-003	 -1.84572E-003
  1.22880E+000	 -2.79842E-003	  8.19452E-003	 -2.67352E-003	  3.13521E-003
  1.33120E+000	  3.55775E-003	  1.04533E-004	 -9.16143E-003	 -3.53236E-004
  1.43360E+000	  7.91316E-003	 -2.86063E-003	 -1.27879E-002	  2.93779E-003
  1.53600E+000	  8.41829E-003	  1.22969E-003	 -3.63903E-003	  4.08744E-003
  1.63840E+000	  2.04819E-003	  3.22177E-003	 -3.88565E-003	 -2.18080E-003
  1.84320E+000	  1.38447E-003	 -2.59265E-003	 -2.95115E-003	 -1.14450E-003
  2.04800E+000	 -1.98391E-003	  5.35221E-004	  4.62625E-003	 -6.69387E-004
  2.25280E+000	  2.53565E-003	 -3.71341E-004	 -2.24711E-003	  5.63988E-004
  2.45760E+000	  4.15422E-003	  2.17035E-003	  4.52812E-003	  2.85838E-005
  2.66240E+000	  2.33076E-003	  7.01571E-003	  6.75299E-003	 -1.79416E-003
  2.86720E+000	  4.31015E-003	  1.24942E-003	 -2.33521E-003	  1.49172E-004
  3.07200E+000	  2.92440E-003	  1.13292E-003	  3.06047E-003	  4.43681E-003
  3.27680E+000	 -1.00206E-003	  1.90653E-004	  2.55784E-003	  6.45375E-003
  3.68640E+000	 -1.40919E-005	 -3.77561E-004	 -2.22744E-004	 -1.68986E-003
  4.09600E+000	  7.31380E-004	 -4.24875E-003	  1.68671E-003	  1.58991E-003
  4.50560E+000	 -3.93198E-004	 -3.21152E-003	 -1.03324E-003	 -7.91233E-004
  4.91520E+000	 -9.95124E-004	  3.95335E-003	  2.63466E-003	 -3.30558E-003
  5.32480E+000	  4.41518E-004	 -3.63435E-003	 -2.68589E-003	  1.27775E-003
  5.73440E+000	 -5.15307E-003	  4.08471E-003	  2.44220E-003	 -3.35128E-003
  6.14400E+000	  4.83385E-003	  3.18313E-003	 -1.30619E-004	 -8.08120E-005
  6.55360E+000	  3.12326E-003	  1.08208E-003	  1.55190E-003	 -1.54916E-004
  7.37280E+000	  1.47174E-003	  1.08414E-003	 -3.09546E-004	  1.70245E-003
  8.19200E+000	  2.23936E-003	 -3.13139E-004	 -9.43758E-004	 -1.19932E-003
  9.01120E+000	  1.72591E-003	  1.72153E-003	  9.33605E-004	  1.64821E-003
  9.83040E+000	 -6.86250E-004	  8.09457E-004	  2.01152E-003	  9.00763E-005
  1.06496E+001	 -1.97723E-003	  5.56288E-005	 -4.32916E-004	 -6.93820E-004
  1.14688E+001	  4.67820E-004	 -1.15120E-003	 -2.28424E-003	  3.35794E-003
  1.22880E+001	 -5.09597E-004	  9.64697E-006	 -1.23645E-003	  8.64936E-004
  1.31072E+001	 -3.36287E-004	 -2.53747E-004	 -7.72740E-004	  8.70862E-004
  1.47456E+001	  1.38354E-003	 -2.38600E-003	 -2.95746E-004	  8.42451E-004
  1.63840E+001	  1.33084E-003	 -9.85388E-004	  1.11890E-003	 -1.69397E-003
  1.80224E+001	 -1.69788E-003	 -8.41055E-004	 -1.15086E-003	  7.96623E-004
  1.96608E+001	  2.89634E-004	 -1.17490E-003	 -1.65729E-003	  3.24236E-004
  2.12992E+001	  7.49572E-004	 -1.81675E-003	 -3.23265E-004	 -8.09979E-005
  2.29376E+001	  3.31989E-003	  1.49180E-004	 -1.45171E-003	 -2.32429E-003
  2.45760E+001	  1.62548E-004	  9.43886E-005	  1.22606E-003	  1.08037E-003
  2.62144E+001	  3.95050E-004	  9.34326E-004	 -3.30730E-004	 -4.37199E-004
  2.94912E+001	  1.25063E-003	 -2.17103E-004	  2.52063E-004	  1.91149E-004
  3.27680E+001	 -4.60997E-004	  1.73675E-003	  8.16280E-004	  3.57287E-004
  3.60448E+001	 -2.10734E-004	  3.88788E-005	  2.22367E-005	 -1.04383E-004
  3.93216E+001	  4.78106E-004	  4.02601E-004	  1.11607E-003	 -2.78015E-004
  4.25984E+001	 -1.06499E-003	 -1.05780E-003	 -1.09994E-003	 -5.10865E-004
  4.58752E+001	  7.97552E-004	  7.86365E-005	  4.61204E-004	  1.09758E-004
  4.91520E+001	 -2.53477E-003	 -1.33668E-003	 -9.16506E-004	 -3.92372E-004
  5.24288E+001	 -8.12996E-005	 -1.58893E-004	 -4.20511E-005	  1.59989E-005
  5.89824E+001	 -1.26662E-004	 -2.01229E-004	  2.08868E-004	 -4.48406E-005
  6.55360E+001	 -1.40560E-004	  5.88428E-004	  4.00429E-004	 -3.54191E-004
  7.20896E+001	 -8.60662E-004	 -9.97016E-004	  2.85559E-004	 -5.72038E-004
  7.86432E+001	 -2.13189E-004	  1.69514E-004	  6.91465E-007	 -9.67288E-004
  8.51968E+001	 -5.87131E-004	 -1.22539E-003	 -2.50523E-005	  2.92015E-004
  9.17504E+001	 -1.63469E-006	 -1.31403E-003	 -7.87162E-004	  4.53790E-004
  9.83040E+001	  1.23402E-004	 -3.66746E-004	 -5.67334E-004	 -3.59920E-004
  1.04858E+002	 -5.26861E-004	 -1.68103E-004	 -1.33663E-004	 -1.14284E-005
  1.17965E+002	  3.45193E-004	 -1.36915E-004	 -4.24535E-004	 -9.42424E-005
  1.31072E+002	 -2.44035E-004	 -1.60757E-004	 -2.88329E-004	  2.84376E-004
  1.44179E+002	 -2.32354E-005	  2.44487E-004	 -1.60559E-004	  1.70638E-004
  1.57286E+002	  8.72023E-004	 -3.37583E-004	 -1.10059E-004	 -5.03042E-004
  1.70394E+002	 -3.39726E-004	  2.83724E-004	  2.72714E-004	 -3.47107E-004
  1.83501E+002	 -2.03727E-004	  1.10165E-003	 -3.20981E-004	 -7.76550E-005
  1.96608E+002	 -6.10120E-005	 -1.31844E-004	 -4.81882E-004	  1.11513E-004
  2.09715E+002	 -3.95867E-004	  2.03094E-004	 -2.94253E-004	  2.41905E-004
  2.35930E+002	 -4.74785E-004	 -3.54476E-004	  4.48813E-005	 -2.64189E-006
  2.62144E+002	 -5.27437E-004	  4.77188E-004	  3.58187E-005	  5.19957E-004
  2.88358E+002	 -9.10328E-005	 -2.06261E-004	  5.69189E-004	  2.64567E-004
  3.14573E+002	  4.02196E-005	  3.89144E-004	 -2.04269E-004	 -2.76165E-004
  3.40787E+002	 -1.83456E-004	 -6.83691E-004	  2.08239E-004	 -5.95440E-005
  3.67002E+002	 -3.15053E-004	 -5.43378E-004	  1.41433E-004	 -6.09778E-005
  3.93216E+002	  3.87949E-004	  8.02863E-004	 -4.15718E-004	 -7.06721E-005

"Count Rate"
       0.01311	      46.84448	      46.38672	      48.52295	      49.81995
       0.02621	      45.54749	      52.10876	      50.12512	      45.01343
       0.03932	      48.52295	      38.07068	      42.95349	      43.18237
       0.05243	      51.80359	      48.98071	      45.31860	      41.27502
       0.06554	      45.54749	      44.02161	      42.57202	      43.02979
       0.07864	      48.82813	      37.61292	      47.76001	      48.44666
       0.09175	      44.32678	      47.30225	      44.40308	      46.31042
       0.10486	      41.73279	      44.55566	      41.58020	      44.63196
       0.11796	      44.70825	      51.72729	      46.15784	      47.91260
       0.13107	      42.95349	      46.00525	      45.62378	      45.39490
       0.14418	      42.80090	      48.59924	      43.71643	      44.47937
       0.15729	      44.17419	      49.43848	      46.84448	      49.36218
       0.17039	      45.92896	      46.15784	      45.62378	      50.65918
       0.18350	      42.80090	      43.02979	      47.53113	      52.71912
       0.19661	      41.65649	      47.83630	      47.14966	      42.03796
       0.20972	      44.25049	      42.95349	      43.25867	      46.76819
       0.22282	      42.87720	      46.15784	      43.64014	      48.82813
       0.23593	      43.25867	      45.08972	      42.72461	      41.35132
       0.24904	      45.24231	      38.75732	      44.47937	      44.78455
       0.26214	      45.62378	      44.93713	      44.70825	      42.26685
       0.27525	      40.81726	      49.51477	      48.44666	      42.64832
       0.28836	      44.40308	      45.31860	      45.31860	      44.17419
       0.30147	      43.86902	      47.91260	      43.94531	      48.06519
       0.31457	      47.76001	      46.92078	      43.25867	      44.93713
       0.32768	      44.09790	      48.06519	      50.27771	      44.32678
       0.34079	      43.25867	      48.29407	      46.23413	      45.01343
       0.35389	      45.47119	      46.76819	      41.42761	      46.38672
       0.36700	      46.31042	      41.65649	      47.22595	      45.08972
       0.38011	      45.77637	      46.92078	      41.65649	      43.86902
       0.39322	      44.32678	      44.78455	      49.89624	      42.72461
       0.40632	      43.18237	      48.59924	      45.39490	      44.93713
       0.41943	      44.32678	      47.60742	      41.42761	      47.22595
       0.43254	      43.10608	      40.74097	      45.54749	      47.14966
       0.44564	      47.30225	      48.06519	      45.62378	      44.78455
       0.45875	      48.59924	      43.41125	      47.98889	      45.77637
       0.47186	      50.65918	      47.30225	      42.34314	      46.23413
       0.48497	      48.59924	      45.70007	      44.02161	      42.41943
       0.49807	      43.33496	      43.79272	      44.86084	      39.44397
       0.51118	      42.19055	      41.96167	      45.31860	      43.71643
       0.52429	      43.48755	      44.70825	      41.73279	      46.92078
       0.53740	      46.23413	      47.76001	      47.37854	      47.98889
       0.55050	      40.66467	      46.92078	      44.25049	      42.11426
       0.56361	      43.48755	      40.66467	      46.23413	      47.37854
       0.57672	      43.71643	      47.30225	      43.41125	      44.78455
       0.58982	      48.37036	      51.04065	      44.09790	      43.33496
       0.60293	      41.80908	      47.37854	      43.79272	      41.96167
       0.61604	      45.54749	      46.00525	      50.88806	      44.86084
       0.62915	      47.22595	      49.43848	      50.81177	      42.95349
       0.64225	      43.79272	      44.86084	      45.39490	      43.94531
       0.65536	      49.43848	      41.73279	      47.83630	      45.24231
       0.66847	      41.42761	      48.90442	      45.47119	      47.07336
       0.68157	      45.08972	      41.27502	      43.10608	      45.54749
       0.69468	      45.92896	      48.29407	      48.82813	      44.70825
       0.70779	      38.52844	      45.85266	      42.41943	      49.97253
       0.72090	      41.58020	      46.38672	      45.54749	      49.05701
       0.73400	      45.08972	      48.75183	      41.35132	      43.48755
       0.74711	      45.62378	      45.54749	      39.97803	      44.25049
