ALV-7004/USB-FAST
Date :	"11/11/2025"
Time :	"3:53:54 PM"
Samplename : 	""
SampMemo(0) : 	""
SampMemo(1) : 	""
SampMemo(2) : 	""
SampMemo(3) : 	""
SampMemo(4) : 	""
SampMemo(5) : 	""
SampMemo(6) : 	""
SampMemo(7) : 	""
SampMemo(8) : 	""
SampMemo(9) : 	""
Temperature [K] :	     298.16000
Viscosity [cp]  :	       0.89000
Refractive Index:	       1.33200
Wavelength [nm] :	       0.00000
Angle [°]       :	       0.00000
Duration [s]    :	         1
FloatDur [ms]   :	          944
Stop TP [ms]   :	     58842
Runs            :	         1
Mode            :	"A-CH0+1  A-CH2+3 "
MeanCR0 [kHz]   :	      56.26361
MeanCR1 [kHz]   :	      55.93300
MeanCR2 [kHz]   :	      54.88396
MeanCR3 [kHz]   :	      55.17536

"Correlation"
  3.12500E-006	 -1.00000E+000	 -1.00000E+000	 -1.00000E+000	 -1.00000E+000
  6.25000E-006	 -1.00000E+000	 -1.00000E+000	 -1.00000E+000	 -1.00000E+000
  9.37500E-006	 -1.00000E+000	 -1.00000E+000	 -1.00000E+000	 -1.00000E+000
  1.25000E-005	 -1.00000E+000	 -1.00000E+000	 -1.00000E+000	 -1.00000E+000
  1.56250E-005	 -1.00000E+000	 -1.00000E+000	 -1.00000E+000	 -1.00000E+000
  1.87500E-005	 -1.00000E+000	 -1.00000E+000	 -1.00000E+000	 -1.00000E+000
  2.18750E-005	 -8.92882E-001	  1.16771E+000	  6.88527E-001	 -6.65852E-001
  2.50000E-005	  1.03545E+001	  1.05973E+001	  1.27334E+001	  2.39497E+001
  2.81250E-005	  2.85623E+000	  2.35995E+000	  1.47651E+000	  1.11407E+001
  3.12500E-005	  8.20998E-001	  1.16771E+000	  1.25685E-001	  5.57157E+000
  3.43750E-005	  9.28116E-001	  1.27610E+000	  5.75958E-001	  4.56913E+000
  3.75000E-005	  1.46370E+000	  8.38554E-002	  1.13880E+000	  3.67807E+000
  4.06250E-005	  7.13881E-001	  6.25783E-001	  9.13664E-001	  3.56669E+000
  4.37500E-005	  1.35659E+000	  1.49287E+000	  1.02623E+000	  3.23254E+000
  4.68750E-005	  1.14235E+000	  9.50940E-001	  1.81421E+000	  3.45530E+000
  5.00000E-005	  5.53204E-001	  5.71590E-001	  7.44811E-001	  2.56424E+000
  5.62500E-005	  3.92528E-001	  1.05933E+000	  6.32243E-001	  1.78456E+000
  6.25000E-005	  3.92528E-001	  3.00626E-001	  4.63390E-001	  1.72887E+000
  6.87500E-005	  6.60322E-001	  6.25783E-001	  8.01095E-001	  6.70738E-001
  7.50000E-005	  2.31852E-001	  5.71590E-001	  9.13664E-001	  1.61749E+000
  8.12500E-005	  1.03523E+000	  1.00513E+000	  4.07106E-001	  1.00489E+000
  8.75000E-005	  2.85410E-001	  6.79976E-001	  8.01095E-001	  1.22765E+000
  9.37500E-005	  1.24734E-001	  6.25783E-001	  8.01095E-001	  9.49195E-001
  1.00000E-004	  6.87101E-001	  5.71590E-001	  6.04100E-001	  9.21349E-001
  1.12500E-004	  4.19307E-001	  1.65144E-001	  6.32242E-001	  7.82121E-001
  1.25000E-004	  3.38969E-001	  4.09012E-001	  8.29237E-001	  5.31510E-001
  1.37500E-004	  5.26425E-001	  5.71590E-001	  5.47816E-001	  7.54275E-001
  1.50000E-004	  3.65748E-001	  4.90301E-001	  7.16669E-001	  5.31510E-001
  1.62500E-004	  5.53204E-001	  3.00626E-001	  8.01095E-001	  6.98584E-001
  1.75000E-004	  8.20998E-001	  6.79976E-001	  7.72953E-001	  6.15047E-001
  1.87500E-004	  4.72866E-001	  5.71590E-001	  5.75958E-001	 -8.10940E-002
  2.00000E-004	  6.60321E-001	  3.00626E-001	  6.32242E-001	  3.92282E-001
  2.25000E-004	  7.54049E-001	  3.95463E-001	  7.72952E-001	  7.26429E-001
  2.50000E-004	  2.85410E-001	  4.90301E-001	  4.49318E-001	  4.89741E-001
  2.75000E-004	  6.46932E-001	  4.36108E-001	  3.36750E-001	  8.79580E-001
  3.00000E-004	  3.52358E-001	  4.49656E-001	  2.80466E-001	  6.56815E-001
  3.25000E-004	  4.99645E-001	  4.76752E-001	  5.90029E-001	  7.82120E-001
  3.50000E-004	  6.60321E-001	  5.58042E-001	  2.80466E-001	  7.96043E-001
  3.75000E-004	  4.32697E-001	  6.66427E-001	  7.16668E-001	  2.94822E-001
  4.00000E-004	  4.39391E-001	  5.98685E-001	  5.19673E-001	  3.15706E-001
  4.50000E-004	  5.39813E-001	  6.73200E-001	  6.04099E-001	  3.99242E-001
  5.00000E-004	  5.93372E-001	  4.83526E-001	  4.49318E-001	  5.45432E-001
  5.50000E-004	  5.73288E-001	  6.39330E-001	  3.78962E-001	  3.15706E-001
  6.00000E-004	  3.85832E-001	  5.78363E-001	  6.74454E-001	  3.92281E-001
  6.50000E-004	  4.52780E-001	  4.76752E-001	  4.35247E-001	  5.52393E-001
  7.00000E-004	  4.99644E-001	  4.22559E-001	  5.97064E-001	  4.89741E-001
  7.50000E-004	  4.52780E-001	  5.37719E-001	  5.75957E-001	  5.52393E-001
  8.00000E-004	  5.06338E-001	  4.49654E-001	  5.54849E-001	  5.21066E-001
  9.00000E-004	  3.62399E-001	  3.92074E-001	  5.65403E-001	  4.75817E-001
  1.00000E-003	  4.82906E-001	  3.85300E-001	  4.98565E-001	  4.68855E-001
  1.10000E-003	  4.96296E-001	  4.15784E-001	  5.75956E-001	  4.96701E-001
  1.20000E-003	  3.49009E-001	  5.34330E-001	  4.84494E-001	  3.60954E-001
  1.30000E-003	  5.59897E-001	  4.76750E-001	  3.68408E-001	  4.65374E-001
  1.40000E-003	  4.46084E-001	  5.44491E-001	  5.40778E-001	  4.41010E-001
  1.50000E-003	  3.82483E-001	  3.88687E-001	  4.49316E-001	  3.99241E-001
  1.60000E-003	  4.92974E-001	  3.68363E-001	  4.89768E-001	  4.61919E-001
  1.80000E-003	  4.19329E-001	  4.91990E-001	  4.52832E-001	  5.33275E-001
  2.00000E-003	  5.08038E-001	  3.90379E-001	  5.70676E-001	  4.37554E-001
  2.20000E-003	  3.40664E-001	  4.85216E-001	  4.63385E-001	  5.07169E-001
  2.40000E-003	  4.00918E-001	  4.78442E-001	  3.98307E-001	  4.86285E-001
  2.60000E-003	  4.21003E-001	  4.46265E-001	  5.39017E-001	  4.91506E-001
  2.80000E-003	  4.61173E-001	  4.42878E-001	  4.82733E-001	  4.74102E-001
  3.00000E-003	  5.11385E-001	  4.59813E-001	  4.63385E-001	  4.46256E-001
  3.20000E-003	  4.82954E-001	  4.43719E-001	  5.20543E-001	  4.63683E-001
  3.60000E-003	  4.67026E-001	  4.45413E-001	  4.84486E-001	  4.44538E-001
  4.00000E-003	  4.98827E-001	  4.21704E-001	  4.47550E-001	  5.12414E-001
  4.40000E-003	  4.89621E-001	  4.53034E-001	  4.89763E-001	  4.36679E-001
  4.80000E-003	  4.64515E-001	  4.56421E-001	  5.53992E-001	  4.26237E-001
  5.20000E-003	  5.00501E-001	  4.59808E-001	  5.27608E-001	  4.59304E-001
  5.60000E-003	  4.71210E-001	  4.96218E-001	  5.33764E-001	  5.21087E-001
  6.00000E-003	  4.23509E-001	  4.42873E-001	  5.56630E-001	  4.31458E-001
  6.40000E-003	  4.14347E-001	  4.39053E-001	  5.15725E-001	  4.30633E-001
  7.20000E-003	  5.16029E-001	  4.25928E-001	  4.63398E-001	  4.35854E-001
  8.00000E-003	  4.72511E-001	  4.41593E-001	  4.83186E-001	  4.73737E-001
  8.80000E-003	  5.06405E-001	  4.52177E-001	  4.45370E-001	  4.38057E-001
  9.60000E-003	  4.31922E-001	  4.38629E-001	  4.81427E-001	  4.71996E-001
  1.04000E-002	  4.68299E-001	  4.70382E-001	  4.39214E-001	  4.31531E-001
  1.12000E-002	  4.18086E-001	  4.56411E-001	  5.02534E-001	  4.62396E-001
  1.20000E-002	  5.00100E-001	  4.74616E-001	  4.79228E-001	  4.18015E-001
  1.28000E-002	  4.74611E-001	  4.76557E-001	  4.79514E-001	  4.51119E-001
  1.44000E-002	  4.60775E-001	  4.96880E-001	  4.63024E-001	  4.59604E-001
  1.60000E-002	  4.87136E-001	  4.58352E-001	  4.55548E-001	  4.85465E-001
  1.76000E-002	  4.77931E-001	  4.48402E-001	  4.86550E-001	  4.55225E-001
  1.92000E-002	  4.61193E-001	  4.55600E-001	  4.88309E-001	  4.41736E-001
  2.08000E-002	  4.87136E-001	  4.24904E-001	  4.45434E-001	  4.73282E-001
  2.24000E-002	  4.77722E-001	  4.58775E-001	  4.62364E-001	  4.48045E-001
  2.40000E-002	  4.49031E-001	  4.67878E-001	  4.43703E-001	  4.79780E-001
  2.56000E-002	  4.46117E-001	  4.55459E-001	  4.58894E-001	  4.68077E-001
  2.88000E-002	  4.51480E-001	  4.43235E-001	  4.61174E-001	  4.36966E-001
  3.20000E-002	  4.45935E-001	  4.49798E-001	  4.70023E-001	  4.42296E-001
  3.52000E-002	  4.46981E-001	  4.26192E-001	  4.65544E-001	  4.36531E-001
  3.84000E-002	  4.38717E-001	  4.52812E-001	  4.48613E-001	  4.24566E-001
  4.16000E-002	  4.18501E-001	  4.35876E-001	  4.20137E-001	  4.10506E-001
  4.48000E-002	  4.29798E-001	  4.23386E-001	  4.31407E-001	  4.08113E-001
  4.80000E-002	  4.11596E-001	  4.22327E-001	  4.25360E-001	  4.15727E-001
  5.12000E-002	  4.19603E-001	  4.28234E-001	  4.13845E-001	  4.07764E-001
  5.76000E-002	  4.13824E-001	  3.97826E-001	  4.24431E-001	  4.16901E-001
  6.40000E-002	  3.97216E-001	  4.02616E-001	  4.07273E-001	  3.95934E-001
  7.04000E-002	  4.00094E-001	  3.82371E-001	  3.94131E-001	  3.95444E-001
  7.68000E-002	  3.87801E-001	  3.65911E-001	  3.84645E-001	  3.74178E-001
  8.32000E-002	  3.78908E-001	  3.67604E-001	  3.90999E-001	  3.76053E-001
  8.96000E-002	  3.77809E-001	  3.56385E-001	  3.59216E-001	  3.77957E-001
  9.60000E-002	  3.50189E-001	  3.52522E-001	  3.54158E-001	  3.47226E-001
  1.02400E-001	  3.53878E-001	  3.45824E-001	  3.45831E-001	  3.47399E-001
  1.15200E-001	  3.36926E-001	  3.27139E-001	  3.55597E-001	  3.24856E-001
  1.28000E-001	  3.15895E-001	  3.10466E-001	  3.21990E-001	  3.06579E-001
  1.40800E-001	  2.96795E-001	  2.93682E-001	  3.03017E-001	  3.12016E-001
  1.53600E-001	  2.81489E-001	  2.68775E-001	  2.83752E-001	  2.74075E-001
  1.66400E-001	  2.61992E-001	  2.64810E-001	  2.65244E-001	  2.71491E-001
  1.79200E-001	  2.54447E-001	  2.44245E-001	  2.56261E-001	  2.57700E-001
  1.92000E-001	  2.34844E-001	  2.22337E-001	  2.43870E-001	  2.44176E-001
  2.04800E-001	  2.23330E-001	  2.17128E-001	  2.29422E-001	  2.27093E-001
  2.30400E-001	  1.99549E-001	  1.97647E-001	  2.01743E-001	  1.98285E-001
  2.56000E-001	  1.68780E-001	  1.73539E-001	  1.79317E-001	  1.77303E-001
  2.81600E-001	  1.46921E-001	  1.51705E-001	  1.65238E-001	  1.57839E-001
  3.07200E-001	  1.35306E-001	  1.41452E-001	  1.40668E-001	  1.36538E-001
  3.32800E-001	  1.17692E-001	  1.20290E-001	  1.26870E-001	  1.25428E-001
  3.58400E-001	  1.01294E-001	  1.12807E-001	  1.13226E-001	  1.05310E-001
  3.84000E-001	  8.11439E-002	  9.62484E-002	  9.63104E-002	  9.55928E-002
  4.09600E-001	  7.07792E-002	  8.60883E-002	  8.77860E-002	  8.61800E-002
  4.60800E-001	  6.35927E-002	  6.73268E-002	  7.44120E-002	  6.13389E-002
  5.12000E-001	  5.00664E-002	  6.20709E-002	  6.33836E-002	  4.67989E-002
  5.63200E-001	  4.12948E-002	  5.20420E-002	  5.99501E-002	  2.78583E-002
  6.14400E-001	  3.36770E-002	  3.83862E-002	  4.51221E-002	  2.38058E-002
  6.65600E-001	  2.98068E-002	  2.32151E-002	  4.49858E-002	  1.95273E-002
  7.16800E-001	  2.74170E-002	  2.14904E-002	  3.67047E-002	  1.38436E-002
  7.68000E-001	  1.93823E-002	  1.75999E-002	  3.13334E-002	  1.77880E-002
  8.19200E-001	  1.16773E-002	  1.61021E-002	  2.58862E-002	  9.88203E-003
  9.21600E-001	  7.65508E-003	  1.24726E-002	  1.24846E-002	  4.38167E-003
  1.02400E+000	  9.25261E-003	  1.35385E-002	  6.12823E-003	 -2.90328E-003
  1.12640E+000	  1.47795E-002	  4.71352E-003	 -8.74720E-003	  4.04188E-003
  1.22880E+000	  2.22454E-002	  6.04519E-003	 -1.23665E-002	  7.26843E-003
  1.33120E+000	  2.23481E-002	  7.80044E-003	 -1.15670E-002	  6.21198E-003
  1.43360E+000	  1.48921E-002	  5.81695E-003	 -8.75600E-003	  8.33259E-003
  1.53600E+000	  3.56353E-003	 -3.97419E-004	 -9.69903E-003	  2.55853E-003
  1.63840E+000	  7.76999E-004	 -1.79678E-003	 -7.44435E-003	 -1.34575E-003
  1.84320E+000	 -1.15453E-002	 -6.57335E-003	 -1.89550E-003	 -4.03463E-004
  2.04800E+000	 -1.11035E-002	 -2.92613E-003	 -8.40620E-004	 -1.05160E-002
  2.25280E+000	 -3.75974E-003	 -1.15629E-002	  8.12150E-003	 -2.21129E-002
  2.45760E+000	 -6.96662E-004	 -4.26817E-003	  1.18556E-002	 -2.01558E-002
  2.66240E+000	 -1.21306E-002	 -2.46693E-003	  1.47220E-002	 -1.88094E-002
  2.86720E+000	  1.53431E-004	 -1.83784E-003	  1.36532E-002	 -9.64780E-003
  3.07200E+000	  8.51638E-004	 -1.27857E-003	  8.22657E-003	 -3.57192E-004
  3.27680E+000	 -2.49041E-003	  7.77079E-004	  3.41597E-003	  1.47839E-003
  3.68640E+000	 -1.12462E-002	 -1.89980E-003	  2.77124E-003	 -5.45575E-003
  4.09600E+000	 -1.41912E-002	  1.40003E-003	 -4.71082E-003	  4.28257E-003
  4.50560E+000	 -7.43074E-003	  5.92921E-003	  9.13223E-004	 -1.39253E-002
  4.91520E+000	 -2.18303E-003	  1.08347E-002	  1.01599E-002	 -1.65686E-002
  5.32480E+000	 -1.06390E-002	  1.30133E-002	  1.28555E-002	 -9.02223E-003
  5.73440E+000	 -4.29622E-003	  4.78940E-005	  1.20386E-002	 -1.81627E-002
  6.14400E+000	 -4.29003E-003	 -1.10514E-003	  4.47087E-003	 -1.77532E-002
  6.55360E+000	 -3.63096E-003	 -2.67692E-003	  1.14500E-002	 -7.31347E-003
  7.37280E+000	 -4.43276E-003	 -1.03151E-002	  4.50367E-003	  2.30951E-004
  8.19200E+000	  7.72556E-003	 -2.59545E-003	  5.09224E-003	 -1.39728E-002
  9.01120E+000	  3.14682E-004	  9.92005E-003	  6.77050E-003	 -1.38139E-002
  9.83040E+000	 -6.71195E-003	  1.72516E-002	  1.13424E-003	 -4.76431E-003
  1.06496E+001	 -1.13945E-002	  8.80369E-003	 -5.47502E-003	  3.07912E-003
  1.14688E+001	 -8.52401E-003	  1.14238E-002	 -9.21999E-005	 -1.64945E-003
  1.22880E+001	 -9.09443E-003	 -1.78534E-002	  5.07446E-003	  2.52305E-003
  1.31072E+001	 -3.53655E-003	 -1.31840E-002	  3.29237E-003	  7.07533E-003
  1.47456E+001	  4.47007E-003	 -8.60712E-004	  4.45359E-003	  7.63572E-003
  1.63840E+001	 -1.96665E-003	 -1.88732E-004	 -3.95623E-003	  1.39880E-003
  1.80224E+001	 -1.78933E-004	  1.12800E-003	  3.79726E-003	 -1.67746E-003
  1.96608E+001	  7.17789E-003	  6.26497E-003	 -6.55985E-003	 -1.13291E-002
  2.12992E+001	  2.92751E-003	 -6.89537E-004	  1.92027E-003	 -2.40920E-003
  2.29376E+001	  3.53258E-005	 -1.30792E-002	  2.07832E-003	 -3.10104E-003
  2.45760E+001	 -5.39718E-003	 -1.67325E-002	 -4.74683E-003	  9.51384E-004
  2.62144E+001	 -4.22474E-003	 -1.10902E-003	 -1.19335E-003	  9.31559E-004
  2.94912E+001	 -1.24709E-003	  5.24977E-003	  2.29389E-003	  3.09100E-003
  3.27680E+001	 -1.88591E-003	  7.37376E-004	  2.16031E-003	 -2.54970E-004
  3.60448E+001	  5.02167E-004	  1.61754E-003	 -3.79055E-003	 -5.18019E-003
  3.93216E+001	  3.64240E-003	 -6.41307E-004	  3.77022E-003	  8.87658E-004
  4.25984E+001	  1.47376E-003	 -8.83194E-004	  2.61679E-003	 -2.90859E-003
  4.58752E+001	 -3.20390E-003	 -3.60462E-003	  2.10147E-003	 -3.52634E-003
  4.91520E+001	 -5.39968E-003	 -6.12918E-003	  5.81842E-003	  2.55269E-003
  5.24288E+001	  3.22044E-003	 -1.85055E-003	 -4.34085E-004	  5.49398E-003
  5.89824E+001	  1.57887E-003	  4.44188E-003	 -3.84406E-005	 -3.62102E-003
  6.55360E+001	 -2.20265E-003	  2.31107E-003	  2.48989E-003	 -4.08985E-003
  7.20896E+001	  3.74021E-003	 -4.01111E-003	  2.46707E-003	  5.63759E-004
  7.86432E+001	 -1.28599E-003	  8.92929E-003	 -8.16130E-004	 -3.99735E-003
  8.51968E+001	  2.28380E-004	 -5.32083E-003	  1.60243E-003	  1.02053E-003
  9.17504E+001	  3.98121E-003	  1.79927E-003	  4.42938E-003	  1.73038E-004
  9.83040E+001	 -1.72411E-003	  2.95657E-003	 -3.23193E-003	 -2.04869E-003
  1.04858E+002	 -2.31761E-003	  3.14694E-003	 -2.65032E-003	  9.02279E-004
  1.17965E+002	  1.05841E-003	 -5.37123E-004	 -2.34935E-003	 -6.65143E-005
  1.31072E+002	 -3.49455E-003	  1.79872E-003	  1.69978E-004	 -1.16582E-003
  1.44179E+002	  1.08458E-003	  1.74938E-003	  3.34036E-003	  2.05058E-003
  1.57286E+002	  5.78248E-004	  3.21803E-003	 -2.19522E-003	  2.82496E-003
  1.70394E+002	  8.78764E-004	 -6.51553E-004	 -2.59565E-003	 -1.00198E-003
  1.83501E+002	 -1.32813E-003	 -5.57904E-003	 -2.10528E-003	 -2.56912E-003
  1.96608E+002	 -2.48825E-003	  2.49756E-003	 -2.19380E-003	  2.00809E-004
  2.09715E+002	 -1.03792E-003	 -1.95735E-004	 -6.74752E-005	 -1.29778E-003
  2.35930E+002	 -1.43891E-003	  1.30133E-003	 -4.93401E-003	  3.00842E-003
  2.62144E+002	  1.07870E-004	  5.70101E-005	 -1.29558E-003	 -9.43979E-004
  2.88358E+002	 -7.04667E-004	 -4.34518E-003	 -1.06447E-003	  6.97495E-004
  3.14573E+002	 -3.26514E-004	  6.22081E-004	 -5.47505E-003	 -5.58665E-004
  3.40787E+002	 -1.89724E-003	 -3.63803E-003	  1.84529E-003	 -1.47577E-003
  3.67002E+002	  1.73198E-004	 -7.42903E-004	 -7.79167E-004	  1.01452E-003
  3.93216E+002	 -2.55787E-004	 -1.28149E-004	  1.31424E-003	  3.00786E-004

"Count Rate"
       0.01311	      55.69458	      66.37573	      60.34851	      55.08423
       0.02621	      62.94250	      52.26135	      58.44116	      36.23962
       0.03932	      58.44116	      66.52832	      58.74634	      56.76270
       0.05243	      47.83630	      59.20410	      58.44116	      63.47656
       0.06554	      51.72729	      49.81995	      55.23682	      48.14148
       0.07864	      64.69727	      52.03247	      60.57739	      60.27222
       0.09175	      53.40576	      43.86902	      60.42480	      51.57471
       0.10486	      53.10059	      44.09790	      50.12512	      60.72998
       0.11796	      52.79541	      58.82263	      54.85535	      53.02429
       0.13107	      82.85522	      53.78723	      51.04065	      53.55835
       0.14418	      55.99976	      56.91528	      50.43030	      58.51746
       0.15729	      61.26404	      47.07336	      55.84717	      62.02698
       0.17039	      56.83899	      44.63196	      42.57202	      52.94800
       0.18350	      46.08154	      52.87170	      62.02698	      48.29407
       0.19661	      55.08423	      52.94800	      55.46570	      59.20410
       0.20972	      61.95068	      60.04333	      62.86621	      52.18506
       0.22282	      69.12231	      49.13330	      46.08154	      47.76001
       0.23593	      47.60742	      55.23682	      55.08423	      50.88806
       0.24904	      65.53650	      46.00525	      59.12781	      46.00525
       0.26214	      41.50391	      47.53113	      62.02698	      62.40845
       0.27525	      58.97522	      48.90442	      58.74634	      47.98889
       0.28836	      50.73547	      67.82532	      58.36487	      57.14417
       0.30147	      60.27222	      48.98071	      52.03247	      59.81445
       0.31457	      56.38123	      47.68372	      40.89355	      49.59106
       0.32768	      59.35669	      58.82263	      75.53101	      52.94800
       0.34079	      58.74634	      56.22864	      61.11145	      60.19592
       0.35389	      54.16870	      68.66455	      41.73279	      53.17688
       0.36700	      64.31580	      47.98889	      47.98889	      58.28857
       0.38011	      65.07874	      54.24500	      45.16602	      48.44666
       0.39322	      55.31311	      54.55017	      45.39490	      54.32129
       0.40632	      57.52563	      63.55286	      51.80359	      53.78723
       0.41943	      45.62378	      50.81177	      53.32947	      58.44116
       0.43254	      53.63464	      60.65369	      49.51477	      52.79541
       0.44564	      50.73547	      59.89075	      53.17688	      55.92346
       0.45875	      54.77905	      45.47119	      56.68640	      52.10876
       0.47186	      46.23413	      55.16052	      51.95618	      47.98889
       0.48497	      60.27222	      67.97791	      51.19324	      59.96704
       0.49807	      46.31042	      58.36487	      50.81177	      56.45752
       0.51118	      47.98889	      72.63184	      38.75732	      61.95068
       0.52429	      55.46570	      51.04065	      43.10608	      44.55566
       0.53740	      54.09241	      53.02429	      57.52563	      67.74902
       0.55050	      52.71912	      59.58557	      57.14417	      50.04883
       0.56361	      44.63196	      55.99976	      46.38672	      68.28308
       0.57672	      57.67822	      48.06519	      42.80090	      48.14148
       0.58982	      55.16052	      55.99976	      60.72998	      49.51477
       0.60293	      54.09241	      55.31311	      54.55017	      50.27771
       0.61604	      61.26404	      67.13867	      54.77905	      56.38123
       0.62915	      55.31311	      48.90442	      55.84717	      50.58289
       0.64225	      60.04333	      63.85803	      60.11963	      51.72729
       0.65536	      54.32129	      53.55835	      46.92078	      63.24768
       0.66847	      52.79541	      58.36487	      46.00525	      57.75452
       0.68157	      54.01611	      60.57739	      75.14954	      53.55835
       0.69468	      58.05969	      46.76819	      60.04333	      54.47388
       0.70779	      55.08423	      57.14417	      60.50110	      58.05969
       0.72090	      56.83899	      56.15234	      68.28308	      60.50110
       0.73400	      48.52295	      47.76001	      50.96436	      49.20959
       0.74711	      65.46021	      77.59094	      48.06519	      42.80090
