ALV-7004/USB-FAST
Date :	"11/11/2025"
Time :	"3:56:39 PM"
Samplename : 	""
SampMemo(0) : 	""
SampMemo(1) : 	""
SampMemo(2) : 	""
SampMemo(3) : 	""
SampMemo(4) : 	""
SampMemo(5) : 	""
SampMemo(6) : 	""
SampMemo(7) : 	""
SampMemo(8) : 	""
SampMemo(9) : 	""
Temperature [K] :	     298.16000
Viscosity [cp]  :	       0.89000
Refractive Index:	       1.33200
Wavelength [nm] :	       0.00000
Angle [°]       :	       0.00000
Duration [s]    :	         1
FloatDur [ms]   :	          944
Stop TP [ms]   :	     67649
Runs            :	         1
Mode            :	"A-CH0+1  A-CH2+3 "
MeanCR0 [kHz]   :	      45.99677
MeanCR1 [kHz]   :	      46.77666
MeanCR2 [kHz]   :	      45.90776
MeanCR3 [kHz]   :	      46.54990

"Correlation"
  3.12500E-006	 -1.00000E+000	 -1.00000E+000	 -1.00000E+000	 -1.00000E+000
  6.25000E-006	 -1.00000E+000	 -1.00000E+000	 -1.00000E+000	 -1.00000E+000
  9.37500E-006	 -1.00000E+000	 -1.00000E+000	 -1.00000E+000	 -1.00000E+000
  1.25000E-005	 -1.00000E+000	 -1.00000E+000	 -1.00000E+000	 -1.00000E+000
  1.56250E-005	 -1.00000E+000	 -1.00000E+000	 -1.00000E+000	 -1.00000E+000
  1.87500E-005	 -1.00000E+000	 -1.00000E+000	 -1.00000E+000	 -1.00000E+000
  2.18750E-005	 -8.39730E-001	  1.32456E+000	  9.30708E-001	 -6.87032E-001
  2.50000E-005	  1.45462E+001	  1.35672E+001	  1.46066E+001	  3.09227E+001
  2.81250E-005	  4.28892E+000	  1.78947E+000	  2.05695E+000	  7.76310E+000
  3.12500E-005	  7.62972E-001	  1.16959E+000	  1.89606E+000	  5.72881E+000
  3.43750E-005	  4.42432E-001	  1.16959E+000	  1.57428E+000	  4.16397E+000
  3.75000E-005	  9.23243E-001	  1.78947E+000	  7.69815E-001	  3.69452E+000
  4.06250E-005	  6.02702E-001	  5.49705E-001	  4.48031E-001	  3.06858E+000
  4.37500E-005	  1.72459E+000	  1.16959E+000	  1.09160E+000	  3.53804E+000
  4.68750E-005	  1.24378E+000	  1.01462E+000	  2.87138E-001	  3.22507E+000
  5.00000E-005	  9.23243E-001	  7.04675E-001	  1.41338E+000	  2.20792E+000
  5.62500E-005	  6.82837E-001	  7.04675E-001	  5.28477E-001	  1.58199E+000
  6.25000E-005	  1.32392E+000	  8.47934E-002	  6.08923E-001	  1.03429E+000
  6.87500E-005	  3.62297E-001	  1.40204E+000	  5.28477E-001	  1.26902E+000
  7.50000E-005	  1.00338E+000	  5.49705E-001	  5.28477E-001	  1.34726E+000
  8.12500E-005	  1.08351E+000	  7.82161E-001	 -1.95539E-001	  8.77808E-001
  8.75000E-005	  6.02702E-001	  5.49705E-001	  4.58000E-002	  9.56050E-001
  9.37500E-005	  4.42432E-001	  9.37131E-001	  1.49383E+000	  1.03429E+000
  1.00000E-004	  2.42094E-001	  8.98388E-001	  5.68700E-001	  9.95171E-001
  1.12500E-004	  7.22905E-001	  6.27190E-001	  6.49146E-001	  9.16929E-001
  1.25000E-004	  1.00338E+000	  4.72219E-001	  4.07807E-001	  6.43082E-001
  1.37500E-004	  7.62972E-001	  5.88447E-001	  6.08923E-001	  7.60445E-001
  1.50000E-004	  6.82837E-001	  4.72219E-001	  2.46915E-001	  7.21324E-001
  1.62500E-004	  6.42769E-001	  5.49705E-001	  5.68700E-001	  4.86598E-001
  1.75000E-004	  5.62634E-001	  1.05336E+000	  5.28477E-001	  3.30114E-001
  1.87500E-004	  6.42769E-001	  1.62279E-001	  6.49146E-001	  4.08356E-001
  2.00000E-004	  4.42431E-001	  5.69076E-001	  4.88253E-001	  8.58247E-001
  2.25000E-004	  5.22566E-001	  2.66791E-002	  3.47473E-001	  5.64840E-001
  2.50000E-004	  6.22735E-001	  5.10962E-001	  5.68699E-001	  6.43081E-001
  2.75000E-004	  3.02195E-001	  4.72219E-001	  4.48030E-001	  3.88795E-001
  3.00000E-004	  4.22398E-001	  6.46561E-001	  4.88253E-001	  5.06158E-001
  3.25000E-004	  4.02364E-001	  3.94734E-001	  1.86580E-001	  4.08356E-001
  3.50000E-004	  5.02533E-001	  3.94734E-001	  5.08365E-001	  5.45279E-001
  3.75000E-004	  2.82161E-001	  8.40274E-001	  6.08922E-001	  7.60444E-001
  4.00000E-004	  4.52448E-001	  6.85303E-001	  4.17862E-001	  5.15938E-001
  4.50000E-004	  2.92178E-001	  2.97877E-001	  4.17862E-001	  6.23520E-001
  5.00000E-004	  5.82667E-001	  3.94733E-001	  3.67584E-001	  3.30113E-001
  5.50000E-004	  4.62465E-001	  4.14105E-001	  4.68141E-001	  4.86597E-001
  6.00000E-004	  5.82667E-001	  4.72219E-001	  3.07249E-001	  5.55059E-001
  6.50000E-004	  2.82161E-001	  4.62533E-001	  5.08364E-001	  4.27915E-001
  7.00000E-004	  4.02363E-001	  9.27444E-001	  6.59201E-001	  4.76817E-001
  7.50000E-004	  5.82667E-001	  3.85048E-001	  3.67584E-001	  5.84399E-001
  8.00000E-004	  5.72649E-001	  4.57689E-001	  4.22889E-001	  4.47475E-001
  9.00000E-004	  5.07539E-001	  4.91589E-001	  5.48586E-001	  4.32837E-001
  1.00000E-003	  5.57624E-001	  5.78759E-001	  3.42443E-001	  3.05691E-001
  1.10000E-003	  8.58130E-001	  4.86746E-001	  5.43558E-001	  4.18166E-001
  1.20000E-003	  3.92345E-001	  6.46559E-001	  5.23447E-001	  3.00801E-001
  1.30000E-003	  4.37421E-001	  5.44860E-001	  4.48028E-001	  4.67069E-001
  1.40000E-003	  4.07371E-001	  5.01274E-001	  5.33502E-001	  3.39923E-001
  1.50000E-003	  5.32581E-001	  4.14103E-001	  4.78196E-001	  4.86630E-001
  1.60000E-003	  4.44931E-001	  4.40736E-001	  4.80707E-001	  5.18413E-001
  1.80000E-003	  5.52613E-001	  4.94007E-001	  4.12831E-001	  4.62176E-001
  2.00000E-003	  4.62461E-001	  4.48001E-001	  4.22887E-001	  4.67066E-001
  2.20000E-003	  4.34914E-001	  5.13379E-001	  4.53054E-001	  4.47505E-001
  2.40000E-003	  5.80159E-001	  3.87466E-001	  4.73165E-001	  4.64621E-001
  2.60000E-003	  5.50108E-001	  6.07813E-001	  5.25958E-001	  5.99102E-001
  2.80000E-003	  4.95016E-001	  5.01272E-001	  5.53611E-001	  4.35280E-001
  3.00000E-003	  4.54948E-001	  4.11680E-001	  4.17859E-001	  5.96657E-001
  3.20000E-003	  4.14876E-001	  4.58892E-001	  4.45507E-001	  4.57281E-001
  3.60000E-003	  4.71221E-001	  4.89160E-001	  4.10312E-001	  5.24521E-001
  4.00000E-003	  3.92338E-001	  4.80685E-001	  4.63105E-001	  4.43833E-001
  4.40000E-003	  4.33658E-001	  4.29835E-001	  5.08355E-001	  4.92735E-001
  4.80000E-003	  4.49935E-001	  4.69788E-001	  4.32937E-001	  4.16937E-001
  5.20000E-003	  4.12372E-001	  4.81895E-001	  4.26653E-001	  4.45055E-001
  5.60000E-003	  4.78733E-001	  4.18939E-001	  4.19111E-001	  4.24272E-001
  6.00000E-003	  4.19884E-001	  4.95213E-001	  5.04584E-001	  4.74396E-001
  6.40000E-003	  4.00467E-001	  4.65541E-001	  4.27900E-001	  4.37132E-001
  7.20000E-003	  4.00500E-001	  3.94110E-001	  4.52411E-001	  4.05345E-001
  8.00000E-003	  4.23697E-001	  4.13481E-001	  4.26015E-001	  3.76614E-001
  8.80000E-003	  4.48114E-001	  4.09849E-001	  4.13445E-001	  4.23072E-001
  9.60000E-003	  3.86758E-001	  4.45565E-001	  3.83278E-001	  4.10846E-001
  1.04000E-002	  3.80497E-001	  4.52223E-001	  3.76993E-001	  4.49357E-001
  1.12000E-002	  4.06167E-001	  3.91689E-001	  3.99618E-001	  3.49107E-001
  1.20000E-002	  3.89889E-001	  3.55368E-001	  4.10931E-001	  4.16959E-001
  1.28000E-002	  3.95849E-001	  3.66579E-001	  3.53721E-001	  3.76353E-001
  1.44000E-002	  3.32928E-001	  3.34223E-001	  3.45865E-001	  3.77881E-001
  1.60000E-002	  3.58911E-001	  3.62373E-001	  3.36753E-001	  3.57097E-001
  1.76000E-002	  3.40128E-001	  3.12430E-001	  3.15729E-001	  3.40867E-001
  1.92000E-002	  3.30111E-001	  3.20300E-001	  3.24842E-001	  2.96854E-001
  2.08000E-002	  2.88163E-001	  3.39369E-001	  2.97818E-001	  3.10637E-001
  2.24000E-002	  3.17902E-001	  3.18181E-001	  2.86819E-001	  2.66012E-001
  2.40000E-002	  2.35573E-001	  2.84584E-001	  2.52881E-001	  2.55649E-001
  2.56000E-002	  2.45272E-001	  2.94718E-001	  2.75030E-001	  2.76792E-001
  2.88000E-002	  2.36692E-001	  2.55520E-001	  2.44263E-001	  2.55423E-001
  3.20000E-002	  2.47335E-001	  2.68564E-001	  2.24465E-001	  2.39222E-001
  3.52000E-002	  1.96907E-001	  2.19653E-001	  2.31222E-001	  2.08988E-001
  3.84000E-002	  2.46837E-001	  2.11632E-001	  2.26822E-001	  2.36013E-001
  4.16000E-002	  2.07550E-001	  2.31306E-001	  2.18495E-001	  2.37694E-001
  4.48000E-002	  2.23202E-001	  2.13599E-001	  2.03725E-001	  2.10488E-001
  4.80000E-002	  1.97220E-001	  1.95892E-001	  1.89769E-001	  1.82213E-001
  5.12000E-002	  1.99250E-001	  1.89055E-001	  1.88529E-001	  1.77545E-001
  5.76000E-002	  1.77206E-001	  1.88601E-001	  1.72397E-001	  1.86945E-001
  6.40000E-002	  1.56101E-001	  1.71649E-001	  1.41050E-001	  1.69062E-001
  7.04000E-002	  1.47883E-001	  1.41529E-001	  1.47492E-001	  1.54465E-001
  7.68000E-002	  1.25889E-001	  1.37139E-001	  1.35812E-001	  1.27691E-001
  8.32000E-002	  1.33951E-001	  1.38048E-001	  1.24813E-001	  1.13553E-001
  8.96000E-002	  1.09506E-001	  1.25233E-001	  1.13343E-001	  1.20558E-001
  9.60000E-002	  1.07706E-001	  1.11005E-001	  1.09362E-001	  9.98231E-002
  1.02400E-001	  9.62443E-002	  1.03429E-001	  1.15772E-001	  1.13814E-001
  1.15200E-001	  9.15983E-002	  9.49516E-002	  1.03555E-001	  1.06184E-001
  1.28000E-001	  9.93223E-002	  7.72026E-002	  8.96206E-002	  8.20589E-002
  1.40800E-001	  6.53904E-002	  8.75227E-002	  6.98455E-002	  7.82513E-002
  1.53600E-001	  6.79243E-002	  7.17180E-002	  5.90958E-002	  7.24156E-002
  1.66400E-001	  5.65602E-002	  5.69975E-002	  5.10573E-002	  6.36610E-002
  1.79200E-001	  5.01810E-002	  4.64775E-002	  5.42001E-002	  6.22470E-002
  1.92000E-001	  5.94710E-002	  5.02000E-002	  5.73821E-002	  5.43363E-002
  2.04800E-001	  5.51245E-002	  4.59202E-002	  4.65132E-002	  5.91155E-002
  2.30400E-001	  5.53837E-002	  4.19839E-002	  3.81294E-002	  5.03110E-002
  2.56000E-001	  3.98026E-002	  3.79386E-002	  3.54773E-002	  4.91453E-002
  2.81600E-001	  3.64010E-002	  3.29335E-002	  2.78159E-002	  3.77033E-002
  3.07200E-001	  3.66664E-002	  3.55738E-002	  1.31253E-002	  3.33889E-002
  3.32800E-001	  3.13032E-002	  2.74892E-002	  1.86653E-002	  4.14917E-002
  3.58400E-001	  2.07842E-002	  1.91128E-002	  3.13519E-002	  2.78809E-002
  3.84000E-001	  1.60905E-002	  2.47368E-002	  1.74003E-002	  2.22626E-002
  4.09600E-001	  2.04443E-002	  1.43343E-002	  1.31618E-002	  2.51327E-002
  4.60800E-001	  7.99063E-003	  1.43762E-002	  5.06166E-003	  1.77903E-002
  5.12000E-001	 -2.14126E-003	  2.16218E-002	  1.50955E-002	  1.72592E-002
  5.63200E-001	 -1.70981E-005	  2.82586E-002	  5.48604E-003	  6.39584E-003
  6.14400E-001	 -2.88586E-003	  6.81063E-003	  8.87500E-003	  6.07662E-003
  6.65600E-001	 -1.04054E-002	  2.76889E-003	  9.28402E-003	  6.21230E-003
  7.16800E-001	 -4.48116E-003	  1.58762E-003	  1.05036E-002	  1.19172E-004
  7.68000E-001	 -2.87223E-003	 -1.50704E-003	  1.63730E-002	  1.91631E-003
  8.19200E-001	 -3.89699E-003	 -2.74888E-003	  5.07550E-003	  3.87857E-003
  9.21600E-001	 -2.40400E-003	  1.58617E-004	 -3.58423E-003	  5.70554E-004
  1.02400E+000	 -8.66281E-003	 -2.78679E-003	 -5.95371E-004	 -7.52174E-003
  1.12640E+000	  2.71065E-003	  1.03868E-002	  5.31981E-004	 -3.61269E-004
  1.22880E+000	 -4.02648E-004	  9.61456E-003	 -1.27099E-003	  4.99332E-003
  1.33120E+000	 -5.42258E-003	  6.97248E-003	 -5.29107E-003	 -1.43431E-003
  1.43360E+000	 -2.41656E-003	 -4.76540E-003	  2.71408E-003	 -1.37305E-003
  1.53600E+000	 -1.59058E-003	 -5.47850E-003	  2.26415E-003	 -2.16643E-003
  1.63840E+000	 -3.22821E-003	 -7.72613E-003	  2.02663E-003	 -8.88114E-004
  1.84320E+000	  2.75367E-003	  2.45955E-003	  2.30578E-003	  2.52896E-003
  2.04800E+000	  2.87018E-003	 -7.20113E-005	 -7.97051E-003	 -2.24562E-003
  2.25280E+000	 -6.05790E-003	  2.34321E-003	 -6.07633E-003	 -6.78001E-003
  2.45760E+000	 -7.54507E-003	 -5.91905E-003	  5.60657E-003	 -6.71755E-003
  2.66240E+000	 -7.03370E-003	 -3.92978E-003	  1.64708E-003	 -1.09211E-004
  2.86720E+000	 -3.79725E-003	  4.57505E-003	  1.50614E-003	 -1.67131E-003
  3.07200E+000	  3.02165E-004	  1.37796E-003	 -1.11024E-003	 -6.93601E-003
  3.27680E+000	 -4.57197E-003	  5.55805E-004	  4.15313E-003	 -1.26260E-002
  3.68640E+000	 -1.55423E-003	 -8.73510E-003	  1.24768E-003	  2.06167E-003
  4.09600E+000	  7.97487E-003	 -2.38596E-003	  9.82469E-004	  1.02119E-003
  4.50560E+000	  3.19405E-003	 -1.04821E-003	  4.24041E-003	  4.52870E-003
  4.91520E+000	  8.79045E-003	 -4.74890E-004	  1.32202E-004	  6.49788E-003
  5.32480E+000	  4.91057E-003	 -5.59050E-003	 -5.95181E-003	  3.43396E-003
  5.73440E+000	 -1.49828E-003	 -3.00086E-003	 -5.32929E-003	  6.38252E-005
  6.14400E+000	  8.93290E-004	 -8.45021E-004	  3.19850E-003	 -1.57352E-004
  6.55360E+000	  4.81209E-003	  3.54559E-003	  3.28522E-003	  4.85245E-004
  7.37280E+000	 -3.24481E-003	 -2.94341E-003	  4.97280E-003	 -2.51803E-003
  8.19200E+000	  4.83352E-003	 -3.88350E-003	 -8.66582E-004	 -2.20101E-003
  9.01120E+000	 -3.00021E-003	  1.21820E-005	  2.18264E-003	 -3.30795E-003
  9.83040E+000	 -5.74204E-003	  7.16380E-004	  2.37047E-003	 -7.42085E-004
  1.06496E+001	 -2.45425E-003	 -2.54900E-003	  1.40436E-003	  1.60643E-003
  1.14688E+001	 -2.73144E-003	 -1.33221E-004	 -7.58268E-004	  5.55678E-003
  1.22880E+001	  1.01237E-002	 -1.55566E-003	 -3.54186E-003	 -1.07385E-003
  1.31072E+001	  5.98441E-003	  7.34439E-004	  1.49047E-003	 -2.43493E-003
  1.47456E+001	  4.75929E-004	 -2.13691E-003	  1.54987E-003	  5.32474E-004
  1.63840E+001	 -2.36987E-003	  3.52721E-003	  1.31148E-003	  2.01419E-003
  1.80224E+001	 -2.29346E-003	 -8.11124E-004	 -6.85755E-004	 -4.38892E-004
  1.96608E+001	  7.84245E-004	 -5.69318E-003	  1.91704E-003	 -2.30502E-003
  2.12992E+001	 -4.87485E-004	 -3.02451E-004	  9.70888E-004	  9.13857E-004
  2.29376E+001	 -8.52490E-004	 -1.09957E-003	  1.88491E-004	 -1.64720E-003
  2.45760E+001	 -1.97467E-004	 -4.96671E-003	 -9.63661E-004	 -3.63478E-003
  2.62144E+001	 -1.27992E-003	 -1.21265E-003	 -2.60610E-003	 -6.14083E-003
  2.94912E+001	 -1.07390E-003	 -4.95922E-004	 -3.67817E-004	 -2.52829E-003
  3.27680E+001	 -1.78408E-003	  7.40400E-004	  1.33638E-003	 -2.86541E-003
  3.60448E+001	 -5.34210E-004	  6.54334E-004	 -2.35674E-003	  3.24534E-003
  3.93216E+001	  1.09069E-003	  4.13250E-003	  1.90423E-003	  4.77146E-003
  4.25984E+001	  3.81274E-004	 -1.26341E-003	 -9.06170E-004	  1.18668E-003
  4.58752E+001	 -3.28033E-003	  1.39756E-003	  3.27164E-003	 -2.64914E-003
  4.91520E+001	 -1.01490E-003	 -3.00956E-003	 -3.31607E-003	  1.05880E-003
  5.24288E+001	 -2.53717E-004	 -4.40417E-004	 -1.40807E-004	  2.28740E-003
  5.89824E+001	 -1.55180E-003	 -1.21553E-003	 -3.58589E-003	  1.64982E-003
  6.55360E+001	 -8.86447E-004	 -5.30704E-004	 -2.22777E-003	 -1.60713E-003
  7.20896E+001	  5.16141E-004	 -7.04872E-004	 -3.53958E-003	 -2.99469E-003
  7.86432E+001	  2.19708E-003	  3.90208E-004	 -2.22185E-003	 -2.93704E-004
  8.51968E+001	  4.95738E-004	 -1.29389E-004	  1.64492E-003	 -1.35673E-003
  9.17504E+001	  8.30190E-004	 -1.56937E-003	  1.58968E-003	  5.04835E-004
  9.83040E+001	 -1.90721E-003	  5.40214E-004	  6.90306E-004	  2.36672E-003
  1.04858E+002	 -1.72088E-003	 -1.51933E-003	  1.83488E-003	 -1.17332E-003
  1.17965E+002	  6.78431E-004	  4.09335E-004	  1.46927E-004	  2.84475E-004
  1.31072E+002	  1.56130E-003	 -1.76518E-004	 -1.77987E-004	 -1.56298E-003
  1.44179E+002	  5.47535E-004	  1.27019E-004	  4.64176E-004	 -1.35118E-004
  1.57286E+002	  7.61527E-004	 -1.51921E-004	 -9.60036E-004	 -6.41637E-004
  1.70394E+002	  1.30577E-004	  6.54218E-004	 -2.98908E-003	 -6.97971E-004
  1.83501E+002	 -1.17698E-003	  1.26990E-003	 -7.31676E-004	  7.91265E-004
  1.96608E+002	 -9.86058E-004	 -9.90590E-004	  2.02101E-003	 -3.25002E-004
  2.09715E+002	 -2.08419E-003	 -9.91215E-004	  3.32740E-003	 -4.67547E-004
  2.35930E+002	  6.89081E-004	 -1.81610E-004	  1.77750E-003	  1.59860E-003
  2.62144E+002	 -1.09864E-003	 -1.70488E-004	 -2.79146E-003	  9.10175E-004
  2.88358E+002	  6.08891E-004	  4.62394E-004	 -1.91926E-003	 -3.73350E-004
  3.14573E+002	  6.93268E-004	  1.52874E-004	 -5.39436E-004	  7.33040E-004
  3.40787E+002	 -1.68003E-003	  9.44733E-005	  1.97043E-003	 -1.20098E-003
  3.67002E+002	  3.12202E-004	 -4.95883E-004	  4.84988E-004	 -1.05142E-004
  3.93216E+002	 -2.42175E-005	 -8.22706E-004	 -4.81775E-004	 -1.30619E-003

"Count Rate"
       0.01311	      45.39490	      46.08154	      45.47119	      39.90173
       0.02621	      50.35400	      38.29956	      48.59924	      42.57202
       0.03932	      48.37036	      46.53931	      48.37036	      44.55566
       0.05243	      42.34314	      51.42212	      48.52295	      41.73279
       0.06554	      46.46301	      47.91260	      45.16602	      47.98889
       0.07864	      52.87170	      48.37036	      43.02979	      55.84717
       0.09175	      51.80359	      41.88538	      42.34314	      46.46301
       0.10486	      48.29407	      51.72729	      52.71912	      43.86902
       0.11796	      42.49573	      51.11694	      48.67554	      48.06519
       0.13107	      33.72192	      40.96985	      46.08154	      47.60742
       0.14418	      48.59924	      43.41125	      48.52295	      42.95349
       0.15729	      47.45483	      47.60742	      48.29407	      47.37854
       0.17039	      48.14148	      44.25049	      42.26685	      50.04883
       0.18350	      47.83630	      50.96436	      43.10608	      48.06519
       0.19661	      42.80090	      44.47937	      39.59656	      50.88806
       0.20972	      35.70557	      52.87170	      48.06519	      49.20959
       0.22282	      46.15784	      48.37036	      46.15784	      39.29138
       0.23593	      45.39490	      44.78455	      47.76001	      50.96436
       0.24904	      43.64014	      49.66736	      44.78455	      47.68372
       0.26214	      46.69189	      41.42761	      50.96436	      43.56384
       0.27525	      44.17419	      46.69189	      44.40308	      37.76550
       0.28836	      41.50391	      45.01343	      43.02979	      47.45483
       0.30147	      46.92078	      50.43030	      40.89355	      46.23413
       0.31457	      47.14966	      36.39221	      48.21777	      46.08154
       0.32768	      39.97803	      43.48755	      36.92627	      39.59656
       0.34079	      37.38403	      49.59106	      35.47668	      41.50391
       0.35389	      48.37036	      48.21777	      47.83630	      57.90710
       0.36700	      43.79272	      49.28589	      46.00525	      44.86084
       0.38011	      44.70825	      49.36218	      47.30225	      44.02161
       0.39322	      53.25317	      42.49573	      50.88806	      44.70825
       0.40632	      50.58289	      45.70007	      48.67554	      51.26953
       0.41943	      40.96985	      47.83630	      39.97803	      44.93713
       0.43254	      42.26685	      44.02161	      44.63196	      48.44666
       0.44564	      40.66467	      39.67285	      45.08972	      53.71094
       0.45875	      44.70825	      52.41394	      50.27771	      41.96167
       0.47186	      47.98889	      47.37854	      50.88806	      42.34314
       0.48497	      44.17419	      46.61560	      42.11426	      43.10608
       0.49807	      43.10608	      44.09790	      52.33765	      54.62646
       0.51118	      44.02161	      45.85266	      49.81995	      39.06250
       0.52429	      47.83630	      46.38672	      37.91809	      45.54749
       0.53740	      52.87170	      47.07336	      36.16333	      48.29407
       0.55050	      50.50659	      51.49841	      43.18237	      46.38672
       0.56361	      42.64832	      42.41943	      48.52295	      44.86084
       0.57672	      45.92896	      45.16602	      40.81726	      41.50391
       0.58982	      44.09790	      46.00525	      47.91260	      47.14966
       0.60293	      45.85266	      47.60742	      54.01611	      47.45483
       0.61604	      41.19873	      49.89624	      43.10608	      44.40308
       0.62915	      42.11426	      47.68372	      40.28320	      50.50659
       0.64225	      46.31042	      48.75183	      45.39490	      46.61560
       0.65536	      46.31042	      50.50659	      46.61560	      47.14966
       0.66847	      47.98889	      46.38672	      40.20691	      46.46301
       0.68157	      40.74097	      46.08154	      47.76001	      47.22595
       0.69468	      46.69189	      53.40576	      49.59106	      41.73279
       0.70779	      44.02161	      44.02161	      42.72461	      50.88806
       0.72090	      42.41943	      41.96167	      44.78455	      46.23413
       0.73400	      48.90442	      45.01343	      37.84180	      42.64832
       0.74711	      43.33496	      40.13062	      38.07068	      45.31860
