ALV-7004/USB-FAST
Date :	"11/11/2025"
Time :	"3:56:38 PM"
Samplename : 	""
SampMemo(0) : 	""
SampMemo(1) : 	""
SampMemo(2) : 	""
SampMemo(3) : 	""
SampMemo(4) : 	""
SampMemo(5) : 	""
SampMemo(6) : 	""
SampMemo(7) : 	""
SampMemo(8) : 	""
SampMemo(9) : 	""
Temperature [K] :	     298.16000
Viscosity [cp]  :	       0.89000
Refractive Index:	       1.33200
Wavelength [nm] :	       0.00000
Angle [°]       :	       0.00000
Duration [s]    :	         1
FloatDur [ms]   :	          944
Stop TP [ms]   :	     67633
Runs            :	         1
Mode            :	"A-CH0+1  A-CH2+3 "
MeanCR0 [kHz]   :	      47.94227
MeanCR1 [kHz]   :	      50.31904
MeanCR2 [kHz]   :	      49.97359
MeanCR3 [kHz]   :	      49.50947

"Correlation"
  3.12500E-006	 -1.00000E+000	 -1.00000E+000	 -1.00000E+000	 -1.00000E+000
  6.25000E-006	 -1.00000E+000	 -1.00000E+000	 -1.00000E+000	 -1.00000E+000
  9.37500E-006	 -1.00000E+000	 -1.00000E+000	 -1.00000E+000	 -1.00000E+000
  1.25000E-005	 -1.00000E+000	 -1.00000E+000	 -1.00000E+000	 -1.00000E+000
  1.56250E-005	 -1.00000E+000	 -1.00000E+000	 -1.00000E+000	 -1.00000E+000
  1.87500E-005	 -1.00000E+000	 -1.00000E+000	 -1.00000E+000	 -1.00000E+000
  2.18750E-005	 -8.52473E-001	  1.41055E+000	  1.17243E+000	 -5.84996E-001
  2.50000E-005	  1.68507E+001	  1.35972E+001	  1.33924E+001	  2.58369E+001
  2.81250E-005	  4.16343E+000	  3.15150E+000	  1.98710E+000	  8.26842E+000
  3.12500E-005	  4.75266E-001	  1.41055E+000	  1.30821E+000	  4.94839E+000
  3.43750E-005	  7.70319E-001	  1.67838E+000	  3.57771E-001	  3.84171E+000
  3.75000E-005	 -1.14840E-001	  1.54447E+000	  1.17243E+000	  3.01170E+000
  4.06250E-005	  4.75266E-001	  1.54447E+000	  1.17243E+000	  3.28837E+000
  4.37500E-005	  1.80301E+000	  2.48190E+000	  4.93548E-001	  4.11838E+000
  4.68750E-005	  9.17846E-001	  2.05273E-001	  1.98710E+000	  2.45837E+000
  5.00000E-005	  9.17846E-001	  5.40071E-001	  1.17243E+000	  1.97419E+000
  5.62500E-005	  6.22793E-001	  6.07031E-001	  6.97213E-001	  1.83586E+000
  6.25000E-005	  8.44083E-001	  9.41829E-001	  9.00879E-001	  2.32003E+000
  6.87500E-005	  8.44083E-001	  1.07575E+000	  1.10454E+000	  1.21335E+000
  7.50000E-005	  1.06450E-001	  8.07909E-001	  2.89882E-001	  1.90503E+000
  8.12500E-005	  6.22793E-001	  8.74869E-001	  1.51188E+000	  1.21335E+000
  8.75000E-005	  1.06450E-001	  5.40071E-001	  1.03666E+000	  5.21681E-001
  9.37500E-005	  6.22793E-001	  1.20967E+000	  2.21993E-001	  1.35169E+000
  1.00000E-004	  1.02849E+000	  5.06591E-001	  5.27492E-001	  1.04044E+000
  1.12500E-004	  4.75266E-001	  7.40950E-001	  7.31157E-001	  6.60015E-001
  1.25000E-004	  1.02849E+000	  6.73990E-001	  7.99046E-001	  6.94599E-001
  1.37500E-004	  6.22793E-001	  3.05712E-001	  1.20160E-001	  6.60015E-001
  1.50000E-004	  4.38384E-001	  8.41389E-001	  5.27492E-001	  6.60015E-001
  1.62500E-004	  2.17094E-001	  2.38753E-001	  9.00878E-001	  1.00585E+000
  1.75000E-004	  8.80964E-001	  7.74429E-001	  1.10454E+000	  7.29183E-001
  1.87500E-004	  1.06449E-001	  4.06152E-001	  6.29324E-001	  7.98350E-001
  2.00000E-004	  5.30588E-001	  5.40070E-001	  3.06854E-001	  5.21680E-001
  2.25000E-004	  5.49029E-001	  8.41389E-001	  6.29324E-001	  7.11891E-001
  2.50000E-004	  7.14996E-001	  3.78736E-002	  5.27491E-001	  5.56264E-001
  2.75000E-004	  2.17094E-001	  5.23331E-001	  3.06854E-001	  6.77307E-001
  3.00000E-004	  5.30588E-001	  3.05712E-001	  5.95380E-001	  2.10428E-001
  3.25000E-004	  5.67470E-001	  6.23770E-001	  4.25658E-001	  4.17930E-001
  3.50000E-004	  4.19943E-001	  4.39631E-001	  2.55937E-001	  1.75844E-001
  3.75000E-004	  2.35535E-001	  5.73550E-001	  5.27491E-001	  2.10428E-001
  4.00000E-004	  5.02926E-001	  5.48440E-001	  4.42630E-001	  4.87096E-001
  4.50000E-004	  5.21367E-001	  3.97781E-001	  5.27491E-001	  4.69804E-001
  5.00000E-004	  5.58249E-001	  5.81920E-001	  5.86893E-001	  5.13034E-001
  5.50000E-004	  6.13571E-001	  3.30821E-001	  6.12351E-001	  7.98349E-001
  6.00000E-004	  5.39808E-001	  5.40070E-001	  6.03865E-001	  5.04388E-001
  6.50000E-004	  3.18518E-001	  7.24209E-001	  6.46295E-001	  5.47618E-001
  7.00000E-004	  4.84485E-001	  6.57249E-001	  5.19005E-001	  6.42723E-001
  7.50000E-004	  4.19943E-001	  4.39630E-001	  4.08686E-001	  5.82201E-001
  8.00000E-004	  4.24552E-001	  5.19144E-001	  5.69920E-001	  5.13033E-001
  9.00000E-004	  4.89094E-001	  4.81479E-001	  5.69920E-001	  3.61729E-001
  1.00000E-003	  5.12145E-001	  4.81479E-001	  5.48704E-001	  5.56262E-001
  1.10000E-003	  4.33772E-001	  4.94034E-001	  4.55358E-001	  5.69231E-001
  1.20000E-003	  5.81298E-001	  5.48438E-001	  5.23246E-001	  5.82200E-001
  1.30000E-003	  5.25976E-001	  4.39629E-001	  5.10517E-001	  5.08710E-001
  1.40000E-003	  4.29162E-001	  5.23329E-001	  4.93545E-001	  6.25429E-001
  1.50000E-003	  4.75264E-001	  6.11213E-001	  4.59601E-001	  6.47044E-001
  1.60000E-003	  5.19058E-001	  4.91939E-001	  4.91453E-001	  5.34645E-001
  1.80000E-003	  4.68346E-001	  4.89846E-001	  4.42657E-001	  5.15191E-001
  2.00000E-003	  5.09838E-001	  4.58459E-001	  5.52978E-001	  5.69228E-001
  2.20000E-003	  4.19939E-001	  5.31696E-001	  4.82966E-001	  5.34645E-001
  2.40000E-003	  4.82177E-001	  3.97777E-001	  4.74480E-001	  4.26571E-001
  2.60000E-003	  4.31464E-001	  5.35881E-001	  4.99939E-001	  5.84359E-001
  2.80000E-003	  5.00617E-001	  5.08679E-001	  6.27232E-001	  5.49775E-001
  3.00000E-003	  4.61431E-001	  5.21234E-001	  4.19320E-001	  5.10869E-001
  3.20000E-003	  5.08680E-001	  4.87749E-001	  4.11920E-001	  4.19001E-001
  3.60000E-003	  4.74104E-001	  4.99257E-001	  4.75567E-001	  5.44366E-001
  4.00000E-003	  4.60305E-001	  4.54269E-001	  5.51945E-001	  4.52504E-001
  4.40000E-003	  4.53390E-001	  5.09720E-001	  4.84022E-001	  5.61691E-001
  4.80000E-003	  4.56848E-001	  4.53223E-001	  4.43713E-001	  5.09815E-001
  5.20000E-003	  4.22271E-001	  4.30206E-001	  4.15072E-001	  4.26597E-001
  5.60000E-003	  4.98340E-001	  4.88795E-001	  4.71293E-001	  4.47131E-001
  6.00000E-003	  5.07561E-001	  5.07627E-001	  4.55381E-001	  5.07654E-001
  6.40000E-003	  4.44736E-001	  4.51644E-001	  4.54903E-001	  5.14668E-001
  7.20000E-003	  4.85652E-001	  3.99332E-001	  4.33156E-001	  4.43879E-001
  8.00000E-003	  4.37821E-001	  4.81984E-001	  4.81953E-001	  4.70898E-001
  8.80000E-003	  4.56838E-001	  4.10318E-001	  4.22548E-001	  4.10376E-001
  9.60000E-003	  4.12464E-001	  4.50074E-001	  4.22018E-001	  4.07674E-001
  1.04000E-002	  4.19380E-001	  4.34411E-001	  4.72937E-001	  4.07134E-001
  1.12000E-002	  4.22261E-001	  4.58998E-001	  4.03954E-001	  3.67686E-001
  1.20000E-002	  4.59175E-001	  3.93607E-001	  3.74252E-001	  3.81736E-001
  1.28000E-002	  4.35240E-001	  3.90218E-001	  4.08238E-001	  4.03903E-001
  1.44000E-002	  4.01270E-001	  3.95187E-001	  3.58085E-001	  3.79315E-001
  1.60000E-002	  3.70726E-001	  3.84725E-001	  3.63124E-001	  3.94476E-001
  1.76000E-002	  3.55166E-001	  3.66415E-001	  4.00252E-001	  3.66375E-001
  1.92000E-002	  3.46521E-001	  3.80801E-001	  3.43499E-001	  3.86400E-001
  2.08000E-002	  3.75336E-001	  3.48367E-001	  3.58085E-001	  3.60190E-001
  2.24000E-002	  3.39894E-001	  3.46798E-001	  3.25731E-001	  3.35602E-001
  2.40000E-002	  3.21452E-001	  2.96054E-001	  3.30742E-001	  3.43708E-001
  2.56000E-002	  3.07586E-001	  3.15980E-001	  3.24586E-001	  3.62567E-001
  2.88000E-002	  3.08306E-001	  3.12057E-001	  3.06419E-001	  3.32437E-001
  3.20000E-002	  2.90009E-001	  2.76064E-001	  3.00319E-001	  2.88257E-001
  3.52000E-002	  2.53703E-001	  2.59585E-001	  2.76451E-001	  3.08523E-001
  3.84000E-002	  2.56873E-001	  2.68216E-001	  2.71677E-001	  2.55399E-001
  4.16000E-002	  2.43330E-001	  2.43237E-001	  2.25372E-001	  2.67828E-001
  4.48000E-002	  2.20135E-001	  2.54353E-001	  2.44864E-001	  2.22433E-001
  4.80000E-002	  2.04431E-001	  2.32931E-001	  2.45660E-001	  2.23379E-001
  5.12000E-002	  2.18412E-001	  2.23549E-001	  2.32367E-001	  2.13066E-001
  5.76000E-002	  1.90752E-001	  2.06740E-001	  2.13533E-001	  1.94639E-001
  6.40000E-002	  1.97811E-001	  1.78200E-001	  1.98081E-001	  1.77818E-001
  7.04000E-002	  1.83719E-001	  1.92588E-001	  1.85879E-001	  1.70142E-001
  7.68000E-002	  1.56490E-001	  1.54239E-001	  1.89874E-001	  1.48566E-001
  8.32000E-002	  1.56274E-001	  1.58400E-001	  1.71306E-001	  1.51809E-001
  8.96000E-002	  1.38194E-001	  1.53561E-001	  1.53534E-001	  1.38139E-001
  9.60000E-002	  1.41436E-001	  1.57158E-001	  1.62329E-001	  1.47731E-001
  1.02400E-001	  1.28408E-001	  1.33293E-001	  1.50920E-001	  1.17542E-001
  1.15200E-001	  9.53360E-002	  1.27302E-001	  1.29107E-001	  1.23622E-001
  1.28000E-001	  9.92858E-002	  1.03573E-001	  1.31305E-001	  1.21856E-001
  1.40800E-001	  8.22867E-002	  9.74149E-002	  1.10984E-001	  1.11495E-001
  1.53600E-001	  7.73527E-002	  8.88328E-002	  1.06072E-001	  9.58646E-002
  1.66400E-001	  8.56961E-002	  9.38269E-002	  9.33608E-002	  9.14940E-002
  1.79200E-001	  6.61756E-002	  8.14316E-002	  9.72938E-002	  9.16396E-002
  1.92000E-001	  5.84682E-002	  7.59472E-002	  8.05802E-002	  8.26884E-002
  2.04800E-001	  5.75019E-002	  7.69747E-002	  8.12191E-002	  7.82698E-002
  2.30400E-001	  6.16974E-002	  6.32460E-002	  7.37777E-002	  5.52352E-002
  2.56000E-001	  5.66015E-002	  5.00249E-002	  6.57710E-002	  6.16998E-002
  2.81600E-001	  4.56714E-002	  5.42668E-002	  4.57136E-002	  6.05348E-002
  3.07200E-001	  5.00651E-002	  3.78075E-002	  3.96015E-002	  4.68789E-002
  3.32800E-001	  4.91827E-002	  4.17706E-002	  4.35341E-002	  4.13537E-002
  3.58400E-001	  3.81495E-002	  2.52093E-002	  3.92483E-002	  3.76483E-002
  3.84000E-001	  4.60238E-002	  3.01428E-002	  3.13409E-002	  3.52101E-002
  4.09600E-001	  2.93541E-002	  2.26566E-002	  2.86065E-002	  2.90770E-002
  4.60800E-001	  2.95035E-002	  1.63265E-002	  1.36862E-002	  2.11784E-002
  5.12000E-001	  1.99347E-002	  1.44062E-002	  1.25822E-002	  2.32671E-002
  5.63200E-001	  1.47699E-002	  1.60503E-002	  9.80676E-003	  9.68785E-003
  6.14400E-001	  6.20480E-003	  1.01200E-002	  2.99580E-003	  1.14429E-002
  6.65600E-001	  8.18145E-003	  1.50228E-002	  1.11627E-002	  1.79386E-002
  7.16800E-001	 -4.69377E-003	  5.26457E-003	  1.21255E-002	  1.70212E-002
  7.68000E-001	 -3.91215E-003	  2.62324E-003	  1.47706E-002	  1.35351E-002
  8.19200E-001	 -1.57612E-003	  2.96565E-003	  6.15640E-003	  1.13796E-002
  9.21600E-001	 -4.69539E-004	  5.71760E-003	 -2.81130E-003	 -6.70606E-003
  1.02400E+000	 -1.39672E-003	  4.87926E-003	  4.68301E-003	 -5.99652E-003
  1.12640E+000	  1.69951E-003	  4.95966E-003	  2.23705E-003	 -3.02987E-003
  1.22880E+000	  8.26582E-003	  1.25012E-003	 -5.95385E-003	 -6.99200E-004
  1.33120E+000	  4.48203E-003	  7.13321E-004	  2.66488E-003	 -4.92126E-003
  1.43360E+000	  2.54265E-003	 -7.84436E-004	  8.02339E-004	 -7.99797E-003
  1.53600E+000	  6.01446E-004	  4.05137E-003	 -3.90832E-003	 -9.96779E-004
  1.63840E+000	 -5.16394E-004	  2.76823E-003	  2.26623E-003	 -3.30314E-003
  1.84320E+000	  9.17198E-003	 -4.09429E-003	 -5.37846E-003	 -2.90441E-003
  2.04800E+000	  6.60631E-003	  2.58774E-003	 -9.27983E-003	  3.35230E-004
  2.25280E+000	  1.05919E-002	 -6.21456E-003	 -3.41050E-003	 -4.39637E-003
  2.45760E+000	 -5.47180E-003	 -1.13208E-002	 -4.18810E-003	  2.82991E-003
  2.66240E+000	 -9.79027E-004	 -8.07877E-003	 -6.57128E-003	  1.13234E-002
  2.86720E+000	 -3.98652E-003	 -8.99629E-003	 -6.17182E-004	  8.96759E-003
  3.07200E+000	  2.19926E-003	 -6.34288E-003	 -9.11913E-003	  2.73361E-003
  3.27680E+000	 -4.75779E-003	 -3.72251E-003	 -6.92899E-003	  1.79575E-003
  3.68640E+000	 -2.27781E-003	  1.77681E-003	  1.58958E-003	 -1.23442E-003
  4.09600E+000	  4.29869E-003	  9.31182E-004	 -1.14242E-003	 -2.15465E-003
  4.50560E+000	  2.64941E-003	  6.33812E-004	 -4.94970E-004	 -1.04529E-003
  4.91520E+000	 -2.03196E-003	 -1.76908E-003	 -5.17322E-004	 -2.70718E-003
  5.32480E+000	  2.53345E-003	 -4.93199E-004	 -7.45483E-003	  3.50695E-003
  5.73440E+000	 -3.96174E-003	 -3.08277E-003	 -2.13524E-004	  3.37712E-003
  6.14400E+000	  1.14234E-003	 -7.05699E-003	  4.55071E-003	 -1.40943E-003
  6.55360E+000	  2.31455E-003	 -7.98135E-004	 -1.54296E-004	  2.77033E-003
  7.37280E+000	 -1.21634E-003	  5.15018E-003	  6.36360E-003	 -1.35644E-003
  8.19200E+000	  4.78772E-003	  8.90794E-004	  2.32630E-003	  1.89284E-003
  9.01120E+000	  2.30868E-003	 -2.38423E-003	  1.79574E-003	  3.17532E-003
  9.83040E+000	  1.10516E-003	 -4.00114E-003	 -1.02894E-003	 -2.54909E-003
  1.06496E+001	  4.73620E-003	 -1.02666E-003	  1.12801E-003	  5.87812E-003
  1.14688E+001	 -1.33691E-003	 -7.09722E-004	 -3.36790E-003	  7.92581E-003
  1.22880E+001	  3.82626E-003	 -4.19335E-004	 -1.09563E-003	  1.62738E-003
  1.31072E+001	 -2.61862E-003	  8.25765E-004	  7.39561E-004	 -2.54368E-003
  1.47456E+001	  5.31790E-003	 -3.42717E-003	  1.63592E-003	 -9.79444E-004
  1.63840E+001	 -4.50150E-004	  6.14109E-003	 -1.53878E-003	 -2.82038E-003
  1.80224E+001	  6.62523E-004	  3.45788E-003	 -3.08906E-003	  1.46946E-003
  1.96608E+001	  8.37371E-004	 -8.32115E-004	  4.26865E-003	 -1.97325E-003
  2.12992E+001	 -1.68721E-003	 -1.30238E-003	  3.85781E-003	 -1.38550E-003
  2.29376E+001	 -3.43184E-003	  8.58086E-004	  2.11545E-003	 -9.47863E-004
  2.45760E+001	 -4.70653E-003	 -4.01422E-004	 -2.19200E-003	  1.20072E-003
  2.62144E+001	 -1.91592E-003	 -2.11476E-004	 -7.34135E-004	  5.28656E-004
  2.94912E+001	 -2.10674E-003	  1.19434E-003	  1.57288E-003	 -1.67062E-003
  3.27680E+001	  4.49972E-004	 -2.00702E-005	 -4.48155E-004	  4.30764E-003
  3.60448E+001	  5.22976E-004	  1.80603E-003	 -2.35697E-004	  4.04017E-003
  3.93216E+001	 -1.51483E-003	 -6.08937E-004	  2.63571E-003	  3.49627E-003
  4.25984E+001	 -4.87975E-003	 -2.03437E-003	 -4.06899E-003	  3.23390E-003
  4.58752E+001	 -3.91631E-004	  1.82984E-003	  4.47091E-003	 -2.62859E-003
  4.91520E+001	 -9.66226E-004	 -2.87139E-003	 -1.49839E-003	 -4.23669E-003
  5.24288E+001	 -3.78516E-004	  1.49709E-003	 -2.09950E-004	 -3.05529E-003
  5.89824E+001	  3.61644E-003	 -6.32366E-004	  5.71374E-004	  1.76043E-004
  6.55360E+001	  2.11662E-003	  1.81662E-005	  1.40731E-003	  1.48472E-003
  7.20896E+001	  3.94525E-003	  2.31312E-003	 -2.30083E-004	  3.76616E-003
  7.86432E+001	 -2.81544E-003	  1.66213E-003	 -8.20380E-004	  3.52497E-003
  8.51968E+001	  1.31309E-004	 -2.47088E-004	 -8.78174E-004	 -2.96326E-003
  9.17504E+001	  6.34948E-004	 -2.88469E-003	  2.93607E-004	 -2.37329E-003
  9.83040E+001	 -2.11213E-003	  1.40453E-003	 -1.85633E-003	  6.48456E-004
  1.04858E+002	 -2.65250E-004	  9.39761E-004	 -1.28058E-003	 -7.43551E-004
  1.17965E+002	  1.43713E-003	  8.48199E-004	 -2.96733E-005	 -3.11652E-003
  1.31072E+002	  1.11038E-003	  2.84915E-004	 -5.07771E-004	  9.88426E-004
  1.44179E+002	 -5.56966E-005	  9.42071E-004	 -9.35477E-004	  3.07991E-003
  1.57286E+002	  1.14868E-003	 -1.27829E-003	  6.10121E-004	 -2.54359E-003
  1.70394E+002	 -1.64016E-003	  7.32241E-004	  1.81288E-003	  5.15721E-004
  1.83501E+002	 -1.17963E-003	  8.77702E-004	 -1.06804E-003	  2.82891E-004
  1.96608E+002	 -9.70418E-004	 -4.58470E-004	 -7.03565E-004	 -1.08369E-003
  2.09715E+002	 -7.06692E-004	 -1.01792E-003	  1.13443E-003	 -9.68193E-004
  2.35930E+002	 -1.21841E-003	  7.65913E-006	  1.14507E-003	 -2.48347E-003
  2.62144E+002	 -7.03638E-004	 -4.49778E-005	 -3.38998E-004	 -1.33108E-003
  2.88358E+002	  4.29188E-004	  1.01971E-004	  8.35697E-004	  5.33944E-004
  3.14573E+002	 -1.66633E-003	 -9.67645E-004	 -2.22763E-005	 -1.84148E-003
  3.40787E+002	 -4.32706E-004	 -1.42550E-003	 -1.43909E-003	  6.50555E-004
  3.67002E+002	  5.33090E-004	 -7.04499E-004	  2.03270E-004	 -6.52343E-004
  3.93216E+002	 -1.07427E-003	 -5.65899E-004	  5.25431E-004	 -2.74712E-005

"Count Rate"
       0.01311	      52.41394	      47.91260	      52.56653	      47.76001
       0.02621	      42.03796	      48.52295	      54.16870	      48.90442
       0.03932	      40.51208	      49.66736	      48.82813	      50.20142
       0.05243	      40.96985	      53.17688	      53.48206	      53.32947
       0.06554	      54.62646	      55.08423	      44.55566	      55.46570
       0.07864	      51.57471	      50.96436	      50.81177	      49.05701
       0.09175	      42.11426	      52.18506	      52.79541	      57.14417
       0.10486	      49.66736	      53.78723	      50.04883	      45.08972
       0.11796	      52.41394	      46.69189	      48.75183	      56.83899
       0.13107	      52.56653	      51.49841	      57.22046	      51.34583
       0.14418	      50.58289	      57.22046	      48.21777	      48.21777
       0.15729	      44.40308	      46.99707	      50.65918	      48.75183
       0.17039	      40.43579	      56.38123	      54.62646	      44.40308
       0.18350	      40.81726	      43.41125	      44.02161	      50.43030
       0.19661	      59.20410	      46.38672	      49.51477	      61.03516
       0.20972	      53.93982	      55.61829	      50.35400	      60.57739
       0.22282	      44.55566	      53.40576	      51.65100	      47.22595
       0.23593	      49.13330	      50.12512	      33.87451	      48.67554
       0.24904	      48.67554	      46.38672	      46.00525	      51.11694
       0.26214	      48.98071	      52.26135	      42.87720	      54.47388
       0.27525	      42.03796	      57.29675	      46.61560	      51.49841
       0.28836	      47.76001	      49.13330	      56.83899	      45.31860
       0.30147	      51.42212	      50.96436	      51.57471	      40.51208
       0.31457	      48.29407	      52.94800	      50.88806	      43.18237
       0.32768	      52.49023	      43.41125	      41.42761	      52.18506
       0.34079	      43.79272	      58.67004	      50.81177	      50.81177
       0.35389	      61.64551	      43.79272	      46.69189	      54.47388
       0.36700	      45.31860	      40.51208	      48.44666	      43.33496
       0.38011	      40.96985	      46.99707	      46.92078	      46.53931
       0.39322	      40.96985	      46.84448	      47.60742	      44.09790
       0.40632	      46.76819	      44.78455	      48.06519	      48.75183
       0.41943	      50.35400	      50.27771	      46.76819	      45.47119
       0.43254	      49.97253	      48.98071	      46.31042	      39.59656
       0.44564	      46.53931	      47.14966	      51.49841	      46.99707
       0.45875	      43.86902	      48.44666	      50.04883	      46.92078
       0.47186	      48.37036	      44.02161	      51.42212	      36.31592
       0.48497	      48.29407	      49.13330	      43.71643	      51.11694
       0.49807	      49.36218	      43.02979	      49.66736	      51.19324
       0.51118	      44.55566	      44.63196	      58.36487	      44.70825
       0.52429	      41.27502	      55.16052	      53.48206	      54.09241
       0.53740	      43.25867	      56.30493	      43.25867	      46.84448
       0.55050	      41.80908	      43.71643	      44.86084	      58.51746
       0.56361	      50.20142	      49.13330	      54.85535	      45.54749
       0.57672	      42.19055	      50.73547	      54.32129	      48.37036
       0.58982	      38.98621	      46.15784	      52.26135	      58.51746
       0.60293	      48.82813	      45.92896	      44.55566	      45.16602
       0.61604	      45.01343	      47.30225	      48.52295	      48.75183
       0.62915	      49.51477	      47.45483	      45.01343	      51.72729
       0.64225	      43.86902	      50.58289	      48.82813	      40.20691
       0.65536	      48.59924	      44.70825	      45.70007	      45.24231
       0.66847	      44.63196	      48.82813	      49.74365	      52.79541
       0.68157	      44.09790	      51.65100	      56.99158	      47.91260
       0.69468	      50.96436	      48.37036	      48.82813	      50.73547
       0.70779	      45.92896	      55.77087	      45.85266	      46.69189
       0.72090	      45.62378	      52.79541	      57.22046	      49.66736
       0.73400	      47.83630	      46.69189	      47.53113	      51.80359
       0.74711	      47.60742	      54.16870	      58.59375	      43.64014
