ALV-7004/USB-FAST
Date :	"11/11/2025"
Time :	"3:58:24 PM"
Samplename : 	""
SampMemo(0) : 	""
SampMemo(1) : 	""
SampMemo(2) : 	""
SampMemo(3) : 	""
SampMemo(4) : 	""
SampMemo(5) : 	""
SampMemo(6) : 	""
SampMemo(7) : 	""
SampMemo(8) : 	""
SampMemo(9) : 	""
Temperature [K] :	     298.16000
Viscosity [cp]  :	       0.89000
Refractive Index:	       1.33200
Wavelength [nm] :	       0.00000
Angle [°]       :	       0.00000
Duration [s]    :	         1
FloatDur [ms]   :	          944
Stop TP [ms]   :	     68048
Runs            :	         1
Mode            :	"A-CH0+1  A-CH2+3 "
MeanCR0 [kHz]   :	      53.97796
MeanCR1 [kHz]   :	      56.59315
MeanCR2 [kHz]   :	      56.60163
MeanCR3 [kHz]   :	      54.53957

"Correlation"
  3.12500E-006	 -1.00000E+000	 -1.00000E+000	 -1.00000E+000	 -1.00000E+000
  6.25000E-006	 -1.00000E+000	 -1.00000E+000	 -1.00000E+000	 -1.00000E+000
  9.37500E-006	 -1.00000E+000	 -1.00000E+000	 -1.00000E+000	 -1.00000E+000
  1.25000E-005	 -1.00000E+000	 -1.00000E+000	 -1.00000E+000	 -1.00000E+000
  1.56250E-005	 -1.00000E+000	 -1.00000E+000	 -1.00000E+000	 -1.00000E+000
  1.87500E-005	 -1.00000E+000	 -1.00000E+000	 -1.00000E+000	 -1.00000E+000
  2.18750E-005	 -8.83621E-001	  5.88075E-001	  1.11680E+000	 -5.44022E-001
  2.50000E-005	  1.14525E+001	  1.14929E+001	  1.08541E+001	  2.54467E+001
  2.81250E-005	  3.77154E+000	  1.75266E+000	  2.91608E+000	  6.52364E+000
  3.12500E-005	  1.32758E+000	  1.22330E+000	  1.43432E+000	  5.95367E+000
  3.43750E-005	  2.60775E+000	  1.43505E+000	  7.99279E-001	  4.12975E+000
  3.75000E-005	  9.78442E-001	  1.11743E+000	  7.99279E-001	  4.58573E+000
  4.06250E-005	  7.45685E-001	  6.93947E-001	  1.01096E+000	  2.87581E+000
  4.37500E-005	  5.12927E-001	  6.93947E-001	  4.81759E-001	  2.30584E+000
  4.68750E-005	  8.62063E-001	  1.11743E+000	  4.81759E-001	  1.96386E+000
  5.00000E-005	  2.80169E-001	  5.88075E-001	  6.40519E-001	  1.73587E+000
  5.62500E-005	  6.29305E-001	  7.99818E-001	  1.01096E+000	  2.02086E+000
  6.25000E-005	  8.03874E-001	  6.93947E-001	  9.58039E-001	  1.73587E+000
  6.87500E-005	  6.87495E-001	  7.99818E-001	  1.32848E+000	  1.33689E+000
  7.50000E-005	  9.78442E-001	  2.17524E-001	  6.93439E-001	  1.33689E+000
  8.12500E-005	  5.71116E-001	  3.76332E-001	  5.34679E-001	  1.16590E+000
  8.75000E-005	  9.20253E-001	  5.35139E-001	  4.28839E-001	  1.05190E+000
  9.37500E-005	  3.38358E-001	  3.76332E-001	  2.17159E-001	  1.05190E+000
  1.00000E-004	  4.25642E-001	  6.93946E-001	  7.19899E-001	  1.27989E+000
  1.12500E-004	  8.62063E-001	  6.67479E-001	  6.14059E-001	  7.95414E-001
  1.25000E-004	  7.16590E-001	  6.67479E-001	  7.19899E-001	  5.38926E-001
  1.37500E-004	  4.54737E-001	  5.08671E-001	  6.93439E-001	  1.36539E+000
  1.50000E-004	  6.58400E-001	  8.79222E-001	  3.75919E-001	  6.81419E-001
  1.62500E-004	  7.16590E-001	  5.35139E-001	  7.72819E-001	  4.53430E-001
  1.75000E-004	  9.78442E-001	  4.02799E-001	  4.81759E-001	  4.24931E-001
  1.87500E-004	  6.00211E-001	  5.88075E-001	  9.05119E-001	  5.38926E-001
  2.00000E-004	  6.14758E-001	  5.88074E-001	  4.68529E-001	  5.81674E-001
  2.25000E-004	  5.42021E-001	  4.68969E-001	  4.55299E-001	  2.68189E-001
  2.50000E-004	  4.40189E-001	  4.42501E-001	  5.34679E-001	  5.95923E-001
  2.75000E-004	  7.45684E-001	  3.36629E-001	  5.21449E-001	  4.81928E-001
  3.00000E-004	  4.54737E-001	  4.82203E-001	  5.61139E-001	  8.23912E-001
  3.25000E-004	  5.42021E-001	  6.67478E-001	  3.09769E-001	  8.09663E-001
  3.50000E-004	  5.85663E-001	  4.82203E-001	  4.42069E-001	  6.95668E-001
  3.75000E-004	  6.00210E-001	  3.76331E-001	  4.02379E-001	  5.53175E-001
  4.00000E-004	  4.54736E-001	  4.75585E-001	  5.94213E-001	  6.10172E-001
  4.50000E-004	  5.63841E-001	  6.34393E-001	  3.49458E-001	  6.10172E-001
  5.00000E-004	  6.22031E-001	  5.68223E-001	  6.14058E-001	  4.32055E-001
  5.50000E-004	  4.47462E-001	  5.28521E-001	  5.47908E-001	  7.45540E-001
  6.00000E-004	  5.56567E-001	  4.55734E-001	  4.88373E-001	  5.03302E-001
  6.50000E-004	  4.54736E-001	  4.88819E-001	  4.55298E-001	  4.32055E-001
  7.00000E-004	  4.91104E-001	  6.01308E-001	  5.80983E-001	  2.46814E-001
  7.50000E-004	  3.45631E-001	  5.21904E-001	  5.34678E-001	  4.46305E-001
  8.00000E-004	  3.60177E-001	  6.01306E-001	  5.87597E-001	  4.85489E-001
  9.00000E-004	  4.14729E-001	  3.99489E-001	  5.77674E-001	  4.14242E-001
  1.00000E-003	  3.67451E-001	  4.35909E-001	  5.08217E-001	  4.46303E-001
  1.10000E-003	  4.22003E-001	  3.73047E-001	  4.75142E-001	  4.21367E-001
  1.20000E-003	  4.14729E-001	  4.82229E-001	  5.11524E-001	  4.99738E-001
  1.30000E-003	  4.62008E-001	  5.61634E-001	  4.81757E-001	  4.78364E-001
  1.40000E-003	  3.63814E-001	  5.25240E-001	  4.28837E-001	  4.92614E-001
  1.50000E-003	  4.94740E-001	  5.21931E-001	  3.26305E-001	  5.17550E-001
  1.60000E-003	  4.11090E-001	  4.70646E-001	  3.92452E-001	  4.60550E-001
  1.80000E-003	  5.09285E-001	  4.60721E-001	  4.58602E-001	  4.78362E-001
  2.00000E-003	  3.52901E-001	  4.04475E-001	  3.74261E-001	  4.55207E-001
  2.20000E-003	  4.45640E-001	  4.97115E-001	  4.25527E-001	  5.13985E-001
  2.40000E-003	  4.47459E-001	  4.44178E-001	  4.56948E-001	  4.76581E-001
  2.60000E-003	  4.62006E-001	  3.79661E-001	  5.06561E-001	  4.49863E-001
  2.80000E-003	  3.60175E-001	  4.62375E-001	  4.10643E-001	  4.23146E-001
  3.00000E-003	  4.89282E-001	  3.26725E-001	  4.20566E-001	  4.03553E-001
  3.20000E-003	  4.20178E-001	  4.04471E-001	  4.15600E-001	  4.40953E-001
  3.60000E-003	  4.50181E-001	  4.09433E-001	  4.20561E-001	  4.05329E-001
  4.00000E-003	  4.73821E-001	  4.01162E-001	  4.00716E-001	  3.47442E-001
  4.40000E-003	  4.03812E-001	  4.45000E-001	  4.75162E-001	  4.32937E-001
  4.80000E-003	  4.21087E-001	  4.48309E-001	  3.96608E-001	  4.39171E-001
  5.20000E-003	  3.94720E-001	  4.20186E-001	  4.75989E-001	  4.67670E-001
  5.60000E-003	  3.98357E-001	  3.99508E-001	  3.92474E-001	  4.27594E-001
  6.00000E-003	  4.19268E-001	  4.01989E-001	  4.16453E-001	  4.47187E-001
  6.40000E-003	  4.38352E-001	  3.63569E-001	  4.22258E-001	  4.39162E-001
  7.20000E-003	  3.86528E-001	  3.33378E-001	  3.54867E-001	  3.95524E-001
  8.00000E-003	  4.31987E-001	  3.49094E-001	  3.59828E-001	  4.00422E-001
  8.80000E-003	  3.60615E-001	  3.74736E-001	  3.78020E-001	  3.68807E-001
  9.60000E-003	  3.94738E-001	  3.99137E-001	  3.70578E-001	  3.80829E-001
  1.04000E-002	  3.96556E-001	  3.83008E-001	  3.93731E-001	  3.63908E-001
  1.12000E-002	  3.92010E-001	  3.52816E-001	  3.32540E-001	  3.42089E-001
  1.20000E-002	  3.97465E-001	  3.79699E-001	  4.02826E-001	  3.63908E-001
  1.28000E-002	  3.74743E-001	  3.59517E-001	  3.67509E-001	  3.76162E-001
  1.44000E-002	  3.37465E-001	  3.40103E-001	  3.43115E-001	  3.54343E-001
  1.60000E-002	  3.41329E-001	  3.28290E-001	  3.26784E-001	  3.60131E-001
  1.76000E-002	  3.42011E-001	  3.57656E-001	  3.42314E-001	  3.52116E-001
  1.92000E-002	  3.28854E-001	  3.27851E-001	  3.33011E-001	  3.33192E-001
  2.08000E-002	  3.17261E-001	  3.07585E-001	  3.25362E-001	  3.38758E-001
  2.24000E-002	  2.81801E-001	  3.11101E-001	  3.19366E-001	  3.34082E-001
  2.40000E-002	  2.72481E-001	  2.88767E-001	  3.19160E-001	  3.11372E-001
  2.56000E-002	  2.88976E-001	  2.93195E-001	  2.90279E-001	  3.14728E-001
  2.88000E-002	  2.60449E-001	  2.77454E-001	  2.70455E-001	  2.57841E-001
  3.20000E-002	  2.55472E-001	  2.63677E-001	  2.88442E-001	  2.59375E-001
  3.52000E-002	  2.62203E-001	  2.41963E-001	  2.40994E-001	  2.73872E-001
  3.84000E-002	  2.30581E-001	  2.35966E-001	  2.48460E-001	  2.60068E-001
  4.16000E-002	  2.08077E-001	  2.12390E-001	  2.40443E-001	  2.31458E-001
  4.48000E-002	  2.37766E-001	  2.03601E-001	  2.18091E-001	  2.07301E-001
  4.80000E-002	  1.88665E-001	  1.90779E-001	  2.21399E-001	  2.09527E-001
  5.12000E-002	  1.90331E-001	  1.86956E-001	  2.01407E-001	  2.01903E-001
  5.76000E-002	  1.60835E-001	  1.62084E-001	  1.59949E-001	  1.70728E-001
  6.40000E-002	  1.48445E-001	  1.55362E-001	  1.52018E-001	  1.58926E-001
  7.04000E-002	  1.45546E-001	  1.17202E-001	  1.17922E-001	  1.49295E-001
  7.68000E-002	  1.24006E-001	  1.08877E-001	  1.15358E-001	  1.23164E-001
  8.32000E-002	  1.01863E-001	  7.70877E-002	  1.13363E-001	  1.21027E-001
  8.96000E-002	  1.04704E-001	  8.50190E-002	  8.94795E-002	  1.12454E-001
  9.60000E-002	  7.94907E-002	  9.31165E-002	  7.40542E-002	  9.96510E-002
  1.02400E-001	  6.76684E-002	  7.07774E-002	  8.32727E-002	  7.63355E-002
  1.15200E-001	  5.10976E-002	  5.87276E-002	  5.76349E-002	  7.06074E-002
  1.28000E-001	  4.67978E-002	  4.66974E-002	  4.88075E-002	  4.52477E-002
  1.40800E-001	  3.90380E-002	  3.34255E-002	  4.10005E-002	  2.98613E-002
  1.53600E-001	  2.12898E-002	  3.26884E-002	  3.22952E-002	  4.51920E-002
  1.66400E-001	  1.88822E-002	  1.95066E-002	  3.36458E-002	  3.66861E-002
  1.79200E-001	  2.01612E-002	  1.25505E-002	  2.33174E-002	  2.05477E-002
  1.92000E-001	  9.25569E-003	  7.18569E-003	  1.22833E-002	  1.98041E-002
  2.04800E-001	  3.80496E-003	  1.71347E-003	  1.26428E-002	  7.63758E-003
  2.30400E-001	 -3.13481E-003	  3.19934E-003	  1.30108E-002	  3.59123E-003
  2.56000E-001	 -2.41516E-003	  8.74911E-004	  6.97856E-003	  4.59923E-003
  2.81600E-001	 -1.02548E-002	 -1.80793E-003	  6.54108E-003	  5.62126E-003
  3.07200E-001	 -3.62535E-003	 -8.05431E-003	  7.03238E-003	  3.17347E-003
  3.32800E-001	  4.72205E-003	 -4.97638E-003	 -2.78796E-003	  1.36915E-003
  3.58400E-001	  1.09192E-003	 -3.92885E-003	 -1.00236E-003	 -4.40849E-003
  3.84000E-001	 -4.61686E-003	 -6.56942E-004	  4.47358E-003	  4.76612E-003
  4.09600E-001	  1.51757E-003	 -2.18256E-003	 -9.65943E-004	  2.35209E-003
  4.60800E-001	 -2.81087E-003	 -9.87444E-003	 -1.49679E-003	 -1.21463E-003
  5.12000E-001	 -4.09620E-003	 -7.74646E-003	 -2.86747E-003	 -7.28861E-003
  5.63200E-001	  2.03227E-003	 -4.47587E-003	 -1.41285E-002	 -1.64066E-002
  6.14400E-001	  3.91955E-003	 -3.17788E-003	 -9.64725E-003	 -9.65650E-003
  6.65600E-001	  2.98435E-003	 -2.26438E-003	 -5.74802E-003	 -2.18545E-003
  7.16800E-001	  7.29808E-003	 -5.60861E-003	 -8.64935E-004	  7.62773E-003
  7.68000E-001	  3.87827E-004	  1.96142E-003	 -1.90637E-004	  9.63751E-003
  8.19200E-001	 -4.89151E-003	 -5.78924E-003	  4.94947E-003	  1.35771E-002
  9.21600E-001	 -3.55010E-003	  4.30744E-003	 -5.68959E-004	  1.01301E-003
  1.02400E+000	  1.52953E-003	  8.91746E-003	  2.19872E-003	  4.27111E-004
  1.12640E+000	 -1.51128E-003	  5.52490E-003	 -3.53486E-003	 -1.35848E-003
  1.22880E+000	 -1.29779E-003	  8.79785E-004	 -1.43214E-003	 -2.70616E-003
  1.33120E+000	 -5.80430E-003	  5.47091E-004	 -1.68468E-003	 -1.76417E-002
  1.43360E+000	 -6.22752E-003	 -6.44511E-004	 -7.30152E-004	 -1.73349E-002
  1.53600E+000	 -6.90155E-003	  2.35615E-003	 -6.11784E-006	 -7.36655E-003
  1.63840E+000	 -1.39658E-003	 -4.59989E-004	  1.59656E-004	 -3.08769E-003
  1.84320E+000	 -3.27923E-004	  8.79741E-003	  2.96219E-003	  7.13748E-003
  2.04800E+000	 -2.20032E-003	  7.68349E-003	 -2.86453E-003	  4.54282E-003
  2.25280E+000	 -1.60901E-004	  1.76177E-003	 -8.77061E-003	  8.56539E-004
  2.45760E+000	 -3.31979E-003	  1.44828E-003	 -4.64176E-004	  3.19283E-003
  2.66240E+000	  9.22320E-004	  4.34082E-004	 -4.28804E-003	  3.70056E-003
  2.86720E+000	 -5.35962E-003	 -3.94440E-003	 -4.01017E-003	  1.58426E-003
  3.07200E+000	  6.93634E-003	  2.94835E-003	  2.55840E-003	 -2.38722E-003
  3.27680E+000	  1.88376E-003	 -1.48516E-003	 -2.97404E-003	  3.29969E-003
  3.68640E+000	 -7.74957E-004	 -1.10824E-003	  2.93480E-003	  3.03472E-003
  4.09600E+000	 -1.58291E-003	  2.69880E-003	 -2.61317E-004	  1.03092E-004
  4.50560E+000	 -3.73413E-003	  8.59915E-004	  3.23819E-003	 -2.69893E-004
  4.91520E+000	  3.63718E-003	  3.60081E-003	  4.73600E-003	 -7.69712E-003
  5.32480E+000	  5.18347E-004	 -2.34192E-005	  1.52091E-003	 -2.08044E-003
  5.73440E+000	 -1.38109E-003	 -1.16062E-003	 -1.14132E-003	 -5.66028E-003
  6.14400E+000	  1.99061E-003	 -3.87832E-003	 -8.16421E-003	 -5.39457E-003
  6.55360E+000	 -4.18824E-006	  2.41067E-003	  2.87069E-004	 -5.08734E-003
  7.37280E+000	 -2.47080E-003	 -1.77258E-003	  3.13400E-003	 -1.56012E-004
  8.19200E+000	  3.35751E-003	  3.30314E-003	  1.34112E-003	 -5.49831E-003
  9.01120E+000	 -2.53614E-003	 -9.78913E-005	 -1.03065E-003	 -4.08210E-003
  9.83040E+000	  1.01992E-003	 -3.78393E-004	 -5.18844E-004	 -3.59032E-003
  1.06496E+001	  5.32849E-004	  1.69881E-003	 -9.97640E-004	 -1.94982E-003
  1.14688E+001	 -6.57228E-003	 -3.64201E-003	 -1.31825E-003	 -3.07187E-003
  1.22880E+001	 -4.15526E-003	 -1.78927E-004	 -9.41540E-004	 -1.63508E-003
  1.31072E+001	 -1.54979E-004	 -8.12326E-004	 -1.44355E-003	  1.48778E-003
  1.47456E+001	  4.19202E-003	  1.00007E-003	  5.78043E-005	  5.43810E-004
  1.63840E+001	  1.78974E-003	 -9.90273E-004	  8.98033E-004	  4.33128E-003
  1.80224E+001	  1.55972E-003	 -2.00652E-003	  1.83442E-003	  2.54222E-004
  1.96608E+001	  4.18036E-004	  2.44707E-003	 -3.14526E-004	  1.11836E-003
  2.12992E+001	  1.86435E-003	  1.17522E-003	  1.42192E-003	  1.30373E-003
  2.29376E+001	  1.08437E-004	  6.12536E-005	  2.82387E-003	 -1.83625E-003
  2.45760E+001	  2.84257E-004	  1.49810E-003	 -2.30335E-003	  4.66335E-004
  2.62144E+001	 -1.40545E-003	  4.56006E-004	 -1.69174E-003	  1.42148E-004
  2.94912E+001	 -8.45726E-004	  6.18203E-004	  1.45847E-003	  1.04233E-003
  3.27680E+001	  7.00152E-004	 -1.56638E-003	 -3.45956E-004	 -1.99457E-004
  3.60448E+001	  9.86873E-004	 -1.97217E-005	 -2.69940E-004	 -1.58975E-003
  3.93216E+001	 -3.59978E-004	 -2.76226E-003	  6.55469E-004	  2.86048E-003
  4.25984E+001	 -4.43411E-004	 -3.19469E-003	 -1.27796E-003	  6.24544E-004
  4.58752E+001	  6.60668E-004	  4.19223E-004	 -1.56592E-003	 -3.74282E-004
  4.91520E+001	 -1.20803E-003	  9.09082E-004	 -1.61885E-004	 -2.95794E-003
  5.24288E+001	  3.71156E-004	 -1.47856E-003	  4.14082E-004	 -1.22745E-003
  5.89824E+001	  1.03244E-004	 -7.88642E-004	  1.07303E-005	  5.67210E-004
  6.55360E+001	 -1.97237E-003	 -4.02456E-004	  7.92216E-004	  1.42826E-004
  7.20896E+001	  5.89145E-005	 -1.08846E-003	  6.00729E-004	 -1.10856E-004
  7.86432E+001	  3.65925E-004	  1.58092E-004	 -1.43719E-003	 -1.33157E-003
  8.51968E+001	 -1.39636E-003	 -2.78883E-004	  8.34189E-004	 -5.33593E-004
  9.17504E+001	  1.06336E-004	  2.05222E-003	 -5.25232E-004	  9.12188E-004
  9.83040E+001	 -2.71091E-004	  2.91374E-004	 -1.88846E-003	 -2.17505E-003
  1.04858E+002	  6.05855E-004	  1.25480E-003	 -4.46231E-004	  5.84560E-005
  1.17965E+002	 -4.38083E-004	  4.85584E-004	  2.96932E-005	 -1.71344E-004
  1.31072E+002	  2.80083E-004	 -2.17943E-003	  4.66772E-004	 -3.52948E-004
  1.44179E+002	 -1.60293E-003	 -5.93405E-004	  3.26363E-004	 -1.12693E-004
  1.57286E+002	  1.70187E-003	 -2.63518E-004	 -3.18922E-004	 -2.42488E-005
  1.70394E+002	  3.23795E-004	  3.17267E-004	 -1.42326E-003	 -7.71580E-004
  1.83501E+002	  8.90604E-004	 -5.24932E-004	 -5.77400E-005	  7.26081E-004
  1.96608E+002	 -3.60356E-004	 -1.68472E-004	  5.22982E-004	  7.45635E-004
  2.09715E+002	  3.50052E-004	 -9.24474E-005	 -2.91896E-004	  1.16862E-004
  2.35930E+002	 -9.97262E-004	  4.13280E-005	 -2.57168E-004	 -5.14543E-004
  2.62144E+002	 -4.69953E-004	  5.89449E-004	  6.47493E-004	  1.79069E-005
  2.88358E+002	  1.84162E-004	 -8.65541E-004	  1.27967E-003	 -6.97002E-004
  3.14573E+002	  1.04101E-003	  1.41754E-004	 -1.68000E-003	  7.57368E-004
  3.40787E+002	  2.54533E-005	  1.20144E-003	  1.03375E-003	  2.16000E-004
  3.67002E+002	  9.23926E-004	 -3.95866E-004	 -1.19669E-003	  4.19047E-004
  3.93216E+002	 -7.98537E-004	 -1.05155E-003	 -1.05151E-004	  1.07713E-003

"Count Rate"
       0.01311	      53.17688	      55.23682	      61.26404	      58.97522
       0.02621	      46.38672	      51.26953	      50.35400	      54.62646
       0.03932	      53.10059	      46.46301	      51.95618	      50.96436
       0.05243	      49.66736	      50.96436	      56.30493	      49.36218
       0.06554	      50.81177	      59.35669	      52.56653	      56.76270
       0.07864	      44.17419	      52.10876	      59.50928	      52.56653
       0.09175	      52.18506	      51.72729	      55.54199	      54.16870
       0.10486	      54.62646	      57.60193	      51.19324	      50.20142
       0.11796	      54.32129	      54.32129	      58.05969	      61.34033
       0.13107	      48.44666	      61.87439	      59.12781	      55.08423
       0.14418	      59.96704	      51.04065	      52.33765	      53.93982
       0.15729	      52.49023	      63.70544	      58.97522	      51.04065
       0.17039	      46.99707	      52.18506	      53.17688	      53.86353
       0.18350	      52.03247	      55.38940	      53.32947	      59.12781
       0.19661	      56.07605	      58.44116	      57.14417	      50.27771
       0.20972	      54.55017	      53.25317	      61.18774	      58.51746
       0.22282	      55.84717	      58.59375	      57.67822	      53.78723
       0.23593	      52.26135	      58.59375	      51.95618	      50.43030
       0.24904	      56.30493	      65.23132	      57.83081	      55.46570
       0.26214	      47.76001	      60.95886	      54.32129	      53.40576
       0.27525	      51.65100	      58.82263	      53.40576	      49.66736
       0.28836	      50.04883	      47.14966	      56.38123	      47.60742
       0.30147	      58.21228	      51.65100	      56.30493	      50.27771
       0.31457	      60.50110	      48.14148	      61.49292	      52.26135
       0.32768	      56.99158	      53.93982	      55.84717	      55.84717
       0.34079	      47.76001	      61.49292	      60.65369	      56.68640
       0.35389	      55.00793	      60.88257	      59.58557	      57.83081
       0.36700	      56.22864	      54.01611	      55.54199	      59.50928
       0.38011	      55.92346	      55.23682	      47.37854	      55.00793
       0.39322	      52.64282	      54.09241	      53.55835	      55.61829
       0.40632	      55.46570	      47.76001	      55.46570	      54.32129
       0.41943	      49.13330	      58.13599	      60.65369	      50.50659
       0.43254	      49.81995	      57.90710	      52.56653	      54.39758
       0.44564	      54.09241	      55.92346	      51.57471	      57.06787
       0.45875	      50.20142	      52.64282	      59.20410	      53.32947
       0.47186	      49.74365	      55.08423	      62.86621	      51.57471
       0.48497	      53.25317	      55.38940	      59.43298	      54.09241
       0.49807	      50.96436	      57.14417	      63.93433	      55.61829
       0.51118	      62.40845	      52.33765	      56.22864	      51.19324
       0.52429	      50.04883	      61.56921	      50.50659	      60.80627
       0.53740	      51.72729	      59.96704	      67.21497	      54.47388
       0.55050	      53.86353	      54.32129	      55.08423	      47.45483
       0.56361	      57.67822	      51.80359	      53.48206	      60.27222
       0.57672	      49.13330	      55.69458	      52.41394	      50.65918
       0.58982	      50.20142	      61.56921	      49.97253	      46.69189
       0.60293	      50.88806	      62.78992	      62.71362	      51.72729
       0.61604	      55.38940	      46.92078	      51.87988	      47.14966
       0.62915	      52.03247	      50.20142	      53.55835	      55.00793
       0.64225	      57.52563	      55.16052	      49.66736	      54.55017
       0.65536	      51.34583	      53.32947	      56.38123	      49.59106
       0.66847	      60.50110	      58.36487	      51.80359	      55.61829
       0.68157	      58.51746	      51.72729	      50.96436	      49.59106
       0.69468	      53.40576	      66.52832	      53.25317	      48.90442
       0.70779	      48.52295	      53.02429	      51.49841	      55.00793
       0.72090	      59.28040	      53.55835	      52.79541	      58.89893
       0.73400	      52.26135	      53.40576	      57.14417	      56.07605
       0.74711	      51.57471	      54.77905	      56.76270	      56.45752
