ALV-7004/USB-FAST
Date :	"11/11/2025"
Time :	"3:59:01 PM"
Samplename : 	""
SampMemo(0) : 	""
SampMemo(1) : 	""
SampMemo(2) : 	""
SampMemo(3) : 	""
SampMemo(4) : 	""
SampMemo(5) : 	""
SampMemo(6) : 	""
SampMemo(7) : 	""
SampMemo(8) : 	""
SampMemo(9) : 	""
Temperature [K] :	     298.16000
Viscosity [cp]  :	       0.89000
Refractive Index:	       1.33200
Wavelength [nm] :	       0.00000
Angle [°]       :	       0.00000
Duration [s]    :	         1
FloatDur [ms]   :	          944
Stop TP [ms]   :	     68216
Runs            :	         1
Mode            :	"A-CH0+1  A-CH2+3 "
MeanCR0 [kHz]   :	      53.98432
MeanCR1 [kHz]   :	      57.10496
MeanCR2 [kHz]   :	      57.78525
MeanCR3 [kHz]   :	      55.28768

"Correlation"
  3.12500E-006	 -1.00000E+000	 -1.00000E+000	 -1.00000E+000	 -1.00000E+000
  6.25000E-006	 -1.00000E+000	 -1.00000E+000	 -1.00000E+000	 -1.00000E+000
  9.37500E-006	 -1.00000E+000	 -1.00000E+000	 -1.00000E+000	 -1.00000E+000
  1.25000E-005	 -1.00000E+000	 -1.00000E+000	 -1.00000E+000	 -1.00000E+000
  1.56250E-005	 -1.00000E+000	 -1.00000E+000	 -1.00000E+000	 -1.00000E+000
  1.87500E-005	 -1.00000E+000	 -1.00000E+000	 -1.00000E+000	 -1.00000E+000
  2.18750E-005	 -8.83648E-001	  4.55754E-001	  1.17034E-001	 -7.78139E-001
  2.50000E-005	  1.21477E+001	  1.25177E+001	  9.96724E+000	  2.41812E+001
  2.81250E-005	  3.42136E+000	  2.84735E+000	  2.65575E+000	  8.42909E+000
  3.12500E-005	  1.44338E+000	  8.71683E-001	  1.53871E+000	  4.99024E+000
  3.43750E-005	  6.28922E-001	  1.39160E+000	  1.43716E+000	  3.77001E+000
  3.75000E-005	  1.32703E+000	  7.67701E-001	  9.29422E-001	  2.77164E+000
  4.06250E-005	  1.67609E+000	  6.63719E-001	  8.27873E-001	  2.54977E+000
  4.37500E-005	  1.21068E+000	  9.75666E-001	  1.33562E+000	  3.10443E+000
  4.68750E-005	  6.28922E-001	  1.43807E-001	  8.27873E-001	  2.21698E+000
  5.00000E-005	  7.45273E-001	  6.11727E-001	  9.80196E-001	  1.82873E+000
  5.62500E-005	  5.12570E-001	  9.23675E-001	  4.21679E-001	  1.82873E+000
  6.25000E-005	  3.96219E-001	  1.13164E+000	  7.77099E-001	  1.71780E+000
  6.87500E-005	  2.21691E-001	  6.63719E-001	  6.24776E-001	  1.10768E+000
  7.50000E-005	  9.77976E-001	  6.11727E-001	  8.78648E-001	  1.05221E+000
  8.12500E-005	  5.70746E-001	  1.07965E+000	  7.77099E-001	  2.75700E-001
  8.75000E-005	  9.77976E-001	  7.15710E-001	  3.20131E-001	  2.20235E-001
  9.37500E-005	  7.45273E-001	  4.03763E-001	  7.26325E-001	  1.16314E+000
  1.00000E-004	  7.74361E-001	  9.18152E-002	  6.24776E-001	  5.53026E-001
  1.12500E-004	  5.41658E-001	  8.19692E-001	  5.48615E-001	  8.58085E-001
  1.25000E-004	  3.96218E-001	  5.59736E-001	  9.29422E-001	  9.41283E-001
  1.37500E-004	  8.03449E-001	  5.59736E-001	  4.47066E-001	  5.25294E-001
  1.50000E-004	  7.74361E-001	  9.49670E-001	  5.99389E-001	  8.58085E-001
  1.62500E-004	  4.54394E-001	  6.37723E-001	  6.24776E-001	  4.97561E-001
  1.75000E-004	  9.19800E-001	  5.85732E-001	  4.47066E-001	  4.14363E-001
  1.87500E-004	  4.25306E-001	  5.33740E-001	  3.70905E-001	  3.86631E-001
  2.00000E-004	  7.74361E-001	  8.45687E-001	  5.35921E-001	  6.63956E-001
  2.25000E-004	  5.85289E-001	  7.67700E-001	  4.85147E-001	  3.17299E-001
  2.50000E-004	  8.90712E-001	  5.20742E-001	  6.62856E-001	  4.69828E-001
  2.75000E-004	  4.98026E-001	  5.85731E-001	  2.43969E-001	  4.83694E-001
  3.00000E-004	  4.39850E-001	  4.16760E-001	  5.10534E-001	  2.34101E-001
  3.25000E-004	  5.70745E-001	  4.29758E-001	  5.10534E-001	  1.92502E-001
  3.50000E-004	  7.45273E-001	  6.37722E-001	  4.85147E-001	  5.25293E-001
  3.75000E-004	  7.59817E-001	  6.50720E-001	  5.48614E-001	  9.96748E-001
  4.00000E-004	  6.21649E-001	  6.50720E-001	  5.54960E-001	  6.63956E-001
  4.50000E-004	  4.39849E-001	  5.33739E-001	  4.53412E-001	  5.80758E-001
  5.00000E-004	  4.47121E-001	  5.46737E-001	  3.64557E-001	  6.29290E-001
  5.50000E-004	  4.18033E-001	  5.46737E-001	  4.85146E-001	  4.62894E-001
  6.00000E-004	  5.70745E-001	  4.62252E-001	  4.72452E-001	  5.94624E-001
  6.50000E-004	  5.12569E-001	  4.49254E-001	  4.97839E-001	  4.97560E-001
  7.00000E-004	  4.76209E-001	  6.31223E-001	  5.16880E-001	  5.73825E-001
  7.50000E-004	  5.41657E-001	  5.20742E-001	  5.99388E-001	  4.62894E-001
  8.00000E-004	  5.41656E-001	  4.62250E-001	  4.37544E-001	  4.24761E-001
  9.00000E-004	  5.59835E-001	  6.05226E-001	  5.04185E-001	  4.83692E-001
  1.00000E-003	  4.39848E-001	  6.34471E-001	  3.77250E-001	  5.07958E-001
  1.10000E-003	  4.36212E-001	  6.47469E-001	  3.96290E-001	  4.94092E-001
  1.20000E-003	  4.18032E-001	  5.36988E-001	  5.48612E-001	  4.49027E-001
  1.30000E-003	  6.14375E-001	  5.40237E-001	  5.04185E-001	  3.27697E-001
  1.40000E-003	  5.81651E-001	  5.92228E-001	  4.34370E-001	  4.21294E-001
  1.50000E-003	  3.52585E-001	  4.94745E-001	  3.20129E-001	  4.24761E-001
  1.60000E-003	  4.16212E-001	  5.07768E-001	  5.58130E-001	  5.09689E-001
  1.80000E-003	  5.19837E-001	  4.88271E-001	  4.20088E-001	  4.29958E-001
  2.00000E-003	  4.87113E-001	  5.84131E-001	  4.15328E-001	  4.80223E-001
  2.20000E-003	  5.96193E-001	  4.29780E-001	  4.48648E-001	  4.99290E-001
  2.40000E-003	  4.25302E-001	  5.59760E-001	  4.04221E-001	  3.86626E-001
  2.60000E-003	  3.61672E-001	  4.81772E-001	  4.64515E-001	  3.95293E-001
  2.80000E-003	  4.65298E-001	  5.84131E-001	  4.81969E-001	  3.48494E-001
  3.00000E-003	  4.25302E-001	  4.85021E-001	  4.50235E-001	  5.54755E-001
  3.20000E-003	  3.90755E-001	  4.51709E-001	  4.31983E-001	  4.95818E-001
  3.60000E-003	  4.74382E-001	  4.51709E-001	  4.31190E-001	  4.42086E-001
  4.00000E-003	  4.69837E-001	  4.19214E-001	  4.25636E-001	  4.35153E-001
  4.40000E-003	  4.58021E-001	  4.01342E-001	  3.93903E-001	  3.79688E-001
  4.80000E-003	  3.83483E-001	  4.05404E-001	  4.01836E-001	  4.17820E-001
  5.20000E-003	  3.35307E-001	  4.28963E-001	  4.05010E-001	  3.54556E-001
  5.60000E-003	  4.27115E-001	  4.21651E-001	  4.56577E-001	  3.99621E-001
  6.00000E-003	  3.52578E-001	  3.89156E-001	  4.28016E-001	  3.91821E-001
  6.40000E-003	  4.15743E-001	  4.17986E-001	  4.36337E-001	  4.49876E-001
  7.20000E-003	  4.14380E-001	  4.04988E-001	  4.24833E-001	  3.80112E-001
  8.00000E-003	  4.00290E-001	  3.80211E-001	  4.14123E-001	  4.02645E-001
  8.80000E-003	  4.01654E-001	  4.00926E-001	  3.85167E-001	  3.90079E-001
  9.60000E-003	  3.53932E-001	  3.83054E-001	  3.54623E-001	  3.42414E-001
  1.04000E-002	  4.01199E-001	  3.91990E-001	  3.81993E-001	  3.86179E-001
  1.12000E-002	  4.03926E-001	  3.75337E-001	  3.71283E-001	  3.93112E-001
  1.20000E-002	  3.40297E-001	  3.82648E-001	  3.57400E-001	  3.90512E-001
  1.28000E-002	  3.49142E-001	  3.87175E-001	  3.77611E-001	  3.55906E-001
  1.44000E-002	  3.60049E-001	  3.75395E-001	  3.61546E-001	  3.73890E-001
  1.60000E-002	  3.62776E-001	  3.70723E-001	  3.28623E-001	  3.23839E-001
  1.76000E-002	  3.44824E-001	  3.56913E-001	  3.12558E-001	  3.45723E-001
  1.92000E-002	  3.09601E-001	  3.43508E-001	  3.03435E-001	  3.14089E-001
  2.08000E-002	  3.07783E-001	  3.48992E-001	  3.35367E-001	  3.14739E-001
  2.24000E-002	  3.10283E-001	  3.25838E-001	  3.18731E-001	  3.07589E-001
  2.40000E-002	  2.89831E-001	  3.34368E-001	  3.00682E-001	  2.85489E-001
  2.56000E-002	  3.14679E-001	  3.21933E-001	  2.97323E-001	  2.73167E-001
  2.88000E-002	  2.78687E-001	  2.81461E-001	  2.64697E-001	  2.62958E-001
  3.20000E-002	  2.61782E-001	  2.77906E-001	  2.47838E-001	  2.60984E-001
  3.52000E-002	  2.36241E-001	  2.69781E-001	  2.31475E-001	  2.39617E-001
  3.84000E-002	  2.24813E-001	  2.26694E-001	  2.31078E-001	  2.56085E-001
  4.16000E-002	  2.22086E-001	  2.16944E-001	  2.15410E-001	  2.05924E-001
  4.48000E-002	  2.20950E-001	  2.18873E-001	  1.86177E-001	  2.07680E-001
  4.80000E-002	  1.96202E-001	  2.11967E-001	  1.89053E-001	  1.77561E-001
  5.12000E-002	  1.90469E-001	  2.07221E-001	  1.76707E-001	  1.76445E-001
  5.76000E-002	  1.56095E-001	  1.74180E-001	  1.80568E-001	  1.54828E-001
  6.40000E-002	  1.60300E-001	  1.62127E-001	  1.50965E-001	  1.44913E-001
  7.04000E-002	  1.35414E-001	  1.49204E-001	  1.23047E-001	  1.26373E-001
  7.68000E-002	  1.08142E-001	  1.38829E-001	  1.08440E-001	  1.21281E-001
  8.32000E-002	  1.07347E-001	  1.17100E-001	  8.97449E-002	  9.39341E-002
  8.96000E-002	  8.50750E-002	  9.69168E-002	  8.44390E-002	  8.41078E-002
  9.60000E-002	  6.47348E-002	  8.11726E-002	  8.74142E-002	  7.56027E-002
  1.02400E-001	  6.60559E-002	  7.39615E-002	  8.16736E-002	  6.76540E-002
  1.15200E-001	  6.54308E-002	  5.24315E-002	  7.08319E-002	  5.77931E-002
  1.28000E-001	  4.55912E-002	  5.48680E-002	  4.67225E-002	  4.47627E-002
  1.40800E-001	  3.42748E-002	  3.75258E-002	  4.79817E-002	  3.71504E-002
  1.53600E-001	  2.87626E-002	  2.79819E-002	  3.43495E-002	  2.60705E-002
  1.66400E-001	  2.97855E-002	  2.76833E-002	  2.79510E-002	  2.52700E-002
  1.79200E-001	  2.16593E-002	  2.26042E-002	  2.10813E-002	  2.43096E-002
  1.92000E-001	  3.17663E-002	  6.16846E-003	  2.50742E-002	  2.74471E-002
  2.04800E-001	  1.98533E-002	  5.79912E-003	  1.84580E-002	  2.29552E-002
  2.30400E-001	  1.44672E-002	  5.73561E-003	  3.49428E-003	  1.49079E-002
  2.56000E-001	  9.53344E-004	  3.55695E-003	  2.14182E-003	  1.93717E-003
  2.81600E-001	  8.65327E-005	 -2.50158E-003	  7.39697E-003	  3.50867E-003
  3.07200E-001	 -5.94554E-003	 -5.34433E-003	  1.08762E-003	  2.47119E-003
  3.32800E-001	  2.19395E-003	 -1.92001E-003	 -9.86156E-003	  4.66019E-003
  3.58400E-001	  5.09240E-003	 -5.32929E-003	 -4.02427E-003	 -1.20348E-003
  3.84000E-001	  8.18975E-003	  4.00133E-003	 -5.64892E-003	  1.09044E-003
  4.09600E-001	  7.51201E-003	  4.26891E-003	 -5.69574E-003	 -3.54863E-003
  4.60800E-001	  1.53662E-002	  1.05481E-003	 -2.57319E-003	 -4.70423E-003
  5.12000E-001	  9.56435E-003	  4.10813E-003	 -1.92010E-003	 -3.55662E-003
  5.63200E-001	  7.07850E-003	  3.52304E-003	  5.38800E-003	  2.70893E-003
  6.14400E-001	  2.17653E-003	  8.26688E-003	  7.17610E-003	 -1.95802E-005
  6.65600E-001	  3.13914E-003	  1.42585E-003	  5.02244E-003	  6.87630E-003
  7.16800E-001	  7.23694E-003	  3.41675E-004	 -6.37655E-003	  4.61411E-003
  7.68000E-001	  1.19319E-003	 -2.67815E-003	 -5.53362E-003	 -4.21080E-003
  8.19200E-001	  1.00964E-002	 -9.44618E-004	 -6.42926E-003	 -9.34311E-004
  9.21600E-001	  5.17350E-003	 -1.43958E-003	  1.84434E-004	  4.91487E-003
  1.02400E+000	 -9.42201E-004	 -2.62135E-003	 -5.14858E-003	 -1.65329E-003
  1.12640E+000	 -7.82088E-003	  1.37930E-003	 -6.23900E-003	 -8.53581E-004
  1.22880E+000	 -1.55661E-003	 -2.91860E-003	 -6.76440E-003	 -9.99545E-004
  1.33120E+000	  2.57424E-003	 -7.35699E-003	 -2.78756E-003	  3.54785E-003
  1.43360E+000	  5.98479E-003	 -1.52622E-002	  2.99363E-004	 -6.09720E-004
  1.53600E+000	  5.71244E-003	 -1.08848E-002	  2.76897E-003	  5.57529E-003
  1.63840E+000	  7.94680E-003	 -4.33700E-003	  5.13280E-004	  2.04196E-003
  1.84320E+000	 -1.66153E-003	 -1.34611E-003	 -9.64653E-004	 -5.67051E-003
  2.04800E+000	 -7.00089E-003	  4.80630E-003	  7.01546E-004	 -3.82083E-003
  2.25280E+000	 -4.94288E-003	  2.31836E-003	  5.09626E-003	  7.18521E-004
  2.45760E+000	 -2.32512E-003	 -5.07212E-003	 -4.96280E-003	 -4.54012E-003
  2.66240E+000	 -7.25067E-003	 -4.66385E-003	 -2.49872E-003	  4.69871E-003
  2.86720E+000	  4.47195E-003	  1.15412E-003	  1.97864E-003	  1.19829E-003
  3.07200E+000	 -2.80310E-003	 -1.69396E-003	  3.76726E-003	 -3.04795E-003
  3.27680E+000	 -3.61859E-003	 -1.41499E-003	 -8.46929E-004	 -6.28087E-003
  3.68640E+000	 -1.40637E-003	 -2.61041E-003	 -5.87298E-004	  1.75899E-003
  4.09600E+000	  2.60056E-004	 -2.54906E-003	 -9.10964E-004	 -4.67253E-003
  4.50560E+000	 -6.11147E-004	 -9.85043E-004	  3.31964E-004	  1.27267E-004
  4.91520E+000	  4.71568E-004	  2.99773E-003	  1.66755E-003	  1.35353E-003
  5.32480E+000	 -9.73093E-004	 -4.38256E-003	  5.03426E-003	  1.47001E-003
  5.73440E+000	  5.61293E-003	  1.80472E-003	 -2.23018E-003	  1.63499E-003
  6.14400E+000	  3.95254E-004	 -5.54872E-003	  1.20785E-003	 -2.50827E-003
  6.55360E+000	 -2.19131E-004	 -1.88387E-003	  2.04910E-003	 -1.42501E-003
  7.37280E+000	  4.01232E-003	  3.41754E-003	 -5.02594E-003	 -2.56323E-003
  8.19200E+000	  1.83042E-003	 -1.50479E-005	  5.89544E-004	 -7.97809E-005
  9.01120E+000	  1.79336E-003	 -9.09335E-004	 -1.35537E-003	  4.61523E-003
  9.83040E+000	 -2.39870E-003	 -5.33640E-004	  7.68996E-004	  3.39058E-003
  1.06496E+001	 -1.80127E-003	  1.71895E-003	  2.98150E-003	  2.14410E-003
  1.14688E+001	 -5.01166E-004	  2.98472E-003	  1.51256E-003	 -3.64882E-003
  1.22880E+001	 -1.57567E-003	  5.42681E-004	 -6.52228E-004	 -2.60382E-003
  1.31072E+001	  1.39951E-003	 -3.46761E-004	 -2.57438E-003	  2.65696E-004
  1.47456E+001	 -1.53979E-003	 -9.57960E-004	 -1.49488E-003	 -5.07769E-004
  1.63840E+001	  2.09496E-003	 -1.01114E-003	 -1.40509E-003	  4.57146E-004
  1.80224E+001	  5.41572E-005	 -1.39347E-003	 -1.00481E-003	 -1.03839E-003
  1.96608E+001	  1.28278E-003	  1.35180E-003	  6.92728E-004	 -4.90968E-003
  2.12992E+001	 -5.00533E-004	  1.61722E-004	 -2.84824E-003	 -2.27667E-003
  2.29376E+001	  1.70734E-003	  3.18769E-004	  1.90022E-003	 -3.28784E-003
  2.45760E+001	 -1.65404E-003	 -1.07318E-003	 -9.47406E-004	  5.42689E-004
  2.62144E+001	  2.22607E-004	 -2.49975E-004	  1.58098E-003	  2.44376E-004
  2.94912E+001	  9.33413E-005	 -6.70362E-004	  4.63241E-004	  4.92638E-004
  3.27680E+001	 -5.24583E-004	 -9.73582E-004	 -4.37770E-004	  2.08844E-004
  3.60448E+001	 -8.14808E-004	 -1.08126E-003	 -3.47439E-004	 -3.56232E-004
  3.93216E+001	 -7.34114E-004	  3.22945E-003	  1.28699E-005	  8.34522E-004
  4.25984E+001	  6.98873E-004	 -7.63771E-004	  1.37957E-003	 -1.91515E-004
  4.58752E+001	  1.97495E-004	  6.23734E-004	 -8.26196E-004	 -1.43462E-004
  4.91520E+001	  4.05770E-003	  1.31647E-003	 -3.36243E-004	  1.01023E-003
  5.24288E+001	  1.33472E-003	 -4.82277E-004	  2.51507E-003	  1.01799E-003
  5.89824E+001	 -4.42453E-004	 -2.01204E-004	 -3.61673E-004	 -1.70257E-003
  6.55360E+001	  1.29710E-003	  8.00120E-004	  8.57003E-004	 -4.59469E-004
  7.20896E+001	  8.63466E-004	  1.45420E-003	 -7.06760E-004	 -6.79029E-004
  7.86432E+001	 -5.82768E-004	 -5.01843E-005	  8.62529E-004	 -3.79036E-004
  8.51968E+001	 -7.59001E-004	  1.08687E-003	 -1.52587E-003	  1.21467E-003
  9.17504E+001	 -1.65119E-003	  1.60695E-005	  6.89181E-004	  1.72023E-003
  9.83040E+001	  6.40027E-004	 -7.30035E-004	 -9.66478E-004	  1.80789E-003
  1.04858E+002	  1.58721E-003	 -7.33477E-004	  3.63314E-004	  1.08003E-004
  1.17965E+002	  1.34323E-003	  5.01139E-004	  1.04599E-003	  2.68046E-004
  1.31072E+002	  3.20893E-004	 -5.51127E-004	 -1.02439E-003	 -5.47769E-004
  1.44179E+002	  5.81116E-005	  3.35307E-004	 -2.64783E-004	  3.34901E-004
  1.57286E+002	 -6.33721E-004	  1.07091E-003	 -1.33506E-003	 -1.97118E-005
  1.70394E+002	  9.86737E-004	  3.84051E-004	  8.36963E-004	 -3.50679E-006
  1.83501E+002	 -3.84539E-005	 -1.46895E-004	 -1.21192E-003	  2.24171E-003
  1.96608E+002	 -9.49901E-004	 -6.16513E-004	  9.68736E-004	 -7.57452E-004
  2.09715E+002	 -4.63683E-006	 -2.44062E-004	 -2.20620E-004	 -6.35187E-004
  2.35930E+002	  1.64428E-004	  6.04794E-004	 -3.33586E-004	 -2.45435E-004
  2.62144E+002	  2.60884E-004	 -3.47562E-004	  7.76022E-005	  1.30490E-003
  2.88358E+002	 -7.99062E-004	  2.80454E-005	 -5.76443E-004	 -7.14338E-004
  3.14573E+002	 -3.15551E-005	  8.23819E-005	  4.35894E-004	 -9.77059E-004
  3.40787E+002	  3.48074E-004	 -3.05939E-004	 -9.04360E-004	  6.62083E-004
  3.67002E+002	  5.43069E-004	 -1.09123E-003	 -1.96281E-004	  6.15365E-004
  3.93216E+002	 -4.95875E-004	  2.61408E-004	 -1.23004E-003	 -3.66346E-004

"Count Rate"
       0.01311	      57.37305	      50.35400	      58.21228	      51.95618
       0.02621	      49.97253	      56.15234	      59.12781	      56.61011
       0.03932	      46.99707	      50.43030	      53.48206	      64.16321
       0.05243	      47.83630	      55.08423	      58.21228	      48.14148
       0.06554	      52.71912	      59.58557	      64.23950	      56.15234
       0.07864	      50.58289	      56.83899	      55.38940	      59.05151
       0.09175	      47.76001	      50.81177	      57.98340	      54.01611
       0.10486	      57.44934	      59.89075	      59.73816	      58.74634
       0.11796	      52.94800	      52.87170	      51.19324	      49.13330
       0.13107	      55.16052	      53.55835	      51.87988	      61.26404
       0.14418	      51.42212	      55.99976	      57.90710	      54.47388
       0.15729	      54.77905	      54.01611	      55.00793	      56.15234
       0.17039	      59.43298	      54.16870	      52.94800	      52.49023
       0.18350	      49.81995	      58.36487	      56.61011	      56.99158
       0.19661	      52.03247	      58.28857	      58.13599	      51.34583
       0.20972	      54.24500	      57.22046	      56.99158	      51.80359
       0.22282	      54.47388	      60.88257	      57.14417	      59.96704
       0.23593	      63.40027	      60.50110	      52.64282	      54.16870
       0.24904	      55.23682	      57.83081	      53.93982	      56.30493
       0.26214	      58.59375	      59.50928	      53.10059	      59.66187
       0.27525	      57.44934	      60.27222	      62.86621	      54.55017
       0.28836	      55.23682	      53.55835	      52.56653	      49.97253
       0.30147	      50.65918	      59.28040	      59.50928	      55.00793
       0.31457	      46.92078	      53.32947	      53.32947	      56.15234
       0.32768	      49.59106	      57.67822	      61.79810	      56.22864
       0.34079	      61.87439	      57.37305	      60.57739	      57.75452
       0.35389	      59.50928	      59.12781	      58.97522	      48.44666
       0.36700	      51.72729	      59.05151	      55.08423	      57.52563
       0.38011	      53.25317	      54.55017	      56.22864	      50.04883
       0.39322	      54.85535	      58.89893	      63.78174	      52.10876
       0.40632	      61.11145	      58.36487	      53.32947	      62.33215
       0.41943	      56.38123	      61.03516	      58.67004	      58.21228
       0.43254	      50.73547	      53.55835	      46.38672	      55.08423
       0.44564	      52.64282	      56.99158	      63.62915	      59.28040
       0.45875	      55.54199	      57.60193	      57.06787	      52.94800
       0.47186	      48.75183	      57.90710	      60.57739	      50.81177
       0.48497	      56.76270	      61.11145	      55.99976	      53.86353
       0.49807	      45.85266	      54.77905	      61.56921	      55.99976
       0.51118	      52.26135	      61.87439	      55.69458	      53.55835
       0.52429	      55.31311	      54.70276	      61.56921	      55.69458
       0.53740	      48.29407	      55.38940	      53.55835	      51.87988
       0.55050	      49.59106	      49.74365	      62.10327	      56.30493
       0.56361	      52.94800	      54.85535	      55.61829	      50.81177
       0.57672	      50.43030	      58.89893	      59.58557	      55.31311
       0.58982	      52.41394	      53.32947	      57.83081	      58.28857
       0.60293	      57.06787	      50.35400	      58.89893	      52.79541
       0.61604	      53.10059	      53.40576	      57.44934	      53.25317
       0.62915	      53.32947	      55.77087	      53.17688	      50.43030
       0.64225	      43.94531	      57.06787	      67.90161	      51.87988
       0.65536	      54.77905	      56.07605	      53.17688	      51.87988
       0.66847	      50.50659	      60.19592	      55.84717	      55.61829
       0.68157	      53.17688	      54.85535	      47.53113	      60.95886
       0.69468	      46.99707	      58.21228	      52.79541	      48.21777
       0.70779	      57.22046	      48.21777	      58.59375	      56.53381
       0.72090	      51.95618	      54.39758	      53.86353	      50.81177
       0.73400	      56.45752	      59.96704	      51.19324	      44.78455
       0.74711	      52.64282	      50.73547	      56.15234	      49.74365
