ALV-7004/USB-FAST
Date :	"11/11/2025"
Time :	"3:59:31 PM"
Samplename : 	""
SampMemo(0) : 	""
SampMemo(1) : 	""
SampMemo(2) : 	""
SampMemo(3) : 	""
SampMemo(4) : 	""
SampMemo(5) : 	""
SampMemo(6) : 	""
SampMemo(7) : 	""
SampMemo(8) : 	""
SampMemo(9) : 	""
Temperature [K] :	     298.16000
Viscosity [cp]  :	       0.89000
Refractive Index:	       1.33200
Wavelength [nm] :	       0.00000
Angle [°]       :	       0.00000
Duration [s]    :	         1
FloatDur [ms]   :	          944
Stop TP [ms]   :	     68351
Runs            :	         1
Mode            :	"A-CH0+1  A-CH2+3 "
MeanCR0 [kHz]   :	      57.13887
MeanCR1 [kHz]   :	      58.89257
MeanCR2 [kHz]   :	      58.49626
MeanCR3 [kHz]   :	      56.56878

"Correlation"
  3.12500E-006	 -1.00000E+000	 -1.00000E+000	 -1.00000E+000	 -1.00000E+000
  6.25000E-006	 -1.00000E+000	 -1.00000E+000	 -1.00000E+000	 -1.00000E+000
  9.37500E-006	 -1.00000E+000	 -1.00000E+000	 -1.00000E+000	 -1.00000E+000
  1.25000E-005	 -1.00000E+000	 -1.00000E+000	 -1.00000E+000	 -1.00000E+000
  1.56250E-005	 -1.00000E+000	 -1.00000E+000	 -1.00000E+000	 -1.00000E+000
  1.87500E-005	 -1.00000E+000	 -1.00000E+000	 -1.00000E+000	 -1.00000E+000
  2.18750E-005	 -1.00000E+000	  4.66486E-001	  5.85518E-001	 -6.82111E-001
  2.50000E-005	  1.16708E+001	  1.33716E+001	  1.21796E+001	  2.25238E+001
  2.81250E-005	  3.05050E+000	  2.32403E+000	  2.76561E+000	  7.58300E+000
  3.12500E-005	  7.65604E-001	  7.59783E-001	  1.37828E+000	  4.19218E+000
  3.43750E-005	  9.73322E-001	  4.66486E-001	  9.81898E-001	  3.66237E+000
  3.75000E-005	  4.54026E-001	  7.59783E-001	  2.17104E+000	  3.45044E+000
  4.06250E-005	  9.73322E-001	  1.05308E+000	  1.27918E+000	  2.49678E+000
  4.37500E-005	  7.65604E-001	  8.57548E-001	  1.18009E+000	  3.23852E+000
  4.68750E-005	  7.65604E-001	  3.68720E-001	  1.27918E+000	  2.17889E+000
  5.00000E-005	  9.21392E-001	  1.10196E+000	  1.18009E+000	  1.75504E+000
  5.62500E-005	  8.69463E-001	  7.10900E-001	  9.81898E-001	  2.01994E+000
  6.25000E-005	  1.07718E+000	  7.59783E-001	  8.33255E-001	  1.59609E+000
  6.87500E-005	  9.21392E-001	  1.19973E+000	  6.35066E-001	  2.12591E+000
  7.50000E-005	  8.17533E-001	  5.64251E-001	  6.35066E-001	  9.60314E-001
  8.12500E-005	  5.57885E-001	  2.65399E-002	  6.84613E-001	  9.60314E-001
  8.75000E-005	  9.73322E-001	  5.64251E-001	  4.36876E-001	  4.30499E-001
  9.37500E-005	  4.02097E-001	  7.10900E-001	  4.36876E-001	  9.60314E-001
  1.00000E-004	  5.83850E-001	  4.90927E-001	  4.36876E-001	  1.11926E+000
  1.12500E-004	  7.91568E-001	  6.86458E-001	  1.18009E+000	  8.54351E-001
  1.25000E-004	  5.05956E-001	  5.39810E-001	  4.36876E-001	  1.09277E+000
  1.37500E-004	  4.79991E-001	  4.90927E-001	  5.35971E-001	  8.27860E-001
  1.50000E-004	  4.54026E-001	  5.64251E-001	  6.10292E-001	  5.89443E-001
  1.62500E-004	  2.46308E-001	  3.93161E-001	  8.58029E-001	  4.56990E-001
  1.75000E-004	  6.35780E-001	  5.88692E-001	  3.62555E-001	  2.45064E-001
  1.87500E-004	  8.17533E-001	  6.86458E-001	  5.35971E-001	  5.09971E-001
  2.00000E-004	  4.67008E-001	  6.37575E-001	  7.34160E-001	  5.23216E-001
  2.25000E-004	  4.28061E-001	  4.90927E-001	  6.10291E-001	  7.21897E-001
  2.50000E-004	  5.83850E-001	  5.76471E-001	  4.98810E-001	  4.96726E-001
  2.75000E-004	  5.31920E-001	  4.54264E-001	  3.87328E-001	  6.68915E-001
  3.00000E-004	  7.39638E-001	  6.49796E-001	  4.61649E-001	  7.88123E-001
  3.25000E-004	  5.70867E-001	  5.39809E-001	  4.98810E-001	  4.30499E-001
  3.50000E-004	  3.50167E-001	  6.00913E-001	  4.49262E-001	  6.68915E-001
  3.75000E-004	  2.98237E-001	  4.29823E-001	  5.11197E-001	  6.95406E-001
  4.00000E-004	  3.37184E-001	  6.37574E-001	  5.35970E-001	  7.15273E-001
  4.50000E-004	  5.12446E-001	  5.45919E-001	  5.79324E-001	  4.83480E-001
  5.00000E-004	  4.28061E-001	  5.82581E-001	  5.29776E-001	  5.16593E-001
  5.50000E-004	  4.86481E-001	  5.21478E-001	  4.43068E-001	  5.89442E-001
  6.00000E-004	  4.54025E-001	  6.25354E-001	  4.92616E-001	  5.49706E-001
  6.50000E-004	  4.73499E-001	  4.97036E-001	  4.74035E-001	  4.90102E-001
  7.00000E-004	  3.30693E-001	  4.90926E-001	  5.11196E-001	  4.43744E-001
  7.50000E-004	  6.22796E-001	  5.82581E-001	  6.66032E-001	  4.76857E-001
  8.00000E-004	  5.87093E-001	  6.49794E-001	  5.94806E-001	  4.60299E-001
  9.00000E-004	  5.54637E-001	  5.30642E-001	  5.26678E-001	  5.86130E-001
  1.00000E-003	  5.12445E-001	  4.57318E-001	  4.67841E-001	  4.66922E-001
  1.10000E-003	  5.02708E-001	  4.81759E-001	  5.23582E-001	  6.58979E-001
  1.20000E-003	  4.37796E-001	  4.81759E-001	  5.42162E-001	  6.09309E-001
  1.30000E-003	  4.79989E-001	  4.63428E-001	  5.01905E-001	  5.89441E-001
  1.40000E-003	  3.92358E-001	  6.03966E-001	  4.33777E-001	  6.25866E-001
  1.50000E-003	  3.20955E-001	  4.05380E-001	  4.95711E-001	  4.40431E-001
  1.60000E-003	  3.45295E-001	  4.35929E-001	  4.27581E-001	  4.70230E-001
  1.80000E-003	  5.17311E-001	  4.38984E-001	  3.64099E-001	  4.66919E-001
  2.00000E-003	  4.21566E-001	  5.13836E-001	  3.74937E-001	  4.96749E-001
  2.20000E-003	  3.87487E-001	  4.42039E-001	  4.44613E-001	  5.08339E-001
  2.40000E-003	  4.34548E-001	  3.50384E-001	  4.46161E-001	  4.53701E-001
  2.60000E-003	  4.19943E-001	  4.66481E-001	  3.84227E-001	  4.10653E-001
  2.80000E-003	  4.24811E-001	  4.86339E-001	  3.93517E-001	  5.36486E-001
  3.00000E-003	  4.62136E-001	  4.35929E-001	  4.04356E-001	  4.98405E-001
  3.20000E-003	  4.58101E-001	  4.93208E-001	  4.30673E-001	  3.84985E-001
  3.60000E-003	  4.19153E-001	  4.73350E-001	  4.12867E-001	  4.74392E-001
  4.00000E-003	  3.63166E-001	  4.27522E-001	  4.19060E-001	  4.06509E-001
  4.40000E-003	  4.48364E-001	  4.13010E-001	  4.12093E-001	  3.71739E-001
  4.80000E-003	  4.03736E-001	  4.18357E-001	  4.16738E-001	  4.01542E-001
  5.20000E-003	  3.94811E-001	  4.16829E-001	  3.89642E-001	  3.74223E-001
  5.60000E-003	  4.08605E-001	  4.19885E-001	  3.91964E-001	  3.23724E-001
  6.00000E-003	  4.27267E-001	  3.48088E-001	  3.96609E-001	  3.71739E-001
  6.40000E-003	  4.10270E-001	  3.59154E-001	  3.99696E-001	  3.77965E-001
  7.20000E-003	  4.04159E-001	  3.80158E-001	  3.96987E-001	  4.11907E-001
  8.00000E-003	  3.94422E-001	  4.44316E-001	  3.84213E-001	  4.51644E-001
  8.80000E-003	  3.62776E-001	  3.80922E-001	  4.14793E-001	  3.83346E-001
  9.60000E-003	  3.57502E-001	  3.94288E-001	  4.08599E-001	  4.64476E-001
  1.04000E-002	  3.73730E-001	  3.39296E-001	  4.00084E-001	  3.52715E-001
  1.12000E-002	  3.60748E-001	  3.33949E-001	  3.65246E-001	  4.12321E-001
  1.20000E-002	  3.64830E-001	  3.55335E-001	  3.47827E-001	  3.57682E-001
  1.28000E-002	  3.82537E-001	  3.69065E-001	  3.75610E-001	  3.43202E-001
  1.44000E-002	  3.44804E-001	  3.40638E-001	  3.65545E-001	  3.74635E-001
  1.60000E-002	  3.52310E-001	  3.51140E-001	  3.30704E-001	  3.79188E-001
  1.76000E-002	  3.35650E-001	  3.58969E-001	  3.40382E-001	  3.68219E-001
  1.92000E-002	  3.48836E-001	  3.50568E-001	  3.45415E-001	  3.75670E-001
  2.08000E-002	  3.42547E-001	  3.48658E-001	  3.49673E-001	  3.63873E-001
  2.24000E-002	  3.46402E-001	  2.95193E-001	  3.16962E-001	  3.38417E-001
  2.40000E-002	  3.37476E-001	  3.27272E-001	  2.97219E-001	  3.25378E-001
  2.56000E-002	  3.15628E-001	  2.99929E-001	  3.09036E-001	  3.30644E-001
  2.88000E-002	  3.16339E-001	  2.85226E-001	  2.82904E-001	  3.18976E-001
  3.20000E-002	  2.85884E-001	  2.77874E-001	  2.84696E-001	  2.94554E-001
  3.52000E-002	  2.78479E-001	  2.59351E-001	  2.49690E-001	  2.99004E-001
  3.84000E-002	  2.71886E-001	  2.70236E-001	  2.69865E-001	  2.87414E-001
  4.16000E-002	  2.51802E-001	  2.47035E-001	  2.35702E-001	  2.54897E-001
  4.48000E-002	  2.52184E-001	  2.44839E-001	  2.49735E-001	  2.62658E-001
  4.80000E-002	  2.33701E-001	  2.19537E-001	  2.41315E-001	  2.53035E-001
  5.12000E-002	  2.14194E-001	  2.19485E-001	  2.19021E-001	  2.21343E-001
  5.76000E-002	  1.98145E-001	  2.05068E-001	  1.84128E-001	  2.07011E-001
  6.40000E-002	  1.92414E-001	  1.87547E-001	  1.97146E-001	  1.96404E-001
  7.04000E-002	  1.71163E-001	  1.69575E-001	  1.68980E-001	  1.84349E-001
  7.68000E-002	  1.55766E-001	  1.63873E-001	  1.44617E-001	  1.61479E-001
  8.32000E-002	  1.42761E-001	  1.35012E-001	  1.54054E-001	  1.35247E-001
  8.96000E-002	  1.32415E-001	  1.28042E-001	  1.37704E-001	  1.31159E-001
  9.60000E-002	  1.33206E-001	  1.14913E-001	  1.09269E-001	  1.19341E-001
  1.02400E-001	  1.16855E-001	  1.09578E-001	  1.10257E-001	  1.15652E-001
  1.15200E-001	  1.05189E-001	  8.98604E-002	  1.05252E-001	  9.33245E-002
  1.28000E-001	  9.71446E-002	  7.09545E-002	  8.62992E-002	  7.13592E-002
  1.40800E-001	  8.25768E-002	  6.26951E-002	  6.35031E-002	  6.17607E-002
  1.53600E-001	  7.10624E-002	  5.78254E-002	  5.72253E-002	  5.11273E-002
  1.66400E-001	  5.40445E-002	  4.45530E-002	  3.56384E-002	  4.47628E-002
  1.79200E-001	  5.85590E-002	  3.93885E-002	  3.68430E-002	  4.52544E-002
  1.92000E-001	  3.27467E-002	  4.66211E-002	  4.73135E-002	  4.35146E-002
  2.04800E-001	  3.44543E-002	  3.54136E-002	  3.26248E-002	  3.48941E-002
  2.30400E-001	  2.25752E-002	  2.59011E-002	  2.57508E-002	  3.19832E-002
  2.56000E-001	  1.68100E-002	  2.23134E-002	  1.73881E-002	  2.16851E-002
  2.81600E-001	  1.33274E-002	  6.51494E-003	  1.22751E-002	  1.66435E-002
  3.07200E-001	  8.13910E-003	  5.59038E-003	  7.42795E-003	  1.43707E-002
  3.32800E-001	  3.45822E-003	  4.45628E-003	  7.82116E-003	  8.83729E-003
  3.58400E-001	  3.92164E-003	 -3.50025E-003	  2.84722E-003	  5.75032E-003
  3.84000E-001	  3.85227E-003	 -5.11793E-003	  8.80654E-004	  2.95380E-003
  4.09600E-001	  6.73843E-003	 -1.04181E-003	  5.52390E-003	  6.23758E-003
  4.60800E-001	 -2.76809E-003	 -2.65444E-003	  6.68006E-003	  8.84340E-003
  5.12000E-001	 -2.05955E-003	 -6.66649E-003	  8.34422E-003	  7.70419E-004
  5.63200E-001	  1.08813E-003	 -3.80645E-003	  6.64944E-003	 -2.82288E-003
  6.14400E-001	 -1.29606E-002	 -2.45602E-003	  1.13535E-003	 -2.90776E-003
  6.65600E-001	 -5.89029E-003	 -6.39260E-003	  9.29549E-004	 -7.69886E-003
  7.16800E-001	 -3.78553E-004	 -7.04411E-003	  8.07789E-003	 -7.85178E-003
  7.68000E-001	  9.54469E-005	  6.87954E-004	  2.41249E-003	  6.42921E-004
  8.19200E-001	 -6.38641E-003	  5.23144E-003	  3.81640E-006	 -1.00442E-003
  9.21600E-001	 -1.04153E-002	 -4.07215E-003	 -4.18462E-003	  1.61870E-003
  1.02400E+000	 -2.11448E-003	  5.60215E-003	 -1.25102E-002	  1.77360E-003
  1.12640E+000	  7.22210E-004	 -1.22597E-004	 -2.02255E-003	 -1.36377E-003
  1.22880E+000	 -3.34134E-003	 -4.06622E-003	 -2.85201E-003	 -1.01986E-002
  1.33120E+000	 -4.34988E-003	  1.74966E-003	 -6.05306E-003	 -7.87248E-003
  1.43360E+000	  1.18210E-003	 -2.39869E-003	  3.07781E-003	 -7.27064E-003
  1.53600E+000	  8.41275E-004	  3.33294E-004	 -1.39863E-003	  1.29738E-003
  1.63840E+000	  8.39582E-003	 -4.04266E-003	  2.47726E-003	 -1.24124E-004
  1.84320E+000	  6.19454E-003	 -1.76081E-003	 -3.60656E-003	 -2.42978E-003
  2.04800E+000	  1.88834E-003	 -5.94508E-004	  6.27503E-003	 -5.75160E-003
  2.25280E+000	 -1.13314E-003	  1.37927E-003	  5.47143E-003	 -2.35652E-003
  2.45760E+000	 -2.27795E-004	  2.24633E-003	 -2.17959E-003	  5.35688E-003
  2.66240E+000	 -2.88462E-003	  1.98154E-003	 -3.60029E-003	  2.19198E-003
  2.86720E+000	  1.30052E-003	  8.57246E-003	 -9.43259E-003	  7.79531E-003
  3.07200E+000	 -3.18805E-003	  6.39968E-003	 -2.87145E-003	  2.03539E-003
  3.27680E+000	 -3.09182E-003	 -5.34573E-004	 -4.59012E-003	  1.74068E-003
  3.68640E+000	 -8.07889E-004	  3.12907E-003	  1.56161E-003	  1.78596E-003
  4.09600E+000	 -1.53417E-003	 -3.77161E-003	  4.88028E-003	  5.04971E-003
  4.50560E+000	 -1.34542E-003	  3.82514E-003	 -5.58339E-003	 -6.77648E-004
  4.91520E+000	 -8.72956E-005	 -1.69693E-003	 -3.62232E-003	  4.34287E-003
  5.32480E+000	  1.83771E-004	  3.29932E-003	  7.96302E-004	 -5.85075E-003
  5.73440E+000	  1.57578E-003	  5.54358E-003	  5.99191E-003	 -4.57114E-003
  6.14400E+000	  2.42564E-003	 -2.62832E-003	  9.95819E-004	 -7.89164E-004
  6.55360E+000	  4.61830E-003	  4.82856E-005	  3.40845E-004	  1.46883E-003
  7.37280E+000	 -2.37770E-003	  1.53189E-003	 -4.31213E-003	 -1.25054E-003
  8.19200E+000	 -5.43635E-003	 -2.82730E-003	 -2.86259E-003	 -5.60594E-003
  9.01120E+000	 -2.23144E-003	 -2.56472E-003	  5.36624E-003	 -3.44333E-003
  9.83040E+000	 -5.32645E-003	  2.83860E-003	  1.73522E-003	 -6.18392E-003
  1.06496E+001	 -3.46265E-003	 -5.34315E-004	 -1.49871E-003	  6.15462E-003
  1.14688E+001	 -1.35625E-004	 -1.71098E-003	 -4.58143E-003	  2.97981E-003
  1.22880E+001	 -3.25669E-003	 -2.04403E-003	 -2.17811E-003	 -3.87527E-003
  1.31072E+001	 -1.45370E-003	  2.31265E-003	 -1.05267E-003	 -3.07290E-003
  1.47456E+001	  1.35310E-003	 -4.32192E-003	  6.39421E-004	 -3.76332E-003
  1.63840E+001	  3.28461E-003	 -7.00654E-003	 -1.91947E-003	  2.33241E-004
  1.80224E+001	  2.01692E-003	  4.17264E-005	  3.44843E-003	 -5.21955E-004
  1.96608E+001	  3.96416E-004	 -7.63281E-004	  1.60564E-003	 -1.49275E-003
  2.12992E+001	 -2.19162E-004	 -1.66956E-003	 -3.08951E-003	 -9.80684E-004
  2.29376E+001	 -2.30201E-003	  9.67196E-004	  1.76390E-003	 -1.79534E-003
  2.45760E+001	 -1.82588E-003	 -2.16210E-003	  1.17150E-003	  4.96100E-005
  2.62144E+001	 -3.18159E-004	 -4.58308E-004	  2.80263E-003	 -5.16792E-004
  2.94912E+001	 -3.83731E-004	 -1.36070E-003	 -7.99361E-004	 -2.64722E-004
  3.27680E+001	  3.25654E-003	  1.62812E-003	  1.13249E-003	 -7.08150E-004
  3.60448E+001	  9.79194E-004	 -3.22276E-004	 -1.16453E-003	  1.78816E-003
  3.93216E+001	 -5.67318E-006	 -1.26614E-004	 -1.74863E-003	  1.01883E-003
  4.25984E+001	  5.61007E-004	 -1.22929E-004	 -5.70720E-004	  1.94817E-003
  4.58752E+001	 -2.00004E-003	  1.98900E-004	 -3.05682E-003	 -2.51788E-005
  4.91520E+001	  2.32955E-003	  1.27116E-003	  1.70222E-003	 -4.92113E-004
  5.24288E+001	  2.58039E-003	  6.38369E-004	 -2.06533E-003	 -1.51651E-003
  5.89824E+001	  1.11626E-003	 -8.44880E-005	  1.81293E-003	 -2.23504E-003
  6.55360E+001	 -1.37867E-003	 -1.94621E-004	  2.68986E-004	  8.66844E-004
  7.20896E+001	  6.81573E-004	 -2.09702E-004	  1.02414E-003	  1.08628E-003
  7.86432E+001	  1.34213E-003	 -3.67544E-004	  6.89840E-004	 -1.02322E-003
  8.51968E+001	  6.25227E-004	 -5.80148E-004	  6.67114E-004	  1.57722E-003
  9.17504E+001	 -6.88306E-004	 -7.66063E-005	 -1.29195E-004	 -2.04018E-003
  9.83040E+001	  4.18239E-004	 -5.88153E-004	  8.45378E-004	  9.03593E-004
  1.04858E+002	  1.57267E-003	 -7.87458E-004	 -3.34852E-004	  9.29685E-004
  1.17965E+002	 -4.19426E-004	  1.13898E-003	 -6.32400E-004	  7.57317E-004
  1.31072E+002	  1.61534E-003	 -1.40445E-004	 -1.01902E-004	 -9.76540E-004
  1.44179E+002	 -6.52156E-004	 -6.44857E-004	 -6.64634E-004	 -5.82971E-004
  1.57286E+002	 -3.72275E-004	 -3.85379E-004	  5.39057E-004	 -7.00800E-004
  1.70394E+002	  1.18716E-003	 -6.57485E-004	  3.95599E-004	 -7.54354E-004
  1.83501E+002	  2.82889E-006	  1.47733E-004	 -2.69897E-004	  4.70728E-004
  1.96608E+002	 -3.42337E-004	  2.34065E-003	 -3.23310E-004	 -1.27974E-004
  2.09715E+002	  6.30830E-005	  9.83501E-005	 -9.82963E-005	  5.07212E-004
  2.35930E+002	  7.53838E-004	  1.33809E-003	  4.14437E-004	  1.66147E-004
  2.62144E+002	  1.87222E-004	 -9.86538E-004	 -5.41030E-004	  2.36037E-004
  2.88358E+002	 -5.13218E-004	 -1.28899E-003	 -1.52851E-003	  1.44320E-004
  3.14573E+002	  4.05325E-004	  1.36611E-003	  2.53899E-004	  3.10831E-004
  3.40787E+002	  6.56806E-004	 -1.43944E-003	 -2.45569E-004	  2.54571E-004
  3.67002E+002	  3.55654E-004	  8.62190E-004	 -9.07908E-004	  2.86427E-004
  3.93216E+002	  2.58487E-004	  1.15351E-004	  1.24896E-003	  3.25648E-004

"Count Rate"
       0.01311	      51.65100	      58.89893	      55.31311	      58.05969
       0.02621	      54.93164	      61.95068	      65.68909	      55.84717
       0.03932	      53.63464	      60.72998	      68.35938	      53.32947
       0.05243	      56.53381	      63.32397	      53.71094	      63.01880
       0.06554	      53.55835	      57.06787	      57.14417	      52.49023
       0.07864	      52.79541	      56.68640	      56.30493	      46.38672
       0.09175	      55.38940	      66.68091	      56.15234	      60.50110
       0.10486	      65.53650	      60.88257	      55.69458	      52.64282
       0.11796	      65.68909	      57.37305	      64.01062	      60.50110
       0.13107	      58.97522	      53.25317	      62.02698	      53.32947
       0.14418	      54.55017	      71.48743	      54.70276	      50.81177
       0.15729	      55.38940	      56.91528	      60.95886	      55.23682
       0.17039	      64.54468	      49.74365	      57.37305	      52.41394
       0.18350	      58.67004	      63.85803	      63.93433	      55.77087
       0.19661	      52.18506	      51.49841	      64.31580	      53.71094
       0.20972	      57.67822	      55.69458	      62.78992	      49.13330
       0.22282	      61.64551	      57.75452	      50.88806	      63.47656
       0.23593	      57.44934	      64.62097	      58.67004	      53.55835
       0.24904	      54.01611	      52.03247	      57.37305	      53.02429
       0.26214	      53.02429	      59.12781	      63.40027	      55.46570
       0.27525	      59.66187	      55.61829	      60.27222	      55.99976
       0.28836	      61.18774	      56.22864	      61.34033	      60.19592
       0.30147	      59.12781	      59.50928	      53.48206	      61.95068
       0.31457	      55.46570	      60.27222	      55.77087	      48.90442
       0.32768	      53.63464	      57.52563	      56.22864	      54.85535
       0.34079	      57.60193	      67.59644	      58.36487	      58.97522
       0.35389	      59.96704	      58.59375	      58.89893	      54.70276
       0.36700	      50.58289	      57.14417	      60.50110	      59.58557
       0.38011	      64.46838	      57.52563	      58.97522	      59.96704
       0.39322	      53.10059	      51.72729	      58.36487	      51.42212
       0.40632	      55.92346	      60.57739	      57.06787	      55.31311
       0.41943	      53.93982	      56.30493	      61.34033	      56.53381
       0.43254	      57.29675	      51.65100	      50.12512	      51.87988
       0.44564	      55.69458	      56.53381	      60.42480	      59.66187
       0.45875	      56.07605	      65.53650	      49.43848	      54.85535
       0.47186	      54.01611	      58.44116	      57.98340	      49.89624
       0.48497	      58.67004	      56.91528	      51.49841	      51.11694
       0.49807	      51.19324	      50.50659	      57.52563	      58.82263
       0.51118	      64.46838	      52.41394	      57.14417	      54.32129
       0.52429	      55.69458	      61.95068	      58.13599	      56.15234
       0.53740	      58.44116	      71.18225	      52.49023	      52.87170
       0.55050	      58.44116	      60.27222	      52.64282	      51.42212
       0.56361	      56.30493	      56.38123	      56.99158	      55.46570
       0.57672	      52.49023	      58.59375	      56.22864	      54.55017
       0.58982	      55.23682	      54.09241	      68.43567	      57.75452
       0.60293	      56.45752	      58.36487	      61.34033	      65.07874
       0.61604	      57.14417	      52.56653	      57.37305	      60.80627
       0.62915	      55.54199	      52.87170	      56.99158	      61.26404
       0.64225	      63.70544	      60.50110	      55.08423	      59.73816
       0.65536	      53.02429	      58.13599	      58.13599	      48.67554
       0.66847	      47.37854	      56.76270	      56.07605	      50.73547
       0.68157	      58.28857	      60.04333	      60.65369	      56.99158
       0.69468	      53.71094	      59.43298	      56.45752	      56.76270
       0.70779	      52.03247	      58.05969	      51.11694	      59.05151
       0.72090	      50.58289	      54.77905	      60.19592	      55.84717
       0.73400	      54.93164	      63.09509	      53.55835	      58.67004
       0.74711	      53.32947	      57.37305	      54.85535	      54.24500
