ALV-7004/USB-FAST
Date :	"11/11/2025"
Time :	"3:54:05 PM"
Samplename : 	""
SampMemo(0) : 	""
SampMemo(1) : 	""
SampMemo(2) : 	""
SampMemo(3) : 	""
SampMemo(4) : 	""
SampMemo(5) : 	""
SampMemo(6) : 	""
SampMemo(7) : 	""
SampMemo(8) : 	""
SampMemo(9) : 	""
Temperature [K] :	     298.16000
Viscosity [cp]  :	       0.89000
Refractive Index:	       1.33200
Wavelength [nm] :	       0.00000
Angle [°]       :	       0.00000
Duration [s]    :	         1
FloatDur [ms]   :	          944
Stop TP [ms]   :	     59345
Runs            :	         1
Mode            :	"A-CH0+1  A-CH2+3 "
MeanCR0 [kHz]   :	      54.28844
MeanCR1 [kHz]   :	      55.26331
MeanCR2 [kHz]   :	      53.27543
MeanCR3 [kHz]   :	      52.50931

"Correlation"
  3.12500E-006	 -1.00000E+000	 -1.00000E+000	 -1.00000E+000	 -1.00000E+000
  6.25000E-006	 -1.00000E+000	 -1.00000E+000	 -1.00000E+000	 -1.00000E+000
  9.37500E-006	 -1.00000E+000	 -1.00000E+000	 -1.00000E+000	 -1.00000E+000
  1.25000E-005	 -1.00000E+000	 -1.00000E+000	 -1.00000E+000	 -1.00000E+000
  1.56250E-005	 -1.00000E+000	 -1.00000E+000	 -1.00000E+000	 -1.00000E+000
  1.87500E-005	 -1.00000E+000	 -1.00000E+000	 -1.00000E+000	 -1.00000E+000
  2.18750E-005	 -8.84948E-001	  2.21312E-001	  1.62831E+000	 -3.85099E-001
  2.50000E-005	  1.38417E+001	  1.25455E+001	  1.14247E+001	  2.40879E+001
  2.81250E-005	  2.33650E+000	  2.55291E+000	  1.74778E+000	  8.59245E+000
  3.12500E-005	  9.55878E-001	  1.77571E+000	  1.98671E+000	  5.27199E+000
  3.43750E-005	  2.10639E+000	  1.88674E+000	  1.03097E+000	  5.27199E+000
  3.75000E-005	  1.41608E+000	  9.98510E-001	  9.11497E-001	  4.41113E+000
  4.06250E-005	  8.40826E-001	  8.87482E-001	  1.38937E+000	  3.55026E+000
  4.37500E-005	 -1.94639E-001	  1.10954E+000	  7.92029E-001	  2.93536E+000
  4.68750E-005	  8.40826E-001	  7.76453E-001	  7.92029E-001	  2.07450E+000
  5.00000E-005	  1.01340E+000	  2.21312E-001	  9.11497E-001	  1.95152E+000
  5.62500E-005	  7.83300E-001	  1.60917E+000	  9.71231E-001	  2.19748E+000
  6.25000E-005	  7.25774E-001	  9.42996E-001	  4.93357E-001	  1.09066E+000
  6.87500E-005	  9.55878E-001	  7.76453E-001	 -1.03986E-001	  1.09066E+000
  7.50000E-005	  6.10723E-001	  3.32340E-001	  6.72560E-001	  1.39811E+000
  8.12500E-005	  3.23094E-001	  8.87481E-001	  2.54420E-001	  8.44702E-001
  8.75000E-005	  6.10723E-001	  1.16505E+000	  7.92028E-001	  8.44702E-001
  9.37500E-005	  7.83300E-001	  4.43368E-001	  2.54420E-001	  9.06192E-001
  1.00000E-004	  6.97011E-001	  4.98882E-001	  5.23224E-001	  1.09066E+000
  1.12500E-004	  6.97011E-001	  5.26639E-001	  4.63490E-001	  9.98427E-001
  1.25000E-004	  2.65568E-001	  9.98510E-001	  5.53091E-001	  1.09066E+000
  1.37500E-004	  5.53197E-001	  4.71125E-001	  1.47897E+000	  6.90977E-001
  1.50000E-004	  5.24434E-001	  5.26639E-001	  4.63490E-001	  8.75447E-001
  1.62500E-004	  3.51857E-001	  3.04583E-001	  3.14154E-001	  8.75447E-001
  1.75000E-004	  5.24434E-001	  6.93182E-001	  3.73888E-001	  5.67996E-001
  1.87500E-004	  3.51857E-001	  6.09910E-001	  5.82958E-001	  7.52467E-001
  2.00000E-004	  4.66908E-001	  5.96032E-001	  5.08290E-001	  8.13956E-001
  2.25000E-004	  5.53197E-001	  4.29489E-001	  4.03755E-001	  5.06506E-001
  2.50000E-004	  5.67578E-001	  4.01732E-001	  4.93357E-001	  4.45016E-001
  2.75000E-004	  6.82630E-001	  6.65424E-001	  5.97892E-001	  9.21564E-001
  3.00000E-004	  5.38815E-001	  6.23789E-001	  5.53091E-001	  7.83211E-001
  3.25000E-004	  4.09382E-001	  4.43368E-001	  7.92028E-001	  4.29643E-001
  3.50000E-004	  6.97011E-001	  6.09910E-001	  4.03755E-001	  2.29801E-001
  3.75000E-004	  7.11392E-001	  4.57246E-001	  6.12825E-001	  8.90819E-001
  4.00000E-004	  5.96340E-001	  5.61335E-001	  5.08290E-001	  5.29564E-001
  4.50000E-004	  6.61057E-001	  4.43367E-001	  2.76819E-001	  4.45015E-001
  5.00000E-004	  4.45335E-001	  3.67035E-001	  5.08290E-001	  4.37329E-001
  5.50000E-004	  3.37474E-001	  5.40517E-001	  3.14153E-001	  3.37408E-001
  6.00000E-004	  5.81959E-001	  4.29489E-001	  4.63489E-001	  4.52702E-001
  6.50000E-004	  4.74098E-001	  5.82152E-001	  5.45623E-001	  3.60467E-001
  7.00000E-004	  5.96340E-001	  5.40517E-001	  2.76819E-001	  5.14192E-001
  7.50000E-004	  5.31624E-001	  4.36428E-001	  4.63489E-001	  6.06427E-001
  8.00000E-004	  5.06455E-001	  4.57244E-001	  4.74688E-001	  6.44857E-001
  9.00000E-004	  6.35888E-001	  4.95410E-001	  4.33620E-001	  3.98897E-001
  1.00000E-003	  5.99934E-001	  5.33576E-001	  4.07487E-001	  4.41171E-001
  1.10000E-003	  5.49599E-001	  4.29487E-001	  5.26955E-001	  5.60308E-001
  1.20000E-003	  5.63981E-001	  6.27256E-001	  5.75489E-001	  5.14190E-001
  1.30000E-003	  5.28027E-001	  5.05819E-001	  5.53089E-001	  5.21877E-001
  1.40000E-003	  3.84213E-001	  5.09289E-001	  6.27757E-001	  4.75759E-001
  1.50000E-003	  4.70501E-001	  4.88471E-001	  5.30689E-001	  5.29563E-001
  1.60000E-003	  4.54348E-001	  4.55507E-001	  4.97086E-001	  4.04659E-001
  1.80000E-003	  4.54348E-001	  5.05817E-001	  5.17619E-001	  5.85285E-001
  2.00000E-003	  5.24459E-001	  4.36424E-001	  5.99753E-001	  5.43011E-001
  2.20000E-003	  5.40638E-001	  4.97143E-001	  4.97086E-001	  4.81521E-001
  2.40000E-003	  4.93898E-001	  4.19076E-001	  5.12019E-001	  4.35404E-001
  2.60000E-003	  4.66932E-001	  4.76325E-001	  4.41085E-001	  4.94972E-001
  2.80000E-003	  4.36371E-001	  3.93054E-001	  5.00819E-001	  4.14267E-001
  3.00000E-003	  4.88505E-001	  4.81529E-001	  5.36286E-001	  4.60384E-001
  3.20000E-003	  4.40889E-001	  5.10149E-001	  5.40014E-001	  4.95928E-001
  3.60000E-003	  5.03809E-001	  4.66778E-001	  4.92414E-001	  4.66144E-001
  4.00000E-003	  4.82208E-001	  5.11883E-001	  4.02813E-001	  4.75752E-001
  4.40000E-003	  4.58837E-001	  4.45093E-001	  4.15880E-001	  5.03614E-001
  4.80000E-003	  5.14566E-001	  4.71115E-001	  4.26146E-001	  5.21869E-001
  5.20000E-003	  4.53444E-001	  5.03209E-001	  4.14013E-001	  4.62301E-001
  5.60000E-003	  5.41532E-001	  4.80657E-001	  4.34547E-001	  4.01772E-001
  6.00000E-003	  5.43330E-001	  4.05193E-001	  4.99880E-001	  4.53654E-001
  6.40000E-003	  4.70541E-001	  4.53757E-001	  4.84937E-001	  4.67124E-001
  7.20000E-003	  4.90766E-001	  4.67636E-001	  4.47604E-001	  4.64242E-001
  8.00000E-003	  4.68744E-001	  5.09705E-001	  4.64870E-001	  4.52232E-001
  8.80000E-003	  4.83575E-001	  5.18379E-001	  4.68604E-001	  4.57036E-001
  9.60000E-003	  4.92114E-001	  5.10572E-001	  4.83537E-001	  4.50791E-001
  1.04000E-002	  4.82198E-001	  4.59857E-001	  4.12603E-001	  4.82497E-001
  1.12000E-002	  4.62872E-001	  5.17974E-001	  4.83070E-001	  4.52232E-001
  1.20000E-002	  4.58828E-001	  4.94554E-001	  4.50404E-001	  4.59918E-001
  1.28000E-002	  4.54342E-001	  4.88462E-001	  4.61379E-001	  4.45815E-001
  1.44000E-002	  4.82206E-001	  4.56396E-001	  4.44346E-001	  4.58786E-001
  1.60000E-002	  4.20635E-001	  5.04321E-001	  4.24512E-001	  4.79924E-001
  1.76000E-002	  4.71195E-001	  4.72226E-001	  4.52746E-001	  4.32574E-001
  1.92000E-002	  4.85577E-001	  4.45119E-001	  4.37346E-001	  4.47467E-001
  2.08000E-002	  4.40410E-001	  4.45147E-001	  4.39213E-001	  4.19843E-001
  2.24000E-002	  4.57039E-001	  4.49701E-001	  4.30813E-001	  4.20804E-001
  2.40000E-002	  4.58358E-001	  4.49267E-001	  4.23112E-001	  4.52271E-001
  2.56000E-002	  4.62870E-001	  4.50421E-001	  4.34943E-001	  4.56673E-001
  2.88000E-002	  4.15793E-001	  4.20603E-001	  3.92007E-001	  4.05146E-001
  3.20000E-002	  4.23770E-001	  4.31121E-001	  4.00524E-001	  3.87823E-001
  3.52000E-002	  4.34107E-001	  4.25483E-001	  4.01925E-001	  3.94881E-001
  3.84000E-002	  4.13433E-001	  4.26025E-001	  3.94224E-001	  4.05810E-001
  4.16000E-002	  4.07169E-001	  4.04420E-001	  3.99619E-001	  4.31873E-001
  4.48000E-002	  3.85960E-001	  4.06589E-001	  3.93435E-001	  3.69151E-001
  4.80000E-002	  3.91916E-001	  3.86420E-001	  3.85385E-001	  3.71193E-001
  5.12000E-002	  3.97371E-001	  3.88432E-001	  3.74390E-001	  3.74500E-001
  5.76000E-002	  3.77960E-001	  3.76234E-001	  3.60568E-001	  3.62669E-001
  6.40000E-002	  3.54393E-001	  3.73306E-001	  3.47850E-001	  3.65104E-001
  7.04000E-002	  3.51191E-001	  3.59210E-001	  3.31924E-001	  3.28592E-001
  7.68000E-002	  3.45011E-001	  3.32645E-001	  3.31425E-001	  3.42104E-001
  8.32000E-002	  3.25179E-001	  3.40127E-001	  3.25506E-001	  3.30907E-001
  8.96000E-002	  3.42764E-001	  3.30094E-001	  3.18474E-001	  2.96952E-001
  9.60000E-002	  3.05516E-001	  3.04395E-001	  2.93854E-001	  3.08035E-001
  1.02400E-001	  2.99575E-001	  3.17150E-001	  2.80304E-001	  3.00763E-001
  1.15200E-001	  2.95730E-001	  2.84373E-001	  2.61082E-001	  2.82926E-001
  1.28000E-001	  2.84269E-001	  2.75317E-001	  2.62741E-001	  2.62572E-001
  1.40800E-001	  2.56152E-001	  2.67127E-001	  2.44686E-001	  2.52662E-001
  1.53600E-001	  2.43231E-001	  2.67344E-001	  2.27998E-001	  2.31073E-001
  1.66400E-001	  2.34696E-001	  2.37412E-001	  2.08549E-001	  2.18496E-001
  1.79200E-001	  2.28179E-001	  2.30031E-001	  1.95702E-001	  2.12906E-001
  1.92000E-001	  2.26887E-001	  2.15798E-001	  1.92220E-001	  2.08083E-001
  2.04800E-001	  2.12949E-001	  2.08719E-001	  1.85129E-001	  2.00593E-001
  2.30400E-001	  1.85601E-001	  2.06470E-001	  1.59783E-001	  1.79648E-001
  2.56000E-001	  1.73353E-001	  1.84093E-001	  1.53100E-001	  1.66608E-001
  2.81600E-001	  1.53812E-001	  1.69659E-001	  1.37814E-001	  1.41532E-001
  3.07200E-001	  1.45272E-001	  1.57837E-001	  1.27796E-001	  1.45604E-001
  3.32800E-001	  1.33502E-001	  1.45369E-001	  1.21580E-001	  1.22592E-001
  3.58400E-001	  1.30032E-001	  1.28881E-001	  1.09877E-001	  1.02200E-001
  3.84000E-001	  1.15355E-001	  1.18920E-001	  1.06652E-001	  1.05249E-001
  4.09600E-001	  1.08763E-001	  1.10845E-001	  9.72435E-002	  9.57003E-002
  4.60800E-001	  8.90587E-002	  9.78862E-002	  7.46144E-002	  7.49137E-002
  5.12000E-001	  7.23121E-002	  8.07265E-002	  6.71621E-002	  5.73823E-002
  5.63200E-001	  6.20432E-002	  6.87693E-002	  5.06087E-002	  4.17056E-002
  6.14400E-001	  5.24684E-002	  5.85111E-002	  4.37036E-002	  3.72083E-002
  6.65600E-001	  4.00464E-002	  5.10031E-002	  3.73241E-002	  2.86517E-002
  7.16800E-001	  3.37459E-002	  4.27234E-002	  3.41343E-002	  2.71354E-002
  7.68000E-001	  3.76984E-002	  3.74302E-002	  2.76074E-002	  2.38007E-002
  8.19200E-001	  2.89283E-002	  3.02037E-002	  2.23333E-002	  1.74893E-002
  9.21600E-001	  2.15536E-002	  2.32083E-002	  1.40694E-002	  1.44955E-002
  1.02400E+000	  1.39404E-002	  1.74695E-002	  1.99320E-002	  1.77586E-002
  1.12640E+000	  8.91118E-003	  1.46375E-002	  1.03311E-002	  1.04584E-002
  1.22880E+000	  7.93913E-003	  1.51559E-002	 -8.85174E-004	  4.19906E-003
  1.33120E+000	  9.01992E-003	  1.22579E-002	 -1.07538E-002	 -3.14508E-004
  1.43360E+000	  4.68318E-003	  2.62500E-003	 -8.29472E-003	  8.93491E-003
  1.53600E+000	  3.11456E-003	  4.73582E-003	 -8.12842E-003	  1.07411E-002
  1.63840E+000	 -2.10063E-003	  1.00476E-002	 -9.39269E-003	  1.08886E-002
  1.84320E+000	 -3.34673E-003	  9.97705E-003	 -7.86551E-003	  5.48631E-003
  2.04800E+000	  6.09281E-003	  6.55012E-003	  3.34462E-003	 -3.72625E-003
  2.25280E+000	  1.38104E-002	  5.36669E-003	  3.36074E-004	 -9.53107E-003
  2.45760E+000	  3.00911E-003	  1.72316E-002	  3.84774E-003	 -1.15266E-002
  2.66240E+000	 -1.37924E-002	  1.93052E-002	  1.15070E-002	 -9.24605E-003
  2.86720E+000	 -2.07912E-002	  1.39742E-002	  1.84667E-002	 -1.07383E-002
  3.07200E+000	 -1.06939E-002	  6.00793E-003	  2.26609E-002	 -1.82705E-002
  3.27680E+000	 -4.45752E-003	  3.17561E-003	  2.59322E-002	 -1.60088E-002
  3.68640E+000	  4.40088E-003	 -8.54275E-003	  2.00765E-002	 -1.70421E-002
  4.09600E+000	 -1.96503E-003	 -7.02431E-003	  1.79291E-002	 -1.91234E-002
  4.50560E+000	  1.25159E-003	 -5.76020E-004	  1.88649E-002	 -1.28792E-002
  4.91520E+000	  1.47692E-003	  6.93671E-003	  1.66137E-002	 -1.35408E-002
  5.32480E+000	 -2.49142E-003	  3.01723E-003	  1.05954E-002	 -4.65474E-003
  5.73440E+000	 -8.35632E-003	  1.52656E-002	  9.30423E-003	 -8.92751E-003
  6.14400E+000	 -5.70019E-003	  7.00624E-003	  2.77197E-004	 -4.93162E-003
  6.55360E+000	 -3.58868E-003	  9.22243E-004	 -4.53833E-003	 -4.91587E-003
  7.37280E+000	 -2.03212E-003	  1.22089E-002	  8.42989E-003	  4.71427E-004
  8.19200E+000	  2.07267E-003	  1.81368E-002	  4.45324E-004	  4.03246E-003
  9.01120E+000	  5.14275E-003	  2.07906E-002	 -1.36128E-003	 -7.11675E-004
  9.83040E+000	 -4.10938E-003	  1.79230E-002	  1.85547E-003	 -3.70090E-003
  1.06496E+001	 -1.70336E-002	  6.14621E-003	  5.59041E-003	 -2.15550E-003
  1.14688E+001	 -1.14318E-002	  5.06898E-004	  1.59159E-003	  6.77933E-003
  1.22880E+001	 -2.78853E-003	 -1.59720E-002	 -7.88932E-003	  1.18531E-002
  1.31072E+001	  2.49754E-003	 -8.57690E-003	 -2.14464E-003	  5.88373E-004
  1.47456E+001	 -1.70001E-002	  8.81930E-003	  8.70745E-003	 -5.93724E-003
  1.63840E+001	 -2.99719E-003	  1.16735E-002	 -9.58472E-003	  4.13388E-003
  1.80224E+001	  6.17902E-003	  5.11517E-003	 -6.07987E-003	 -4.82417E-004
  1.96608E+001	 -2.70556E-003	 -6.50091E-003	  7.07035E-003	  1.65112E-003
  2.12992E+001	 -5.70809E-003	  7.51462E-003	  9.05062E-003	 -8.95866E-003
  2.29376E+001	  1.64797E-003	  3.13893E-003	 -1.48180E-003	 -8.50846E-003
  2.45760E+001	  6.50229E-003	  7.86150E-003	  5.97749E-003	  3.49027E-003
  2.62144E+001	  1.87785E-003	  5.18927E-003	  1.16714E-003	 -3.12422E-003
  2.94912E+001	 -1.23059E-003	  6.45794E-003	  2.59422E-003	  6.35716E-003
  3.27680E+001	  1.84422E-003	  1.37424E-003	  4.90432E-003	 -7.03043E-004
  3.60448E+001	  5.57388E-004	 -1.42154E-003	  1.22248E-002	 -1.37955E-003
  3.93216E+001	  2.47156E-003	  1.83441E-003	  3.39651E-003	  2.17512E-003
  4.25984E+001	 -4.36184E-003	 -2.25716E-003	 -6.48418E-003	 -5.20733E-003
  4.58752E+001	 -6.07707E-003	 -2.39435E-004	 -5.34387E-003	  1.24385E-003
  4.91520E+001	  2.73762E-003	  3.02295E-003	  9.60506E-003	 -3.46078E-003
  5.24288E+001	 -9.79714E-004	 -8.25952E-004	  3.89534E-003	 -4.21655E-003
  5.89824E+001	 -4.31953E-003	 -2.61017E-003	 -2.40947E-003	 -1.03501E-003
  6.55360E+001	 -3.59577E-003	 -2.41794E-003	  2.57217E-003	  1.86530E-003
  7.20896E+001	  9.97490E-004	 -3.44250E-003	  2.18209E-003	 -2.63905E-003
  7.86432E+001	  7.32176E-003	 -5.86054E-004	 -4.78542E-003	  3.63825E-003
  8.51968E+001	  2.38445E-003	  2.42326E-003	 -2.85154E-003	 -8.99505E-004
  9.17504E+001	 -1.10742E-003	 -7.55968E-003	 -1.01638E-003	  1.78771E-003
  9.83040E+001	 -1.12000E-002	 -5.31844E-003	 -8.26618E-004	 -5.13836E-003
  1.04858E+002	 -1.94758E-003	 -1.69220E-003	  3.40092E-003	  1.15318E-003
  1.17965E+002	 -2.24377E-003	 -2.05597E-003	  3.09931E-003	 -1.48720E-003
  1.31072E+002	  8.01551E-004	 -6.29969E-003	  1.01383E-003	 -8.71745E-004
  1.44179E+002	 -5.88148E-005	 -3.87839E-003	  2.51609E-003	  7.40457E-004
  1.57286E+002	  2.90916E-003	 -1.15506E-003	  4.06776E-003	 -2.46792E-003
  1.70394E+002	  9.43045E-005	 -8.96695E-004	  7.79360E-004	  1.66595E-004
  1.83501E+002	 -1.12431E-003	  3.27059E-003	 -3.86100E-003	  2.77527E-004
  1.96608E+002	  2.71158E-003	  1.15633E-003	  2.69253E-003	 -1.42051E-003
  2.09715E+002	  6.16000E-004	 -4.07073E-004	  3.03623E-003	 -4.80581E-004
  2.35930E+002	  9.13015E-004	  7.43665E-004	 -2.98368E-003	  4.55621E-004
  2.62144E+002	  1.61399E-003	 -2.06199E-003	  1.62585E-003	 -1.14749E-003
  2.88358E+002	  1.78646E-003	 -4.49188E-003	 -2.24808E-003	  4.70373E-004
  3.14573E+002	 -2.33774E-003	 -8.90887E-003	  5.39330E-003	 -4.14112E-004
  3.40787E+002	 -2.03420E-003	 -2.32179E-003	 -8.00063E-004	 -5.92805E-004
  3.67002E+002	  6.10734E-004	 -2.43411E-003	 -1.58204E-003	  2.43027E-003
  3.93216E+002	 -1.15730E-003	  3.12579E-003	 -4.42857E-003	  1.92283E-003

"Count Rate"
       0.01311	      55.38940	      51.26953	      57.60193	      48.98071
       0.02621	      51.49841	      52.49023	      53.86353	      49.51477
       0.03932	      46.76819	      53.25317	      66.98608	      56.15234
       0.05243	      50.81177	      43.25867	      56.15234	      59.20410
       0.06554	      55.16052	      52.10876	      68.35938	      50.73547
       0.07864	      52.94800	      52.10876	      73.92883	      56.22864
       0.09175	      58.13599	      47.37854	      37.15515	      45.24231
       0.10486	      59.50928	      54.62646	      51.04065	      49.81995
       0.11796	      38.60474	      87.50916	      51.11694	      45.24231
       0.13107	      86.05957	      78.58276	      37.91809	      43.79272
       0.14418	      46.23413	      82.70264	      38.29956	      53.40576
       0.15729	      46.99707	      56.45752	      39.97803	      56.30493
       0.17039	      57.44934	      55.69458	      51.42212	      48.90442
       0.18350	      41.73279	      49.36218	      37.76550	      57.60193
       0.19661	      37.00256	      57.22046	      44.93713	      50.35400
       0.20972	      54.62646	      58.82263	      40.96985	      41.12244
       0.22282	      49.59106	      51.34583	      63.62915	      67.52014
       0.23593	      50.04883	      51.72729	      48.14148	      56.61011
       0.24904	      56.38123	      47.68372	      42.80090	      62.94250
       0.26214	      63.85803	      47.45483	      45.62378	      51.04065
       0.27525	      44.32678	      42.11426	      44.78455	      39.59656
       0.28836	      51.42212	      58.82263	      61.49292	      57.22046
       0.30147	      66.83350	      48.75183	      58.97522	      52.64282
       0.31457	      50.96436	      50.96436	      44.78455	      45.47119
       0.32768	      53.71094	      64.46838	      51.04065	      42.57202
       0.34079	      52.87170	      50.81177	      44.70825	      44.70825
       0.35389	      46.61560	      61.34033	      43.71643	      50.04883
       0.36700	      41.88538	      49.20959	      48.82813	      63.47656
       0.38011	      59.73816	      44.86084	      45.24231	      43.56384
       0.39322	      55.54199	      54.85535	      62.40845	      49.74365
       0.40632	      68.43567	      61.49292	      44.70825	      46.31042
       0.41943	      33.11157	      61.79810	      74.92065	      45.77637
       0.43254	      39.44397	      37.15515	      42.87720	      52.94800
       0.44564	      59.73816	      52.49023	      61.56921	      51.72729
       0.45875	      57.06787	      42.11426	      57.14417	      56.76270
       0.47186	      47.45483	      57.37305	      40.74097	      59.89075
       0.48497	      59.35669	      43.48755	      62.17957	      47.45483
       0.49807	      52.10876	      53.63464	      53.63464	      50.81177
       0.51118	      54.01611	      59.73816	      48.90442	      46.53931
       0.52429	      53.93982	      53.40576	      51.11694	      54.01611
       0.53740	      59.20410	      42.95349	      61.95068	      50.73547
       0.55050	      55.92346	      62.63733	      60.50110	      52.71912
       0.56361	      56.83899	      59.66187	      51.19324	      59.28040
       0.57672	      50.58289	      58.05969	      51.26953	      55.16052
       0.58982	      51.72729	      52.41394	      57.44934	      58.59375
       0.60293	      56.99158	      54.32129	      50.20142	      52.71912
       0.61604	      45.92896	      52.33765	      58.59375	      51.87988
       0.62915	      51.19324	      54.47388	      51.11694	      54.32129
       0.64225	      54.77905	      55.99976	      52.49023	      51.19324
       0.65536	      50.58289	      62.40845	      52.64282	      54.32129
       0.66847	      59.35669	      56.99158	      43.10608	      44.93713
       0.68157	      51.87988	      60.42480	      39.67285	      52.10876
       0.69468	      57.83081	      59.43298	      60.11963	      53.78723
       0.70779	      53.48206	      51.19324	      60.11963	      47.98889
       0.72090	      51.65100	      53.25317	      52.10876	      52.18506
       0.73400	      49.36218	      54.62646	      57.06787	      55.46570
       0.74711	      61.49292	      58.21228	      55.08423	      57.14417
